Data from JASIL_3304_Reflection_1.txt Node
Date: Tue Nov 17 19:47:00 EST 2015
User: Geneva
Spectrometer: USB4E03002
Autoset integration time: false
Trigger mode: 4
Integration Time (sec): 1.000000E-1
Scans to average: 10
Electric dark correction enabled: false
Nonlinearity correction enabled: false
Boxcar width: 5
Stray light correction enabled: false
XAxis mode: Wavelengths
Stop averaging: false
Number of Pixels in Spectrum: 3648
>>>>>Begin Spectral Data<<<<<
177.575	-118.81
177.794	-172.83
178.014	-215.73
178.233	-605.66
178.452	-560
178.672	-455.12
178.891	-1122.41
179.11	7520
179.33	2132.61
179.549	2098.04
179.768	-10345.45
179.987	929.55
180.207	531.56
180.426	912.33
180.645	1075.2
180.864	7729.41
181.084	706.63
181.303	552.68
181.522	663.79
181.741	587.64
181.96	970.71
182.179	5594.12
182.398	-1158.44
182.618	-453.23
182.837	-386.67
183.056	-430.05
183.275	-457.22
183.494	-196.92
183.713	-159.05
183.932	-145.08
184.151	-116.02
184.37	-91.77
184.589	-132.4
184.808	-83.07
185.027	-76.32
185.246	-125.29
185.465	-95.06
185.684	-98.92
185.903	-157.61
186.122	-210
186.341	-400.88
186.56	-227.38
186.779	-1403.7
186.998	-147.09
187.216	-252.22
187.435	-280.61
187.654	-292.12
187.873	-150.45
188.092	-238.46
188.311	-312.86
188.53	-214.13
188.748	-83.56
188.967	-87.88
189.186	-71.23
189.405	-165.27
189.623	-110.63
189.842	-113.69
190.061	-62.41
190.28	-70.77
190.498	-95.02
190.717	-41.96
190.936	-44.23
191.154	-112.09
191.373	-383.91
191.592	1120.93
191.81	337.86
192.029	347.37
192.248	177.94
192.466	190.06
192.685	77.68
192.904	165.35
193.122	194.51
193.341	307.56
193.559	422.03
193.778	420.44
193.996	264.45
194.215	762.32
194.433	457.14
194.652	396.5
194.87	429.38
195.089	528.46
195.307	905.26
195.526	-486.73
195.744	-243.17
195.963	-356.67
196.181	-507.44
196.399	-873.56
196.618	1097.37
196.836	611.35
197.055	542.57
197.273	591.04
197.491	545.05
197.71	363.49
197.928	280.13
198.146	269.52
198.365	1671.43
198.583	1190.48
198.801	-412.1
199.019	-121.51
199.238	-111.54
199.456	-97.16
199.674	-126.33
199.892	-139.76
200.111	-109.39
200.329	-135.75
200.547	-164.42
200.765	1284.31
200.983	-415.38
201.202	1032.89
201.42	339.64
201.638	258.31
201.856	449.57
202.074	683.33
202.292	433.21
202.51	344.14
202.728	449.82
202.946	3767.86
203.165	1894.23
203.383	411.91
203.601	520.3
203.819	962.73
204.037	-2721.21
204.255	-3629.63
204.473	-651.75
204.691	-514.71
204.909	-444.25
205.127	-2337.5
205.345	705.45
205.562	-724.03
205.78	-145.15
205.998	-123.65
206.216	-81.24
206.434	-110.73
206.652	-88.38
206.87	-205.99
207.088	-155.24
207.306	-264.74
207.523	-152.49
207.741	-146.01
207.959	-253.15
208.177	-361.14
208.395	-340.69
208.612	-426.85
208.83	-256.35
209.048	-275.51
209.266	-238.95
209.483	-166.99
209.701	-166.27
209.919	-111.68
210.136	-145.06
210.354	-176.12
210.572	-231.99
210.79	-291
211.007	-497.89
211.225	-5306.67
211.442	1296.61
211.66	3524
211.878	318.94
212.095	470.16
212.313	792.37
212.53	323.22
212.748	265.74
212.966	200.29
213.183	206.61
213.401	-2022.22
213.618	-92.86
213.836	-79.86
214.053	-99.08
214.271	-26.28
214.488	-16.07
214.705	-18.41
214.923	-61.42
215.14	-40.96
215.358	-32.71
215.575	-47.45
215.793	-106.81
216.01	-368.25
216.227	-679.31
216.445	-541.67
216.662	-261.64
216.879	-357.39
217.097	-205.23
217.314	-284.05
217.531	10975
217.749	729.7
217.966	410.44
218.183	265.05
218.4	412.9
218.618	375.66
218.835	254.62
219.052	268.38
219.269	219.19
219.487	148.06
219.704	142.02
219.921	130.93
220.138	217.93
220.355	181.87
220.572	165.04
220.79	145.77
221.007	222.04
221.224	285.55
221.441	300.76
221.658	338.46
221.875	-1051.43
222.092	-569.32
222.309	2069.7
222.526	364.24
222.743	357.49
222.96	433.09
223.177	1360.47
223.394	839.47
223.611	477.62
223.828	332
224.045	242.02
224.262	236.24
224.479	244.78
224.696	362.98
224.913	585.95
225.13	553.77
225.347	451.72
225.564	233.76
225.781	116.67
225.997	113.96
226.214	101.25
226.431	85.24
226.648	64.13
226.865	41.75
227.082	35.69
227.298	39.03
227.515	33.95
227.732	30.71
227.949	26.89
228.165	21.87
228.382	10
228.599	8.74
228.816	12.27
229.032	12.79
229.249	24.9
229.466	25.44
229.682	26.38
229.899	26.25
230.116	35.19
230.332	39.81
230.549	46.75
230.765	53.08
230.982	40.99
231.199	37.15
231.415	35.74
231.632	34.27
231.848	34
232.065	20.96
232.281	22.13
232.498	30.15
232.714	18.69
232.931	23.97
233.147	26.79
233.364	38.18
233.58	44.08
233.797	54.38
234.013	50.98
234.23	75.1
234.446	78.12
234.662	107.52
234.879	103.71
235.095	112.64
235.312	94.34
235.528	103.39
235.744	125.29
235.961	160.86
236.177	142.34
236.393	181.25
236.61	118.67
236.826	116.81
237.042	71.43
237.258	73.58
237.475	81.41
237.691	125.19
237.907	83.11
238.123	81.68
238.339	76.97
238.556	79.38
238.772	64.93
238.988	54.29
239.204	37.83
239.42	43.35
239.636	41.57
239.853	37.14
240.069	30.83
240.285	32.82
240.501	28.96
240.717	25.2
240.933	20.6
241.149	16.51
241.365	18.61
241.581	21.51
241.797	22.7
242.013	22.69
242.229	23.07
242.445	20.38
242.661	19.37
242.877	17.91
243.093	22.66
243.309	26.09
243.525	31.64
243.741	35.6
243.957	35.59
244.173	33.09
244.388	33.08
244.604	28.48
244.82	28.63
245.036	26.16
245.252	23.33
245.468	21.37
245.683	19.04
245.899	15.93
246.115	13.45
246.331	12.45
246.547	14.06
246.762	12.41
246.978	12.75
247.194	12.59
247.409	11.07
247.625	11.85
247.841	12.62
248.057	14.27
248.272	15.83
248.488	14.7
248.703	13.79
248.919	13.17
249.135	15.86
249.35	18.33
249.566	17.36
249.782	21.63
249.997	21.03
250.213	21.09
250.428	18.47
250.644	18.54
250.859	20.99
251.075	19.79
251.29	14.54
251.506	12.96
251.721	12.22
251.937	10.08
252.152	9.28
252.368	7.78
252.583	7.36
252.798	7.39
253.014	5.31
253.229	6.77
253.445	13.04
253.66	21.14
253.875	19.58
254.091	17.82
254.306	20.95
254.521	12.11
254.737	12.76
254.952	6.33
255.167	7.74
255.383	7.88
255.598	10.08
255.813	4.59
256.028	-5.56
256.244	1.15
256.459	4.98
256.674	11.4
256.889	14.43
257.104	13.69
257.32	13.61
257.535	12.27
257.75	11.54
257.965	8.57
258.18	7.82
258.395	9.88
258.61	8.99
258.826	6.88
259.041	5.28
259.256	4.05
259.471	3.14
259.686	3.18
259.901	4.6
260.116	4.73
260.331	5.67
260.546	7.66
260.761	6.27
260.976	8.23
261.191	8.88
261.406	9.14
261.621	10.63
261.836	12.86
262.05	13.16
262.265	13.05
262.48	14.27
262.695	16.45
262.91	17.83
263.125	21.13
263.34	15.03
263.555	14.11
263.769	12.61
263.984	8
264.199	11.67
264.414	14.62
264.629	12.36
264.843	13.05
265.058	11.36
265.273	7.67
265.488	11.79
265.702	12.81
265.917	15.78
266.132	16.19
266.346	18.26
266.561	18.74
266.776	17.85
266.99	18.64
267.205	17.95
267.42	16.25
267.634	16.66
267.849	13.77
268.063	11.15
268.278	8.67
268.492	13.17
268.707	15.23
268.922	14.61
269.136	14.1
269.351	13.18
269.565	13.91
269.78	12.71
269.994	13.13
270.209	11.8
270.423	11.75
270.637	11.56
270.852	8.67
271.066	7.24
271.281	6.53
271.495	3.87
271.709	4.38
271.924	5.13
272.138	7.2
272.353	6.97
272.567	8.93
272.781	10.21
272.996	10.46
273.21	10.27
273.424	10.98
273.638	12.77
273.853	15.77
274.067	15.27
274.281	11.95
274.495	13.55
274.71	16.38
274.924	15.7
275.138	17.89
275.352	18.72
275.566	19.91
275.781	17.94
275.995	14.2
276.209	15.47
276.423	14.62
276.637	16.73
276.851	13.67
277.065	11.91
277.279	11.64
277.493	9.24
277.707	6.14
277.921	3.67
278.135	6.71
278.349	6.89
278.563	6.38
278.777	7.38
278.991	6.44
279.205	9.99
279.419	6.11
279.633	5.83
279.847	7.05
280.061	7.76
280.275	8.99
280.489	5.38
280.703	6.75
280.917	7.33
281.131	5.9
281.344	6.98
281.558	6.1
281.772	8.6
281.986	10.62
282.2	8.92
282.414	10.27
282.627	9.9
282.841	10.58
283.055	9.53
283.269	10.91
283.482	11.21
283.696	11.49
283.91	11.57
284.123	10.05
284.337	8.06
284.551	9.25
284.764	9.51
284.978	9.48
285.192	10.1
285.405	10.56
285.619	8.12
285.833	8.42
286.046	8.1
286.26	6.97
286.473	9.06
286.687	9.31
286.9	9.79
287.114	9.69
287.327	9.27
287.541	9.35
287.754	10.62
287.968	11.97
288.181	11.88
288.395	12.95
288.608	12.55
288.822	12.55
289.035	13.34
289.248	12.8
289.462	12.04
289.675	13.08
289.889	13.86
290.102	12.24
290.315	12.03
290.529	12.81
290.742	10.55
290.955	12.8
291.169	13.31
291.382	13.19
291.595	13.3
291.808	14.35
292.022	13.08
292.235	12.42
292.448	12.08
292.661	12.14
292.875	11.71
293.088	13.13
293.301	12.51
293.514	9.8
293.727	8.57
293.94	6.46
294.153	5.83
294.367	7.5
294.58	6.2
294.793	4.3
295.006	3.33
295.219	3.41
295.432	1.75
295.645	2.02
295.858	3.53
296.071	2.9
296.284	4.2
296.497	4.56
296.71	5.01
296.923	3.8
297.136	5.29
297.349	7.01
297.562	7.75
297.775	9.02
297.988	7.13
298.201	7.76
298.414	9.54
298.626	8.4
298.839	8.73
299.052	9.13
299.265	11.33
299.478	12.1
299.691	10.73
299.903	9.66
300.116	8.16
300.329	8.55
300.542	9.22
300.755	8.53
300.967	9.16
301.18	8.96
301.393	6.91
301.605	7.12
301.818	8.33
302.031	7.8
302.243	7.05
302.456	9.32
302.669	11.31
302.881	9.02
303.094	11.26
303.307	11.92
303.519	11.32
303.732	12.46
303.944	13.16
304.157	13.4
304.37	13.34
304.582	14.43
304.795	14.86
305.007	14.21
305.22	14.97
305.432	12.34
305.645	12.78
305.857	13.66
306.069	11.9
306.282	11.04
306.494	7.99
306.707	9.69
306.919	9.09
307.132	7.73
307.344	6.99
307.556	6.35
307.769	6.18
307.981	6.27
308.193	6.46
308.406	5.72
308.618	5.92
308.83	6.16
309.043	4.63
309.255	5.64
309.467	5.69
309.679	5.77
309.892	5.96
310.104	6.64
310.316	7.37
310.528	7.13
310.74	6.63
310.953	7.55
311.165	7.67
311.377	8.71
311.589	8.89
311.801	9.59
312.013	9.27
312.225	8.57
312.437	7.54
312.649	6.11
312.862	5.7
313.074	6.7
313.286	6.2
313.498	7.61
313.71	7.36
313.922	6.71
314.134	6.63
314.346	8.01
314.558	8.46
314.77	9.1
314.982	10.67
315.193	10.55
315.405	11
315.617	10.05
315.829	10.74
316.041	11.36
316.253	9.18
316.465	8.8
316.677	7.09
316.888	9.98
317.1	10.92
317.312	10.15
317.524	11.18
317.736	12.92
317.947	11.83
318.159	11.77
318.371	12.04
318.583	13.75
318.794	12.47
319.006	14.29
319.218	13.01
319.43	11.87
319.641	13.88
319.853	13.71
320.064	13.42
320.276	15.71
320.488	14
320.699	13.66
320.911	12.65
321.123	14.72
321.334	13.6
321.546	12.1
321.757	14.1
321.969	13.55
322.18	11.99
322.392	10.97
322.603	10.79
322.815	11.27
323.026	9.16
323.238	9.39
323.449	7.46
323.661	7.71
323.872	8.21
324.083	6.67
324.295	4.55
324.506	3.64
324.718	3.68
324.929	5
325.14	7.06
325.352	8.48
325.563	9.53
325.774	10.51
325.986	10.88
326.197	11.72
326.408	11.74
326.62	13.24
326.831	15.34
327.042	15.83
327.253	15.69
327.464	13.63
327.676	13.45
327.887	12.81
328.098	13.39
328.309	13.49
328.52	13.03
328.732	14.62
328.943	15.03
329.154	14.52
329.365	14.37
329.576	13.13
329.787	14.99
329.998	16.36
330.209	17.84
330.42	18.28
330.631	18.24
330.842	19.24
331.053	17.88
331.264	17.37
331.475	17.82
331.686	18.46
331.897	19.36
332.108	20.76
332.319	20.26
332.53	19.6
332.741	17.92
332.952	17.07
333.163	16.69
333.374	17.04
333.585	17.72
333.795	17.44
334.006	15.39
334.217	15.81
334.428	11.5
334.639	11.56
334.849	12.63
335.06	13.52
335.271	15.16
335.482	15.47
335.692	15.12
335.903	12.6
336.114	14.3
336.325	16.27
336.535	14.83
336.746	16.79
336.957	15.67
337.167	14.72
337.378	15.43
337.589	15.18
337.799	14.38
338.01	15.52
338.22	16.8
338.431	14.85
338.642	14.44
338.852	15.5
339.063	14.55
339.273	15.43
339.484	14.78
339.694	14.05
339.905	13.78
340.115	14.26
340.326	13.34
340.536	13.3
340.746	14.15
340.957	14.36
341.167	14.68
341.378	16.45
341.588	15.22
341.799	15.11
342.009	14.48
342.219	13.31
342.43	13.5
342.64	12.8
342.85	14.2
343.061	14.02
343.271	13.6
343.481	12.26
343.691	11.21
343.902	12.77
344.112	13.93
344.322	13.41
344.532	13.78
344.743	14.38
344.953	14.92
345.163	12.73
345.373	12.43
345.583	12.93
345.793	15.21
346.004	15.92
346.214	16.14
346.424	14.81
346.634	15.27
346.844	16.37
347.054	15.58
347.264	16.26
347.474	16.28
347.684	16.75
347.894	16.19
348.104	13.34
348.314	12.69
348.524	11.81
348.734	13.56
348.944	14.07
349.154	13.62
349.364	13.59
349.574	13.27
349.784	14.28
349.994	13.98
350.204	13.46
350.413	13.56
350.623	13.47
350.833	14.08
351.043	14.29
351.253	15.73
351.463	14.92
351.672	15.3
351.882	14.26
352.092	14.93
352.302	15.35
352.511	16.14
352.721	17.04
352.931	17.57
353.141	17.09
353.35	15.97
353.56	13.97
353.77	12.77
353.979	12.03
354.189	13.44
354.399	13.19
354.608	13.25
354.818	12.69
355.027	12.6
355.237	11.4
355.447	12.4
355.656	12.96
355.866	13.69
356.075	15.77
356.285	15.87
356.494	14.65
356.704	15.02
356.913	14.93
357.123	14.48
357.332	14.07
357.542	14.5
357.751	14.07
357.96	13.16
358.17	13.18
358.379	12.15
358.589	11.87
358.798	12.27
359.007	12.17
359.217	12.1
359.426	12.54
359.635	12.92
359.845	13.76
360.054	12.8
360.263	13.2
360.472	13.53
360.682	13.71
360.891	14.51
361.1	15.41
361.309	15.09
361.519	15.1
361.728	15.1
361.937	15.02
362.146	14.75
362.355	15.28
362.564	13.89
362.774	13.4
362.983	13.27
363.192	12.49
363.401	12.02
363.61	11.88
363.819	12
364.028	12.18
364.237	12.72
364.446	12.54
364.655	12.11
364.864	14.41
365.073	14.44
365.282	14.14
365.491	14.66
365.7	14.77
365.909	13.68
366.118	13.39
366.327	13.4
366.536	11.03
366.745	11.07
366.954	11.61
367.162	10.77
367.371	10.76
367.58	11.45
367.789	10.97
367.998	9.94
368.207	10.24
368.415	10.53
368.624	10.86
368.833	12.75
369.042	11.96
369.25	11.43
369.459	11.37
369.668	11.29
369.877	11.77
370.085	11.54
370.294	12.12
370.503	13.79
370.711	13.4
370.92	13.01
371.129	11.92
371.337	10.99
371.546	11.16
371.754	11.01
371.963	11.41
372.171	10.26
372.38	9.52
372.589	9.31
372.797	8
373.006	8.29
373.214	6.99
373.423	7.41
373.631	9.18
373.84	7.86
374.048	7.76
374.256	7.39
374.465	8.84
374.673	10.91
374.882	9.78
375.09	10.03
375.298	10.1
375.507	10.44
375.715	10.62
375.923	10.51
376.132	11.62
376.34	11.18
376.548	11.1
376.757	9.9
376.965	8.76
377.173	10.71
377.381	10.39
377.59	9.75
377.798	10.31
378.006	10.34
378.214	10.56
378.423	10.11
378.631	10.14
378.839	9.73
379.047	11.14
379.255	10.86
379.463	9.13
379.671	9.87
379.879	10.65
380.088	10.19
380.296	10.74
380.504	10.56
380.712	10.9
380.92	11.17
381.128	12.65
381.336	11.24
381.544	10.97
381.752	10.73
381.96	10.01
382.168	8.58
382.376	9.56
382.584	8.77
382.791	8.03
382.999	8.26
383.207	7.76
383.415	7.31
383.623	7.64
383.831	8.15
384.039	9.05
384.247	9.32
384.454	10.44
384.662	10.07
384.87	10.88
385.078	11.13
385.285	10.49
385.493	12.46
385.701	11.42
385.909	11.97
386.116	11.4
386.324	10.68
386.532	10.65
386.739	10.62
386.947	9.86
387.155	8.86
387.362	8.68
387.57	8.38
387.778	6.83
387.985	6
388.193	5.1
388.4	5.14
388.608	5.8
388.816	5.79
389.023	5.84
389.231	6.98
389.438	7.32
389.646	7.5
389.853	8.25
390.061	8.23
390.268	8.91
390.475	8.38
390.683	8.31
390.89	8.66
391.098	8.76
391.305	8
391.512	7.42
391.72	6.75
391.927	7.31
392.135	7.15
392.342	7.31
392.549	6.98
392.756	7.91
392.964	7.99
393.171	8.24
393.378	7.96
393.586	8.29
393.793	8.3
394	8.8
394.207	8.01
394.414	8.41
394.622	7.91
394.829	8.53
395.036	7.67
395.243	7.9
395.45	7.37
395.657	6.09
395.864	6.25
396.072	6.97
396.279	7.1
396.486	7.46
396.693	7.03
396.9	7.57
397.107	7.55
397.314	8.27
397.521	7.91
397.728	7.23
397.935	7.98
398.142	8.45
398.349	7.5
398.556	7.52
398.763	7.53
398.97	7.99
399.177	8.25
399.383	7.84
399.59	7.53
399.797	7.32
400.004	8.21
400.211	8.71
400.418	7.82
400.625	7.99
400.831	8.16
401.038	8.37
401.245	8.28
401.452	7.68
401.658	8.48
401.865	8.56
402.072	8.81
402.279	8.73
402.485	8.88
402.692	9.31
402.899	8.46
403.105	8.34
403.312	8.11
403.519	7.81
403.725	7.83
403.932	7.39
404.138	7.62
404.345	7.66
404.552	7.3
404.758	7.46
404.965	6.57
405.171	7.02
405.378	7.37
405.584	7.29
405.791	6.74
405.997	6.85
406.204	7.44
406.41	7.33
406.617	7.76
406.823	7.46
407.029	6.63
407.236	7.15
407.442	7.21
407.649	6.79
407.855	6.51
408.061	6.69
408.268	6.4
408.474	6
408.68	5.86
408.887	5.4
409.093	6.16
409.299	6.73
409.505	6.63
409.712	6.84
409.918	6.4
410.124	5.95
410.33	6.5
410.537	6.96
410.743	6.33
410.949	6.32
411.155	6.31
411.361	5.64
411.567	4.82
411.773	5.39
411.98	5.43
412.186	6.35
412.392	6.86
412.598	6.42
412.804	5.99
413.01	6.7
413.216	6.59
413.422	6.83
413.628	7.41
413.834	7.56
414.04	6.9
414.246	6.43
414.452	6.01
414.658	5.9
414.864	6.53
415.07	6.83
415.275	6.37
415.481	6.44
415.687	6.39
415.893	5.88
416.099	6.57
416.305	6.49
416.511	6.98
416.716	6.75
416.922	7.38
417.128	6.78
417.334	6.79
417.539	6.94
417.745	7.1
417.951	6.52
418.157	7.11
418.362	6.91
418.568	7.3
418.774	7.08
418.979	6.9
419.185	6.34
419.391	6.33
419.596	6.39
419.802	6.09
420.008	5.54
420.213	6.34
420.419	5.95
420.624	6.05
420.83	6.14
421.035	6.15
421.241	6.3
421.446	6.56
421.652	6.83
421.857	6.91
422.063	7.46
422.268	7.85
422.474	7.29
422.679	7.31
422.885	6.98
423.09	6.84
423.295	6.84
423.501	7.07
423.706	6.85
423.911	6.63
424.117	6.54
424.322	6.16
424.527	5.93
424.733	6.02
424.938	5.77
425.143	5.78
425.349	5.52
425.554	5.49
425.759	5.3
425.964	5.64
426.169	5.88
426.375	6
426.58	6.24
426.785	6.28
426.99	6.23
427.195	6.54
427.4	6.69
427.605	7.03
427.811	6.82
428.016	6.49
428.221	6.5
428.426	6.59
428.631	5.87
428.836	5.41
429.041	5.59
429.246	5.89
429.451	6.2
429.656	6.05
429.861	5.78
430.066	6.12
430.271	6.94
430.476	6.66
430.681	6.26
430.886	6.56
431.09	6.71
431.295	6.86
431.5	7.13
431.705	6.59
431.91	6.63
432.115	6.43
432.32	6.08
432.524	5.32
432.729	5.5
432.934	5.71
433.139	5.63
433.343	5.31
433.548	5.13
433.753	4.31
433.958	4.3
434.162	4.36
434.367	4.57
434.572	4.5
434.776	4.85
434.981	4.52
435.186	4.27
435.39	4.19
435.595	4.2
435.799	3.94
436.004	4.29
436.209	4.75
436.413	4.46
436.618	4.46
436.822	4.42
437.027	4.65
437.231	4.48
437.436	4.49
437.64	4.71
437.845	4.81
438.049	4.61
438.253	4.26
438.458	4.23
438.662	4.53
438.867	4.63
439.071	5.09
439.275	5.08
439.48	5.1
439.684	5.29
439.888	5.31
440.093	5.43
440.297	5.62
440.501	6.3
440.706	6.4
440.91	6.25
441.114	6.39
441.318	6.36
441.523	6.35
441.727	6.2
441.931	6.3
442.135	6.31
442.339	6.62
442.543	6.9
442.748	6.62
442.952	6.16
443.156	6
443.36	5.8
443.564	5.66
443.768	5.7
443.972	6.14
444.176	6.08
444.38	5.93
444.584	5.63
444.788	5.41
444.992	5.26
445.196	5.34
445.4	5.46
445.604	5.14
445.808	5.12
446.012	4.74
446.216	4.77
446.42	4.51
446.624	4.87
446.828	5.09
447.032	5.12
447.235	5.15
447.439	4.98
447.643	5.24
447.847	5.64
448.051	5.77
448.254	6.17
448.458	6.03
448.662	5.91
448.866	5.49
449.069	5.22
449.273	5.23
449.477	5.13
449.681	5.19
449.884	5
450.088	4.89
450.292	4.82
450.495	4.55
450.699	4.6
450.902	4.69
451.106	4.39
451.31	4.63
451.513	5.04
451.717	5.34
451.92	5.68
452.124	5.96
452.327	6.22
452.531	6.02
452.734	5.96
452.938	6.1
453.141	6.52
453.345	6.87
453.548	6.67
453.752	6.65
453.955	6.45
454.158	6.35
454.362	5.9
454.565	5.58
454.769	6
454.972	6.43
455.175	6.44
455.379	6.77
455.582	7.14
455.785	7.39
455.988	7.17
456.192	7.42
456.395	7.01
456.598	7.37
456.801	7.54
457.005	7.34
457.208	6.99
457.411	6.43
457.614	6.08
457.817	5.71
458.021	5.32
458.224	5.24
458.427	5.08
458.63	5.17
458.833	5.3
459.036	5.05
459.239	4.77
459.442	4.57
459.645	4.99
459.848	4.98
460.051	5.01
460.254	5.47
