Data from JASIL_3245_Reflection_1.txt Node
Date: Mon Nov 16 20:35:27 EST 2015
User: Geneva
Spectrometer: USB4E03002
Autoset integration time: false
Trigger mode: 4
Integration Time (sec): 1.000000E-1
Scans to average: 10
Electric dark correction enabled: false
Nonlinearity correction enabled: false
Boxcar width: 5
Stray light correction enabled: false
XAxis mode: Wavelengths
Stop averaging: false
Number of Pixels in Spectrum: 3648
>>>>>Begin Spectral Data<<<<<
177.575	-590.6
177.794	-620.71
178.014	-630.12
178.233	-1065.42
178.452	-1504.82
178.672	-1100
178.891	-1444.34
179.11	4478.38
179.33	1478.57
179.549	-6918.18
179.768	1374.58
179.987	1664.52
180.207	1021.94
180.426	578.4
180.645	617.99
180.864	1085.06
181.084	426.99
181.303	379.17
181.522	711.36
181.741	2230.99
181.96	535.04
182.179	653.53
182.398	832.89
182.618	816.1
182.837	797.06
183.056	690.08
183.275	454.99
183.494	482.56
183.713	488.4
183.932	383.98
184.151	396.72
184.37	384.3
184.589	311.3
184.808	251.4
185.027	228.77
185.246	282.97
185.465	427.14
185.684	447.14
185.903	1603.45
186.122	672.65
186.341	845.51
186.56	404.21
186.779	732.64
186.998	1022.31
187.216	1075.59
187.435	891.02
187.654	747.57
187.873	333.84
188.092	288.89
188.311	295.83
188.53	465.98
188.748	436.96
188.967	1069.6
189.186	555.56
189.405	662.77
189.623	627.31
189.842	581.48
190.061	630.14
190.28	1892.31
190.498	-1853.75
190.717	1293.65
190.936	-2781.36
191.154	-1446.43
191.373	-31983.33
191.592	-17481.82
191.81	-958.05
192.029	-1400
192.248	-432.62
192.466	-427.78
192.685	-429.06
192.904	-609.52
193.122	-410.67
193.341	-823.24
193.559	-749.24
193.778	-788.48
193.996	-1032.82
194.215	38800
194.433	-3435.71
194.652	737.44
194.87	597.4
195.089	567.25
195.307	649.47
195.526	1961.02
195.744	1159.65
195.963	702.75
196.181	13925
196.399	-910.26
196.618	4960
196.836	17650
197.055	-960.66
197.273	-2239.66
197.491	-1654.44
197.71	-2872.55
197.928	1965
198.146	3492.86
198.365	-15770
198.583	782.68
198.801	1073.1
199.019	2551.95
199.238	-4528.57
199.456	1776.42
199.674	741.53
199.892	545.21
200.111	709.23
200.329	679.25
200.547	496.62
200.765	462.57
200.983	503.31
201.202	401.43
201.42	633.07
201.638	401.18
201.856	487.78
202.074	1542.98
202.292	1800
202.51	1248.3
202.728	1872.16
202.946	-4562.5
203.165	5672.73
203.383	-1942.27
203.601	-2294.19
203.819	4174
204.037	19990
204.255	2065.98
204.473	881.31
204.691	1214.67
204.909	782.86
205.127	848.84
205.345	954.55
205.562	905.45
205.78	555.37
205.998	620.41
206.216	529.29
206.434	529.05
206.652	480.3
206.87	338.79
207.088	286.75
207.306	346.17
207.523	325.1
207.741	270.81
207.959	253.82
208.177	321.64
208.395	245.45
208.612	261.94
208.83	243.14
209.048	264.58
209.266	359.82
209.483	375.76
209.701	319.65
209.919	371.19
210.136	375.9
210.354	909
210.572	850.23
210.79	1396.3
211.007	868.56
211.225	1512.4
211.442	-8604.76
211.66	-2452.78
211.878	-1109.03
212.095	247.48
212.313	256.73
212.53	353.2
212.748	199.7
212.966	181.69
213.183	165.47
213.401	155.37
213.618	136.89
213.836	173.1
214.053	173.88
214.271	178.66
214.488	1422.69
214.705	779.36
214.923	552.58
215.14	588.61
215.358	453.54
215.575	725.94
215.793	754.34
216.01	1104.91
216.227	359.36
216.445	308.95
216.662	328
216.879	315.19
217.097	273.01
217.314	320.08
217.531	421.6
217.749	463.77
217.966	533.33
218.183	479.06
218.4	553.42
218.618	762.99
218.835	750.83
219.052	545.21
219.269	465.41
219.487	687.85
219.704	477.03
219.921	340.4
220.138	281.62
220.355	287.47
220.572	293.29
220.79	301
221.007	334.6
221.224	424.62
221.441	391.88
221.658	435.91
221.875	320.51
222.092	327.54
222.309	448.55
222.526	468.15
222.743	406.8
222.96	537.26
223.177	258.17
223.394	264.44
223.611	189.03
223.828	215.65
224.045	251.55
224.262	279.51
224.479	193.24
224.696	164.05
224.913	207.87
225.13	175.06
225.347	129.83
225.564	134.05
225.781	113.55
225.997	110.59
226.214	89.79
226.431	78.74
226.648	68.28
226.865	64.73
227.082	66.06
227.298	52.41
227.515	43.91
227.732	46.86
227.949	42.78
228.165	39.46
228.382	35.91
228.599	36.11
228.816	36.35
229.032	36.37
229.249	30.86
229.466	28.73
229.682	30.86
229.899	35.68
230.116	38.13
230.332	39.56
230.549	43.45
230.765	49.27
230.982	50.08
231.199	53.37
231.415	59.15
231.632	64.57
231.848	71.18
232.065	77.59
232.281	73.57
232.498	80.88
232.714	81.18
232.931	75.97
233.147	71.69
233.364	78.4
233.58	72.15
233.797	78.66
234.013	79.08
234.23	78.02
234.446	78.45
234.662	76.43
234.879	72.09
235.095	72.36
235.312	76.36
235.528	74.76
235.744	67.05
235.961	71.45
236.177	57.17
236.393	67.35
236.61	61.17
236.826	61.63
237.042	64.94
237.258	65.06
237.475	62.09
237.691	59.78
237.907	61.07
238.123	67.11
238.339	63.23
238.556	65.13
238.772	56.23
238.988	56.23
239.204	52.04
239.42	51
239.636	46.98
239.853	46.99
240.069	44.87
240.285	45.03
240.501	42.22
240.717	38.42
240.933	37.17
241.149	35.03
241.365	34.22
241.581	32.73
241.797	31.32
242.013	29.49
242.229	30.14
242.445	29.68
242.661	29.03
242.877	29.16
243.093	31.88
243.309	32.36
243.525	35.49
243.741	35.09
243.957	35.37
244.173	34.38
244.388	37.03
244.604	35.93
244.82	34.66
245.036	31.18
245.252	28.26
245.468	23.07
245.683	20.83
245.899	18.2
246.115	18.17
246.331	18.13
246.547	17.73
246.762	16.18
246.978	16.45
247.194	17.48
247.409	17.8
247.625	18.55
247.841	20.09
248.057	20.81
248.272	23.29
248.488	24.53
248.703	26.62
248.919	28.78
249.135	31.42
249.35	30.9
249.566	30.7
249.782	33.22
249.997	33.88
250.213	34.33
250.428	33.59
250.644	33.92
250.859	33.39
251.075	31.91
251.29	32.38
251.506	30.87
251.721	32.14
251.937	32.97
252.152	33.49
252.368	33.55
252.583	34.08
252.798	34.84
253.014	33.73
253.229	32.68
253.445	33.89
253.66	32
253.875	34.84
254.091	39.83
254.306	36.25
254.521	34.43
254.737	36.46
254.952	38.24
255.167	40.6
255.383	37.78
255.598	38.26
255.813	36.58
256.028	36.69
256.244	35.79
256.459	31.11
256.674	33.64
256.889	33.22
257.104	28.79
257.32	26.15
257.535	23.34
257.75	21.82
257.965	20.97
258.18	19.4
258.395	17.26
258.61	15.97
258.826	16.42
259.041	15.73
259.256	15.68
259.471	16.31
259.686	16.29
259.901	15.75
260.116	16.92
260.331	17.13
260.546	17.33
260.761	18.41
260.976	18.75
261.191	19.98
261.406	20.76
261.621	22.04
261.836	22.21
262.05	21.58
262.265	24.58
262.48	24.29
262.695	24.41
262.91	24.13
263.125	26.16
263.34	26.65
263.555	24.73
263.769	26.98
263.984	25.69
264.199	26.72
264.414	29.61
264.629	28.82
264.843	27.51
265.058	26.16
265.273	26.52
265.488	26.59
265.702	26.85
265.917	27.58
266.132	25.38
266.346	24.89
266.561	24.21
266.776	24.14
266.99	22.09
267.205	23.85
267.42	24.99
267.634	24.67
267.849	24.05
268.063	24.02
268.278	22.69
268.492	23.69
268.707	25.2
268.922	25.47
269.136	24.51
269.351	24.73
269.565	23.68
269.78	22.94
269.994	22.24
270.209	21.02
270.423	21.02
270.637	21.6
270.852	19.24
271.066	17.56
271.281	18.58
271.495	16.9
271.709	17.4
271.924	17.95
272.138	18.08
272.353	18.55
272.567	18.42
272.781	17.1
272.996	16.32
273.21	17.76
273.424	18.47
273.638	17.64
273.853	18.86
274.067	19.66
274.281	18.79
274.495	18.52
274.71	18.53
274.924	18.14
275.138	18.28
275.352	17.84
275.566	18.83
275.781	17.58
275.995	16.68
276.209	17.39
276.423	18.6
276.637	19.05
276.851	19.64
277.065	19.75
277.279	21.95
277.493	20.92
277.707	21.01
277.921	18.61
278.135	18.77
278.349	20.44
278.563	20.62
278.777	18.73
278.991	18.41
279.205	16.66
279.419	16.94
279.633	16.96
279.847	19.58
280.061	19.18
280.275	19.69
280.489	19.14
280.703	15.5
280.917	15.46
281.131	14.94
281.344	15.22
281.558	17.05
281.772	16.09
281.986	15.86
282.2	16.36
282.414	15.33
282.627	15.74
282.841	16.32
283.055	18.76
283.269	19.15
283.482	20.28
283.696	20.56
283.91	18.7
284.123	17.65
284.337	15.96
284.551	13.93
284.764	15.13
284.978	13.63
285.192	13.5
285.405	13.39
285.619	12.49
285.833	12.25
286.046	11.44
286.26	12.07
286.473	13.24
286.687	14.11
286.9	15.57
287.114	16.29
287.327	17.94
287.541	18.62
287.754	18.52
287.968	18.69
288.181	18.94
288.395	18.25
288.608	19.7
288.822	19.75
289.035	19.25
289.248	18.39
289.462	17.16
289.675	16.81
289.889	16.79
290.102	15.69
290.315	16.23
290.529	15.02
290.742	15.67
290.955	14.84
291.169	14.8
291.382	14.93
291.595	17.01
291.808	17.64
292.022	18.19
292.235	18.73
292.448	19.95
292.661	19.29
292.875	22.3
293.088	22.34
293.301	21.57
293.514	20.12
293.727	19.76
293.94	16.59
294.153	16.73
294.367	16.23
294.58	14.1
294.793	13.1
295.006	13.68
295.219	11.32
295.432	11.67
295.645	11.02
295.858	12.02
296.071	12.62
296.284	12.45
296.497	12.28
296.71	12.74
296.923	14.35
297.136	14.7
297.349	13.65
297.562	14.58
297.775	14.72
297.988	14.76
298.201	15.28
298.414	14.22
298.626	16.23
298.839	16.26
299.052	15.57
299.265	14.63
299.478	15.63
299.691	15.95
299.903	15.88
300.116	15.9
300.329	17.13
300.542	16.04
300.755	17.61
300.967	17
301.18	16.24
301.393	17.68
301.605	18.65
301.818	17.45
302.031	18.43
302.243	17.66
302.456	17.09
302.669	17.03
302.881	18.68
303.094	18.48
303.307	19.29
303.519	19.86
303.732	18.61
303.944	17.57
304.157	18.27
304.37	18.02
304.582	17.96
304.795	18.19
305.007	17.67
305.22	15.61
305.432	14.75
305.645	14.43
305.857	14.64
306.069	14.24
306.282	15.17
306.494	14.96
306.707	15.49
306.919	15.08
307.132	14.29
307.344	14.87
307.556	15.87
307.769	17.4
307.981	16.71
308.193	16.85
308.406	17.3
308.618	16.23
308.83	16.96
309.043	16.13
309.255	17.63
309.467	17.31
309.679	16.4
309.892	16.77
310.104	15.45
310.316	15.45
310.528	14.9
310.74	14.37
310.953	14.64
311.165	14.41
311.377	14.97
311.589	13.81
311.801	14.32
312.013	14.33
312.225	14.51
312.437	15.06
312.649	15.05
312.862	15.68
313.074	14.99
313.286	16.15
313.498	16.18
313.71	14.74
313.922	15.97
314.134	16.7
314.346	17.17
314.558	17.03
314.77	16.62
314.982	16.31
315.193	16.03
315.405	17
315.617	15.52
315.829	16.54
316.041	17.41
316.253	16.66
316.465	16.95
316.677	17.68
316.888	17.67
317.1	18.6
317.312	19.15
317.524	19.32
317.736	19.83
317.947	21.1
318.159	20.7
318.371	22.12
318.583	22.01
318.794	21.67
319.006	20.68
319.218	19.89
319.43	20.09
319.641	19.84
319.853	20.26
320.064	21.37
320.276	22.6
320.488	21.67
320.699	19.93
320.911	20.33
321.123	20.11
321.334	23.15
321.546	23.4
321.757	23.61
321.969	24.24
322.18	23.01
322.392	21.05
322.603	19.39
322.815	19.81
323.026	20.15
323.238	21.14
323.449	19.72
323.661	17.56
323.872	17.67
324.083	16.5
324.295	16.15
324.506	17.05
324.718	17.41
324.929	16.68
325.14	17.23
325.352	18.48
325.563	18.11
325.774	18.84
325.986	18.81
326.197	18.53
326.408	19.15
326.62	18.7
326.831	17.94
327.042	18.35
327.253	18.97
327.464	18.7
327.676	16.86
327.887	16.33
328.098	17.5
328.309	18.2
328.52	19.24
328.732	19.93
328.943	21.17
329.154	20.95
329.365	22.07
329.576	23
329.787	22.06
329.998	23.9
330.209	23.39
330.42	22.36
330.631	23.72
330.842	23.87
331.053	24.38
331.264	23.57
331.475	23.99
331.686	23.19
331.897	21.97
332.108	23.79
332.319	22.9
332.53	22.79
332.741	22.28
332.952	20.54
333.163	19.61
333.374	18.6
333.585	18.65
333.795	19.28
334.006	18.89
334.217	19.85
334.428	17.68
334.639	16.99
334.849	16.44
335.06	17.75
335.271	18.4
335.482	19.21
335.692	18.27
335.903	19.06
336.114	19.51
336.325	19.81
336.535	19.59
336.746	22.12
336.957	24.01
337.167	24.59
337.378	24.22
337.589	23.47
337.799	22.67
338.01	24.53
338.22	23.2
338.431	23.55
338.642	23.43
338.852	21.81
339.063	20.38
339.273	19.41
339.484	20.4
339.694	20.24
339.905	21.32
340.115	21.58
340.326	20.28
340.536	21.14
340.746	20.62
340.957	20.98
341.167	21.91
341.378	21.7
341.588	20.37
341.799	18.66
342.009	18.82
342.219	18.77
342.43	20.05
342.64	19.83
342.85	19.96
343.061	18.63
343.271	17.7
343.481	17.37
343.691	15.98
343.902	17.17
344.112	18.39
344.322	17.78
344.532	17.8
344.743	17.22
344.953	17.83
345.163	17.1
345.373	17.28
345.583	19.23
345.793	19.3
346.004	20.09
346.214	20.11
346.424	19.06
346.634	18.67
346.844	17.56
347.054	18.49
347.264	17.82
347.474	19.01
347.684	19.39
347.894	17.35
348.104	18.09
348.314	17.26
348.524	17.11
348.734	17.12
348.944	17.51
349.154	19.02
349.364	17.55
349.574	17.53
349.784	16.68
349.994	16.4
350.204	16.64
350.413	16.01
350.623	17.05
350.833	15.87
351.043	15.94
351.253	16.95
351.463	15.26
351.672	15.09
351.882	15.13
352.092	16.04
352.302	16.18
352.511	16.07
352.721	16.08
352.931	15.09
353.141	15.4
353.35	16.03
353.56	15.25
353.77	16.36
353.979	16
354.189	16.06
354.399	16.15
354.608	16.78
354.818	17.02
355.027	16.84
355.237	17.6
355.447	17.08
355.656	16.7
355.866	16.58
356.075	15.82
356.285	16.22
356.494	15.79
356.704	15
356.913	15.04
357.123	14.18
357.332	14.18
357.542	13.64
357.751	14.15
357.96	14.73
358.17	14.65
358.379	14.62
358.589	14.29
358.798	14.07
359.007	13.42
359.217	11.99
359.426	12.47
359.635	12.64
359.845	12.49
360.054	12.31
360.263	12.02
360.472	11.33
360.682	11.45
360.891	11.67
361.1	12.23
361.309	11.53
361.519	11.82
361.728	12.03
361.937	11.65
362.146	12.42
362.355	12.65
362.564	13.03
362.774	13.4
362.983	13.25
363.192	12.97
363.401	13.37
363.61	14.58
363.819	15.65
364.028	15.29
364.237	15.37
364.446	14.91
364.655	14.93
364.864	14.51
365.073	15.18
365.282	15.51
365.491	15.66
365.7	14.7
365.909	14.65
366.118	13.99
366.327	14.11
366.536	14.51
366.745	13.92
366.954	15.25
367.162	15.76
367.371	15.36
367.58	14.82
367.789	15.37
367.998	15.71
368.207	15.54
368.415	15.44
368.624	16.01
368.833	16.59
369.042	17.46
369.25	16.21
369.459	15.71
369.668	15.81
369.877	16.57
370.085	16.8
370.294	16.82
370.503	17.08
370.711	17.29
370.92	16.26
371.129	16.41
371.337	16.29
371.546	16.42
371.754	16.43
371.963	16.34
372.171	16.14
372.38	15.65
372.589	15.88
372.797	15.29
373.006	14.48
373.214	15.3
373.423	14.69
373.631	15.55
373.84	14.86
374.048	14.31
374.256	14.41
374.465	14.29
374.673	13.8
374.882	13.15
375.09	13.28
375.298	14.22
375.507	14.01
375.715	13.51
375.923	11.69
376.132	11.79
376.34	11.91
376.548	11.71
376.757	11.46
376.965	11.64
377.173	11.73
377.381	11.77
377.59	11.62
377.798	11.63
378.006	11.59
378.214	12.6
378.423	12.89
378.631	12.7
378.839	12.31
379.047	12.8
379.255	12.88
379.463	13.03
379.671	13.4
379.879	12.71
380.088	12.4
380.296	12.38
380.504	12.38
380.712	12.07
380.92	12.64
381.128	13.63
381.336	13.29
381.544	13.2
381.752	12.23
381.96	12.33
382.168	12.36
382.376	12.41
382.584	12.48
382.791	12.22
382.999	12.93
383.207	12.64
383.415	11.86
383.623	11.48
383.831	11.07
384.039	11.74
384.247	11.47
384.454	12.24
384.662	12.26
384.87	11.43
385.078	11.41
385.285	11.21
385.493	11.13
385.701	11.41
385.909	11.31
386.116	11.41
386.324	11.82
386.532	11.99
386.739	11.46
386.947	10.88
387.155	12.58
387.362	12.08
387.57	11.67
387.778	12.41
387.985	11.59
388.193	12.37
388.4	12.9
388.608	12.83
388.816	12.42
389.023	11.83
389.231	12.35
389.438	11.79
389.646	12.48
389.853	12.81
390.061	11.89
390.268	12.72
390.475	11.83
390.683	11.25
390.89	11.54
391.098	11.14
391.305	11.93
391.512	11.26
391.72	10.47
391.927	10.58
392.135	10.51
392.342	10.43
392.549	10.02
392.756	10.57
392.964	11.1
393.171	11.23
393.378	11.52
393.586	11.21
393.793	11.46
394	12.14
394.207	11.82
394.414	12.11
394.622	12.5
394.829	12.07
395.036	12.26
395.243	12.27
395.45	12.35
395.657	12.53
395.864	13.08
396.072	13.61
396.279	13.7
396.486	14.02
396.693	14.6
396.9	14.03
397.107	14.91
397.314	14.64
397.521	14.68
397.728	13.63
397.935	12.96
398.142	12.61
398.349	12.47
398.556	11.67
398.763	11.2
398.97	10.42
399.177	10.68
399.383	10.89
399.59	10.88
399.797	10.4
400.004	11.02
400.211	11.46
400.418	11.93
400.625	12.03
400.831	12.63
401.038	12.71
401.245	11.9
401.452	12.46
401.658	12.31
401.865	12.47
402.072	11.79
402.279	11.38
402.485	11.32
402.692	10.7
402.899	10.49
403.105	10.74
403.312	11.35
403.519	11.69
403.725	11.06
403.932	11.19
404.138	10.59
404.345	11.78
404.552	11.68
404.758	12.01
404.965	11.29
405.171	11.67
405.378	11.12
405.584	10.8
405.791	11.49
405.997	11.63
406.204	11.22
406.41	11.72
406.617	10.8
406.823	11.09
407.029	10.89
407.236	11.8
407.442	11.54
407.649	12.05
407.855	11.88
408.061	11.71
408.268	11.47
408.474	12.04
408.68	11.29
408.887	12.21
409.093	12.2
409.299	12.25
409.505	12.15
409.712	11.95
409.918	12.1
410.124	11.65
410.33	10.85
410.537	10.98
410.743	10.37
410.949	11.14
411.155	10.6
411.361	10.82
411.567	10.55
411.773	10.56
411.98	10.81
412.186	10.18
412.392	10.58
412.598	10.43
412.804	10.16
413.01	10.38
413.216	10.52
413.422	10.89
413.628	10.52
413.834	10.26
414.04	10.58
414.246	10.47
414.452	10.99
414.658	11.03
414.864	11.51
415.07	12.46
415.275	12.4
415.481	11.89
415.687	11.73
415.893	11.15
416.099	11.49
416.305	11.5
416.511	10.9
416.716	10.12
416.922	9.83
417.128	9.51
417.334	9.25
417.539	8.71
417.745	9.01
417.951	8.4
418.157	8.8
418.362	8.39
418.568	7.65
418.774	7.7
418.979	7.87
419.185	7.91
419.391	8.04
419.596	7.72
419.802	7.95
420.008	7.4
420.213	9.72
420.419	9.74
420.624	9.88
420.83	10.11
421.035	10.16
421.241	10.12
421.446	10.29
421.652	10.22
421.857	9.92
422.063	9.95
422.268	10.33
422.474	8.36
422.679	8.21
422.885	8.14
423.09	8.02
423.295	8
423.501	8
423.706	7.75
423.911	7.81
424.117	7.92
424.322	7.8
424.527	7.56
424.733	7.74
424.938	7.73
425.143	7.73
425.349	7.72
425.554	7.83
425.759	7.74
425.964	7.63
426.169	7.49
426.375	7.77
426.58	7.66
426.785	7.8
426.99	7.47
427.195	7.29
427.4	7.26
427.605	7.84
427.811	7.24
428.016	7.53
428.221	8.02
428.426	8.11
428.631	8.24
428.836	8.53
429.041	8.55
429.246	8.86
429.451	9.43
429.656	9.28
429.861	8.75
430.066	9.35
430.271	9.27
430.476	8.82
430.681	8.9
430.886	8.77
431.09	8.41
431.295	8.47
431.5	7.94
431.705	7.51
431.91	7.23
432.115	7.26
432.32	7.18
432.524	7.29
432.729	7
432.934	6.64
433.139	6.44
433.343	6.69
433.548	6.52
433.753	6.65
433.958	6.98
434.162	7.52
434.367	7.52
434.572	7.55
434.776	7.55
434.981	8.3
435.186	8.46
435.39	8.7
435.595	8.98
435.799	8.96
436.004	9.01
436.209	8.78
436.413	8.57
436.618	8.72
436.822	8.94
437.027	8.48
437.231	7.77
437.436	7.89
437.64	7.69
437.845	7.35
438.049	7.26
438.253	7.21
438.458	6.98
438.662	7.28
438.867	7.01
439.071	6.87
439.275	6.99
439.48	7.34
439.684	7.3
439.888	7.28
440.093	7.55
440.297	7.56
440.501	7.52
440.706	7.57
440.91	7.49
441.114	7.56
441.318	8
441.523	8.13
441.727	8.03
441.931	8.03
442.135	7.91
442.339	7.78
442.543	8.04
442.748	8.35
442.952	8.59
443.156	8.39
443.36	8.38
443.564	8.04
443.768	7.59
443.972	7.89
444.176	7.79
444.38	7.89
444.584	7.83
444.788	7.2
444.992	6.81
445.196	6.8
445.4	6.94
445.604	6.84
445.808	6.81
446.012	7.21
446.216	7.01
446.42	7.05
446.624	7.27
446.828	7.16
447.032	7.46
447.235	7.76
447.439	7.59
447.643	7.42
447.847	7.74
448.051	7.68
448.254	7.57
448.458	7.36
448.662	7.43
448.866	7.49
449.069	7.84
449.273	7.88
449.477	7.82
449.681	7.83
449.884	8.01
450.088	8.06
450.292	8.04
450.495	8.09
450.699	8.27
450.902	8.13
451.106	8.01
451.31	7.92
451.513	8.17
451.717	8.28
451.92	8.33
452.124	8.07
452.327	7.8
452.531	7.89
452.734	7.92
452.938	7.98
453.141	7.99
453.345	8.05
453.548	7.8
453.752	7.94
453.955	7.94
454.158	7.94
454.362	8.28
454.565	8.51
454.769	8.55
454.972	8.94
455.175	9.02
455.379	9.25
455.582	8.81
