Data from JASIL_3102_Relative_1.txt Node
Date: Thu Nov 12 19:31:49 EST 2015
User: Geneva
Spectrometer: USB4E03002
Autoset integration time: false
Trigger mode: 4
Integration Time (sec): 1.000000E-1
Scans to average: 10
Electric dark correction enabled: true
Nonlinearity correction enabled: false
Boxcar width: 5
Stray light correction enabled: false
XAxis mode: Wavelengths
Stop averaging: false
Number of Pixels in Spectrum: 3648
>>>>>Begin Spectral Data<<<<<
177.575	111.44
177.794	521.96
178.014	227.99
178.233	151.78
178.452	193.96
178.672	114.59
178.891	356.34
179.11	118.41
179.33	1322.62
179.549	-75.84
179.768	-464.37
179.987	1596.14
180.207	-658.44
180.426	-2204.55
180.645	9387.78
180.864	-334.32
181.084	-412.7
181.303	-206.32
181.522	-261.3
181.741	-5163.19
181.96	463.06
182.179	1805.7
182.398	-578.37
182.618	-1538.96
182.837	-1978.47
183.056	900.95
183.275	265.37
183.494	755.62
183.713	496.38
183.932	587.87
184.151	600.25
184.37	1888.38
184.589	751.27
184.808	511.51
185.027	1837.43
185.246	541.23
185.465	645.14
185.684	1008.42
185.903	648.66
186.122	861.89
186.341	1999.27
186.56	1300.83
186.779	-1125.57
186.998	-585.44
187.216	-225.24
187.435	-242.47
187.654	-241.79
187.873	-157.65
188.092	-100.87
188.311	-98.83
188.53	-111.58
188.748	-66.71
188.967	-44.68
189.186	-128.13
189.405	-190.14
189.623	-441.59
189.842	1326.69
190.061	-8374.68
190.28	600.43
190.498	258.51
190.717	219.21
190.936	279.97
191.154	267.05
191.373	220.83
191.592	168.5
191.81	161.42
192.029	263.51
192.248	290.59
192.466	264.11
192.685	365.04
192.904	336.98
193.122	419.11
193.341	945.93
193.559	-2355.76
193.778	3252.15
193.996	2881.04
194.215	1444.89
194.433	882.98
194.652	5651.23
194.87	-1291.48
195.089	-860.57
195.307	-505.91
195.526	-493.68
195.744	-632.59
195.963	-1919.2
196.181	4122.15
196.399	-392.23
196.618	-860.92
196.836	-799.4
197.055	-388.73
197.273	-186.82
197.491	-247.99
197.71	6397.78
197.928	398.5
198.146	379.43
198.365	460.31
198.583	7440.52
198.801	372.98
199.019	273.89
199.238	191.66
199.456	260.61
199.674	174.74
199.892	205.31
200.111	707.06
200.329	-1298.24
200.547	-599.48
200.765	-332.11
200.983	-144.16
201.202	-133.39
201.42	-213.65
201.638	-321.41
201.856	-299.86
202.074	-218.19
202.292	-191.79
202.51	906.61
202.728	312.42
202.946	283.23
203.165	287.21
203.383	226.39
203.601	250.42
203.819	227.64
204.037	303.34
204.255	210.46
204.473	212.22
204.691	178.44
204.909	342.42
205.127	372.31
205.345	900.61
205.562	-5746.45
205.78	-1166.3
205.998	-924.66
206.216	-3323.33
206.434	720.23
206.652	-7432.35
206.87	-598.27
207.088	-322.27
207.306	-1504.53
207.523	-277.87
207.741	-546.03
207.959	4572.2
208.177	40400
208.395	-619.25
208.612	-1127.47
208.83	-373.75
209.048	-311.9
209.266	-1106.02
209.483	-476.44
209.701	-95.24
209.919	-576.54
210.136	-542.09
210.354	-620.23
210.572	-446.86
210.79	-885.65
211.007	1205.27
211.225	1022.76
211.442	528.29
211.66	3891.32
211.878	710.15
212.095	348.28
212.313	482.81
212.53	404.04
212.748	378.54
212.966	226.31
213.183	177.81
213.401	225.51
213.618	280.95
213.836	333.78
214.053	385.45
214.271	346.45
214.488	641.76
214.705	332.65
214.923	-4459.03
215.14	6297.09
215.358	-242.72
215.575	-198.56
215.793	-239.21
216.01	-213.92
216.227	-21181.48
216.445	-851.97
216.662	-293.11
216.879	-11649.06
217.097	-133.63
217.314	565.69
217.531	-1324.76
217.749	361.96
217.966	547.43
218.183	2870.86
218.4	636.07
218.618	1111.72
218.835	560.57
219.052	256.31
219.269	279.99
219.487	265.45
219.704	239.04
219.921	188.56
220.138	243.85
220.355	273.61
220.572	348.84
220.79	375.21
221.007	385.01
221.224	-319.45
221.441	-76.15
221.658	-57.57
221.875	-88.11
222.092	-43.84
222.309	-32.18
222.526	-74.38
222.743	-83.55
222.96	-44.6
223.177	0.02
223.394	-0.39
223.611	-208.09
223.828	-80.97
224.045	-129.9
224.262	-33.24
224.479	-41.05
224.696	-38
224.913	-39.18
225.13	-53.9
225.347	-132.92
225.564	-140.44
225.781	-290.43
225.997	-187.05
226.214	-186.31
226.431	-207.36
226.648	-254.08
226.865	-203.27
227.082	-236.32
227.298	-216.9
227.515	-182.96
227.732	-93.1
227.949	-98.7
228.165	-73.49
228.382	-62.23
228.599	-84.85
228.816	-78.74
229.032	-53.83
229.249	-52.87
229.466	-43.62
229.682	-45.99
229.899	-46.36
230.116	-58.59
230.332	-50.07
230.549	-57.13
230.765	-50.52
230.982	-39.86
231.199	-55.81
231.415	-74.5
231.632	-49.64
231.848	-74.83
232.065	-60.96
232.281	-57.35
232.498	-72.59
232.714	-95.4
232.931	-143.27
233.147	-154.06
233.364	-167.08
233.58	-79.98
233.797	-83.82
234.013	-89.78
234.23	-100.27
234.446	-157.7
234.662	-192.38
234.879	-135.35
235.095	-156.6
235.312	-92.06
235.528	-124.2
235.744	-154.4
235.961	-208.34
236.177	-195.04
236.393	-216.03
236.61	-113.81
236.826	-71.03
237.042	-66.79
237.258	-58.84
237.475	-50.35
237.691	-70.27
237.907	-74.11
238.123	-52.37
238.339	-47.59
238.556	-69.06
238.772	-68.79
238.988	-71.6
239.204	-66.91
239.42	-62
239.636	-63.87
239.853	-40.6
240.069	-40.52
240.285	-34.32
240.501	-34.06
240.717	-35.25
240.933	-36.65
241.149	-28.15
241.365	-29.61
241.581	-30.61
241.797	-23.92
242.013	-23.3
242.229	-21.99
242.445	-13.32
242.661	-8.1
242.877	-8.79
243.093	-11.69
243.309	-6.25
243.525	-9.71
243.741	-7.81
243.957	-11.8
244.173	-13.74
244.388	-12.23
244.604	-10.75
244.82	-5.63
245.036	-8.71
245.252	-7.8
245.468	-5.27
245.683	-4.71
245.899	-3.59
246.115	-1.75
246.331	-0.95
246.547	-0.1
246.762	0.38
246.978	-3.01
247.194	-4.78
247.409	-6.53
247.625	-6.75
247.841	-10.72
248.057	-10.75
248.272	-14.04
248.488	-19.77
248.703	-14.96
248.919	-19.22
249.135	-28.96
249.35	-21.76
249.566	-27.23
249.782	-18.08
249.997	-16
250.213	-4.91
250.428	-7.72
250.644	-1.59
250.859	2.2
251.075	1.89
251.29	2.4
251.506	6.52
251.721	-0.94
251.937	-1.78
252.152	-6.02
252.368	0.66
252.583	-6.81
252.798	-5.39
253.014	-9.22
253.229	-13.43
253.445	-26.99
253.66	-31.19
253.875	-30.03
254.091	-32.99
254.306	-29.04
254.521	-23.44
254.737	-54.65
254.952	-34.61
255.167	-48.25
255.383	-43.44
255.598	-43.28
255.813	-14.24
256.028	-9.9
256.244	-7.25
256.459	-0.12
256.674	-5.16
256.889	-11.11
257.104	-9.62
257.32	-13.68
257.535	-10.67
257.75	-9.26
257.965	-5.64
258.18	-9.91
258.395	-11.11
258.61	-12.92
258.826	-13.51
259.041	-11.9
259.256	-10.25
259.471	-8.82
259.686	-4.91
259.901	-4.3
260.116	-6.2
260.331	-9.57
260.546	-9.21
260.761	-8.75
260.976	-10.16
261.191	-13.47
261.406	-15.62
261.621	-18.89
261.836	-20.87
262.05	-27.16
262.265	-24.44
262.48	-26.69
262.695	-24.72
262.91	-29.33
263.125	-30.26
263.34	-35.43
263.555	-34.23
263.769	-36.01
263.984	-31.63
264.199	-35.54
264.414	-32.79
264.629	-39.05
264.843	-47.82
265.058	-40.85
265.273	-40.36
265.488	-33.84
265.702	-29.31
265.917	-20.52
266.132	-14.51
266.346	-14.42
266.561	-11.63
266.776	-10.06
266.99	-11.79
267.205	-5.46
267.42	-6.86
267.634	-6.43
267.849	-9.04
268.063	-9.75
268.278	-12.75
268.492	-18.96
268.707	-18.94
268.922	-15.73
269.136	-18.32
269.351	-11.96
269.565	-7.13
269.78	-7.99
269.994	-7.49
270.209	-6.76
270.423	-7.22
270.637	-7.38
270.852	-5.41
271.066	-9.93
271.281	-12.54
271.495	-10.33
271.709	-12.99
271.924	-18.36
272.138	-19.33
272.353	-19.25
272.567	-16.87
272.781	-16.85
272.996	-14.46
273.21	-13.26
273.424	-8.37
273.638	-9.75
273.853	-12.65
274.067	-9.95
274.281	-7
274.495	-7.73
274.71	-7.79
274.924	-11.94
275.138	-10.25
275.352	-15.35
275.566	-18.49
275.781	-15.7
275.995	-16.77
276.209	-21.09
276.423	-20.1
276.637	-21.68
276.851	-20.48
277.065	-22.71
277.279	-24.73
277.493	-27.69
277.707	-27.03
277.921	-25.14
278.135	-30.88
278.349	-28.63
278.563	-20.95
278.777	-27.28
278.991	-29.09
279.205	-28.49
279.419	-25.41
279.633	-20.39
279.847	-16.48
280.061	-14.48
280.275	-12.92
280.489	-13.23
280.703	-9.43
280.917	-10.73
281.131	-8.86
281.344	-6.15
281.558	-5.5
281.772	-6.39
281.986	-11.04
282.2	-13.27
282.414	-12.31
282.627	-9.84
282.841	-10.44
283.055	-10.26
283.269	-8.77
283.482	-7.89
283.696	-8.29
283.91	-5.59
284.123	-3.12
284.337	-0.42
284.551	0.95
284.764	0.81
284.978	-0.35
285.192	1.95
285.405	0.72
285.619	1.46
285.833	-2.52
286.046	-1.61
286.26	-3.45
286.473	-5.13
286.687	-8.48
286.9	-9.3
287.114	-11.21
287.327	-14.2
287.541	-12.02
287.754	-12.34
287.968	-14.89
288.181	-10.53
288.395	-14.05
288.608	-15.49
288.822	-18.16
289.035	-14.58
289.248	-16.69
289.462	-12.91
289.675	-11.32
289.889	-14.94
290.102	-13.43
290.315	-14.52
290.529	-16.47
290.742	-13.53
290.955	-12.86
291.169	-11.16
291.382	-12.13
291.595	-9.74
291.808	-13.5
292.022	-10.13
292.235	-9.63
292.448	-9.65
292.661	-6.97
292.875	-2.86
293.088	-5.05
293.301	-4.52
293.514	-5.41
293.727	-2.69
293.94	-4.38
294.153	-2.8
294.367	-5.57
294.58	-5.24
294.793	-6.44
295.006	-4.46
295.219	-3.63
295.432	-3.72
295.645	-2.78
295.858	-2.44
296.071	-3.99
296.284	-4.98
296.497	-4.17
296.71	-3.35
296.923	-3.11
297.136	-2.47
297.349	-3.97
297.562	-4.53
297.775	-2.88
297.988	-1.5
298.201	-1.79
298.414	-2.5
298.626	-0.57
298.839	-1.54
299.052	-2.85
299.265	-2.88
299.478	-3.72
299.691	-6.3
299.903	-9.83
300.116	-10.97
300.329	-14.29
300.542	-12.76
300.755	-11.7
300.967	-14.33
301.18	-15.51
301.393	-13.53
301.605	-13.51
301.818	-11.49
302.031	-12.28
302.243	-12.41
302.456	-11.24
302.669	-8.18
302.881	-8.33
303.094	-7.64
303.307	-6.46
303.519	-5.73
303.732	-5.76
303.944	-8.81
304.157	-8.84
304.37	-5.96
304.582	-3.83
304.795	-5.48
305.007	-9.88
305.22	-8.28
305.432	-7.57
305.645	-3.5
305.857	-2.07
306.069	-3.22
306.282	-0.94
306.494	-2.85
306.707	-2.11
306.919	-0.7
307.132	-0.11
307.344	1.06
307.556	2.21
307.769	3.47
307.981	0.74
308.193	-0.46
308.406	0.87
308.618	1.56
308.83	0.66
309.043	0.07
309.255	-2.14
309.467	-3.21
309.679	-1.71
309.892	-3.35
310.104	-3.01
310.316	-0.78
310.528	-0.51
310.74	-0.14
310.953	-2.14
311.165	-1.15
311.377	-0.74
311.589	-1.21
311.801	-1.39
312.013	0.74
312.225	-0.41
312.437	-4.74
312.649	-7.58
312.862	-7.97
313.074	-9.67
313.286	-9.96
313.498	-11.29
313.71	-13.77
313.922	-12.51
314.134	-9.56
314.346	-13.37
314.558	-14.56
314.77	-13.9
314.982	-12.8
315.193	-9.97
315.405	-10.65
315.617	-8.76
315.829	-6.73
316.041	-3.55
316.253	-1.09
316.465	-2.91
316.677	-3.72
316.888	-4.17
317.1	-3.64
317.312	-3.97
317.524	-5.62
317.736	-5.5
317.947	-6.64
318.159	-9.95
318.371	-11.32
318.583	-16.6
318.794	-16.33
319.006	-13.81
319.218	-8.87
319.43	-8.2
319.641	-9.59
319.853	-14.17
320.064	-15.5
320.276	-14.62
320.488	-12.59
320.699	-10.59
320.911	-9.22
321.123	-9.23
321.334	-10.23
321.546	-10.3
321.757	-9.14
321.969	-8.79
322.18	-8.77
322.392	-8.83
322.603	-13.51
322.815	-12.81
323.026	-16.01
323.238	-14.26
323.449	-14.56
323.661	-13.62
323.872	-15.55
324.083	-17.21
324.295	-15.26
324.506	-11.55
324.718	-10.43
324.929	-3.21
325.14	-0.53
325.352	-0.16
325.563	0.09
325.774	-1.03
325.986	-3.32
326.197	-0.32
326.408	-0.19
326.62	-1.47
326.831	-2.22
327.042	-0.79
327.253	-3.54
327.464	-3.37
327.676	-4.45
327.887	-8.01
328.098	-6.13
328.309	-4.81
328.52	-8.63
328.732	-6.19
328.943	-3.3
329.154	-1.31
329.365	-5.59
329.576	-4.52
329.787	-7.56
329.998	-5.03
330.209	-3.86
330.42	-2.4
330.631	-4.55
330.842	-5.08
331.053	-7.36
331.264	-10.26
331.475	-11.02
331.686	-6.36
331.897	-8.01
332.108	-7.85
332.319	-8.44
332.53	-7.5
332.741	-9.05
332.952	-6.29
333.163	-5.2
333.374	-3.85
333.585	-7.16
333.795	-6.21
334.006	-6.66
334.217	-7.66
334.428	-7.76
334.639	-7.63
334.849	-7.58
335.06	-5.54
335.271	-7.39
335.482	-8.43
335.692	-6.73
335.903	0.52
336.114	-3
336.325	-2.59
336.535	-2.33
336.746	-2.66
336.957	-1.65
337.167	1.08
337.378	-0.77
337.589	1.4
337.799	0.99
338.01	-0.21
338.22	-5.77
338.431	-7.64
338.642	-9.93
338.852	-7.54
339.063	-6.71
339.273	-8.88
339.484	-11.22
339.694	-9.56
339.905	-9.81
340.115	-7.61
340.326	-9.18
340.536	-4.19
340.746	0.47
340.957	1.19
341.167	0.87
341.378	3.29
341.588	5.35
341.799	5.48
342.009	4.02
342.219	2.58
342.43	3.85
342.64	5.91
342.85	4.92
343.061	4.1
343.271	4.23
343.481	3.56
343.691	2.07
343.902	2.37
344.112	1.46
344.322	1.23
344.532	2.23
344.743	0.36
344.953	-0.84
345.163	-2.46
345.373	-2.76
345.583	-3.42
345.793	-3.14
346.004	-3.73
346.214	-5.66
346.424	-4.98
346.634	-3.23
346.844	-4.76
347.054	-4.51
347.264	-5.08
347.474	-3.42
347.684	-4.34
347.894	-4.3
348.104	-5.93
348.314	-7.62
348.524	-6.9
348.734	-6.17
348.944	-6.25
349.154	-5.57
349.364	-5.42
349.574	-3.68
349.784	-4.11
349.994	-5.33
350.204	-6
350.413	-5.14
350.623	-2.66
350.833	-1.62
351.043	-2.65
351.253	-3.78
351.463	-1.84
351.672	-1.17
351.882	-2.35
352.092	-4.09
352.302	-1.58
352.511	-0.76
352.721	-0.46
352.931	-0.27
353.141	-2.07
353.35	-1.33
353.56	-2.69
353.77	-5.2
353.979	-5.03
354.189	-4.6
354.399	-2.94
354.608	-2.13
354.818	-1.1
355.027	-0.83
355.237	-1.34
355.447	1.38
355.656	0.95
355.866	2.44
356.075	3.33
356.285	1.94
356.494	1.41
356.704	0.75
356.913	0.57
357.123	1.24
357.332	1.46
357.542	1.41
357.751	0.71
357.96	0.85
358.17	0.3
358.379	0.1
358.589	1.75
358.798	1.44
359.007	0.91
359.217	1.17
359.426	1.45
359.635	0.72
359.845	0.61
360.054	-0.12
360.263	1.99
360.472	1.91
360.682	2.02
360.891	1.46
361.1	1.9
361.309	2.29
361.519	0.89
361.728	-1.02
361.937	-0.6
362.146	-0.54
362.355	-1.19
362.564	-3.91
362.774	-3.74
362.983	-3.51
363.192	-2.6
363.401	-3.05
363.61	-3.25
363.819	-1.88
364.028	1.25
364.237	-0.04
364.446	-0.89
364.655	-0.15
364.864	0.24
365.073	0.32
365.282	0.47
365.491	0.41
365.7	-0.3
365.909	0.23
366.118	-0.59
366.327	-0.79
366.536	0.1
366.745	1.68
366.954	1.27
367.162	1.97
367.371	2.34
367.58	2.06
367.789	0.43
367.998	2.64
368.207	1.95
368.415	1.05
368.624	0.27
368.833	1.21
369.042	1.16
369.25	1.11
369.459	0.68
369.668	1.31
369.877	1.2
370.085	2.05
370.294	0.87
370.503	0.42
370.711	1.88
370.92	0.61
371.129	-0.49
371.337	-0.67
371.546	-1.52
371.754	-1.72
371.963	-2.5
372.171	-1.66
372.38	-0.73
372.589	-1.77
372.797	-1.1
373.006	-1.46
373.214	-1.87
373.423	-1.8
373.631	-0.91
373.84	0.33
374.048	0.99
374.256	0.86
374.465	-0.75
374.673	-1.4
374.882	-0.72
375.09	-0.71
375.298	0.63
375.507	0.79
375.715	0.85
375.923	-1.17
376.132	-1.57
376.34	-2.46
376.548	-2.41
376.757	-2.47
376.965	-1.51
377.173	-0.39
377.381	1.07
377.59	-0.44
377.798	0.44
378.006	1.03
378.214	1.64
378.423	3.04
378.631	4.16
378.839	3.83
379.047	5.66
379.255	3.77
379.463	3.16
379.671	0.67
379.879	2.16
380.088	1.46
380.296	1.71
380.504	2.22
380.712	1.2
380.92	-0.16
381.128	-0.86
381.336	-1.54
381.544	-2.68
381.752	-3.39
381.96	-1.63
382.168	-2.96
382.376	-2.08
382.584	-2.7
382.791	-4.15
382.999	-5.37
383.207	-5.7
383.415	-3.92
383.623	-5.8
383.831	-4.63
384.039	-5.45
384.247	-5.85
384.454	-6.87
384.662	-8.69
384.87	-7.54
385.078	-6.1
385.285	-4.84
385.493	-2.8
385.701	-3.41
385.909	-1.2
386.116	0.79
386.324	1.46
386.532	0.48
386.739	1.17
386.947	1.93
387.155	1.61
387.362	1.87
387.57	0.77
387.778	0.52
387.985	0.57
388.193	-0.58
388.4	-2.55
388.608	-2.08
388.816	-0.52
389.023	-0.46
389.231	0.19
389.438	0.82
389.646	0.39
389.853	1.57
390.061	1.62
390.268	2.34
390.475	2.52
390.683	1.61
390.89	2.55
391.098	2.55
391.305	2.49
391.512	1.88
391.72	0.42
391.927	0.17
392.135	0.97
392.342	0.84
392.549	0.15
392.756	1.2
392.964	1.96
393.171	1.2
393.378	1.15
393.586	1.23
393.793	0.76
394	1.22
394.207	1.58
394.414	0.37
394.622	0.07
394.829	0.54
395.036	-0.51
395.243	-0.03
395.45	-0.24
395.657	-1.33
395.864	-1.76
396.072	-0.18
396.279	-0.37
396.486	-1.4
396.693	-0.79
396.9	-1.06
397.107	-2.36
397.314	-2.76
397.521	-3.54
397.728	-3.41
397.935	-3.04
398.142	-2.55
398.349	-3.33
398.556	-3.49
398.763	-1.52
398.97	-1.58
399.177	-1.15
399.383	-0.1
399.59	0.01
399.797	0.19
400.004	-0.69
400.211	-1.02
400.418	-1.4
400.625	-1.02
400.831	-0.19
401.038	-1.23
401.245	-1.71
401.452	-2.16
401.658	-2.64
401.865	-2.56
402.072	-1.99
402.279	-1.09
402.485	0.45
402.692	1.28
402.899	0.72
403.105	0.57
403.312	0.91
403.519	1.34
403.725	0.86
403.932	1.33
404.138	2.27
404.345	1.88
404.552	2.04
404.758	1.17
404.965	1.19
405.171	0.91
405.378	0.5
405.584	0.82
405.791	0.52
405.997	1.16
406.204	1.49
406.41	0.76
406.617	1.49
406.823	2.04
407.029	1.71
407.236	0.98
407.442	1.31
407.649	1.12
407.855	0.64
408.061	1.45
408.268	1.59
408.474	1.44
408.68	0.85
408.887	0.97
409.093	0.55
409.299	0.3
409.505	1.25
409.712	1.82
409.918	2.2
410.124	2.45
410.33	1.93
410.537	1.23
410.743	-0.13
410.949	0.75
411.155	-0.77
411.361	-0.54
411.567	-0.8
411.773	-1.68
411.98	-2.54
412.186	-3.35
412.392	-4.04
412.598	-4.44
412.804	-4.14
413.01	-3.31
413.216	-4.58
413.422	-3.02
413.628	-4.07
413.834	-3.9
414.04	-3.04
414.246	-2.56
414.452	-1.58
414.658	-0.93
414.864	-0.8
415.07	-0.28
415.275	0.11
415.481	1.22
415.687	0.45
415.893	1.01
416.099	1.06
416.305	0.75
416.511	1.1
416.716	1.18
416.922	0.41
417.128	-0.31
417.334	-0.5
417.539	-0.76
417.745	-0.88
417.951	-0.05
418.157	-0.07
418.362	0.45
418.568	0.09
418.774	0.03
418.979	0.13
419.185	0.79
419.391	1.91
419.596	1.79
419.802	1.74
420.008	1.98
420.213	1.86
420.419	1.4
420.624	1.5
420.83	1.99
421.035	2.02
421.241	1.48
421.446	1.31
421.652	0.99
421.857	1.53
422.063	1.8
422.268	1.48
422.474	1.51
422.679	2.29
422.885	2.37
423.09	1.56
423.295	2.15
423.501	2.48
423.706	2.6
423.911	2.93
424.117	2.47
424.322	2.94
424.527	3.04
424.733	3.1
424.938	2.96
425.143	3.28
425.349	4.21
425.554	3.64
425.759	3.76
425.964	3.45
426.169	2.94
426.375	3.23
426.58	2.65
426.785	2.78
426.99	2.56
427.195	2.14
427.4	1.4
427.605	0.75
427.811	0.78
428.016	1.43
428.221	2.79
428.426	3.07
428.631	2.78
428.836	2.63
429.041	1.32
429.246	1.62
429.451	2.01
429.656	2.62
429.861	3.21
430.066	2.77
430.271	1.95
430.476	0.91
430.681	0.54
430.886	1.12
431.09	0.93
431.295	2.4
431.5	2.38
431.705	1.94
431.91	1.4
432.115	1.75
432.32	2.35
432.524	3.1
432.729	2.88
432.934	2.92
433.139	2.45
433.343	2.74
433.548	2.47
433.753	1.88
433.958	2.27
434.162	2.41
434.367	2.2
434.572	1.83
434.776	1.19
434.981	1.86
435.186	2.14
435.39	2.08
435.595	2.2
435.799	1.59
436.004	1.64
436.209	1.94
436.413	1.33
436.618	0.65
436.822	0.95
437.027	1.25
437.231	0.78
437.436	0.63
437.64	0.83
437.845	0.74
438.049	1.36
438.253	1.61
438.458	1.23
438.662	1.76
438.867	1.96
439.071	1.68
439.275	1.53
439.48	1.62
439.684	1.84
439.888	2.27
440.093	2.59
440.297	2.39
440.501	2.37
440.706	2.31
440.91	1.92
441.114	2.16
441.318	2.28
441.523	2.08
441.727	1.76
441.931	1.06
442.135	0.57
442.339	0.27
442.543	0.51
442.748	0.03
442.952	0.2
443.156	0.72
443.36	0.47
443.564	0.35
443.768	0.8
443.972	1.05
444.176	1.84
444.38	2.26
444.584	2.05
444.788	2.22
444.992	2.77
445.196	2.61
445.4	2.26
445.604	2.04
445.808	1.89
446.012	1.52
446.216	1.54
446.42	1.54
446.624	1.02
446.828	0.97
447.032	0.82
447.235	0.67
447.439	0.9
447.643	1.38
447.847	1.27
448.051	1.51
448.254	1.23
448.458	1.17
448.662	1.14
448.866	1.11
449.069	1.42
449.273	1.25
449.477	1.64
449.681	0.92
449.884	0.26
450.088	0.57
450.292	0.78
450.495	1.36
450.699	1.97
450.902	1.33
451.106	1.71
451.31	0.72
451.513	1.25
451.717	0.38
451.92	1.23
452.124	1.49
452.327	1.29
452.531	1.05
452.734	0.82
452.938	-0.19
453.141	0.21
453.345	0.08
