Data from JASIL_3272_Reflection_1.txt Node
Date: Tue Nov 17 18:57:19 EST 2015
User: Geneva
Spectrometer: USB4E03002
Autoset integration time: false
Trigger mode: 4
Integration Time (sec): 1.000000E-1
Scans to average: 10
Electric dark correction enabled: false
Nonlinearity correction enabled: false
Boxcar width: 5
Stray light correction enabled: false
XAxis mode: Wavelengths
Stop averaging: false
Number of Pixels in Spectrum: 3648
>>>>>Begin Spectral Data<<<<<
177.575	411.16
177.794	335.76
178.014	413.18
178.233	268.37
178.452	279.88
178.672	345.68
178.891	330
179.11	339.55
179.33	396.23
179.549	376.07
179.768	299.48
179.987	347.22
180.207	401.68
180.426	344.13
180.645	558.67
180.864	688.13
181.084	931.34
181.303	-91150
181.522	-2221.33
181.741	-1509.71
181.96	-620.08
182.179	-560.63
182.398	-697.16
182.618	-1526.17
182.837	-5279.41
183.056	-2681.16
183.275	2017.35
183.494	843.86
183.713	864.19
183.932	570.05
184.151	573.21
184.37	426.34
184.589	462.03
184.808	583.26
185.027	697.94
185.246	1285.85
185.465	1220.1
185.684	1568.03
185.903	3520.59
186.122	1718.44
186.341	-4620.41
186.56	-900.81
186.779	-1039.13
186.998	-898.21
187.216	-1221.26
187.435	-625.88
187.654	-487.93
187.873	-536.46
188.092	-466.43
188.311	-833.62
188.53	-2593.06
188.748	-2814.29
188.967	888.02
189.186	-2345.21
189.405	6730.77
189.623	-163200
189.842	1155.28
190.061	559.3
190.28	733.59
190.498	882.14
190.717	7125.93
190.936	211600
191.154	2643.02
191.373	2518.95
191.592	1010.34
191.81	1000.43
192.029	998.77
192.248	-1430.41
192.466	-1212.85
192.685	-963.88
192.904	-970.23
193.122	-1582.95
193.341	-1198.24
193.559	-932.73
193.778	-833.2
193.996	-1984.4
194.215	-3306.15
194.433	-1943.52
194.652	1041.07
194.87	1215.62
195.089	899.24
195.307	2760.49
195.526	-77100
195.744	229400
195.963	-2545.35
196.181	-1009.69
196.399	-541.86
196.618	-480.75
196.836	-912.02
197.055	-774.58
197.273	-2589.33
197.491	-1043.68
197.71	-1505.3
197.928	4200
198.146	-2710
198.365	-1738.94
198.583	8904.17
198.801	13793.75
199.019	-4266.67
199.238	-2179.05
199.456	7753.33
199.674	-1515.75
199.892	2921.62
200.111	-1966.04
200.329	-1010.24
200.547	-5302.63
200.765	1082.61
200.983	-23875
201.202	-5727.27
201.42	88850
201.638	-1757.69
201.856	-443.24
202.074	-361.4
202.292	-286.68
202.51	-560.39
202.728	-552.7
202.946	-603.27
203.165	-484.01
203.383	-842.47
203.601	-726.34
203.819	-571.71
204.037	-574.13
204.255	-7237.5
204.473	1514.05
204.691	918.4
204.909	839.02
205.127	784.45
205.345	1610.71
205.562	-2880.33
205.78	-11375
205.998	1764.41
206.216	1661.24
206.434	1697.56
206.652	9543.48
206.87	4180
207.088	-3524.14
207.306	9617.39
207.523	-13070.59
207.741	12770.59
207.959	2035.83
208.177	2072.41
208.395	1726.32
208.612	-4393.88
208.83	3809.68
209.048	1543.42
209.266	2001.71
209.483	1146.89
209.701	901.91
209.919	1086.85
210.136	672.57
210.354	952.78
210.572	945.85
210.79	-36440
211.007	1007.07
211.225	1970.97
211.442	1330.88
211.66	971.5
211.878	1785.98
212.095	4976.32
212.313	3355.56
212.53	-1192.62
212.748	5796.97
212.966	-1546.46
213.183	-4730
213.401	-1710.91
213.618	39120
213.836	-1409.7
214.053	-872.5
214.271	-661.9
214.488	-629.84
214.705	-1190.3
214.923	-1523.42
215.14	-2182.28
215.358	-3428.3
215.575	18520
215.793	-2175.64
216.01	-995.54
216.227	-697.47
216.445	-557.52
216.662	-2095.51
216.879	-1288.89
217.097	-848.6
217.314	-769.19
217.531	-811.79
217.749	3125.93
217.966	4587.18
218.183	452.49
218.4	555.28
218.618	396.98
218.835	384.25
219.052	380.5
219.269	306.75
219.487	301.61
219.704	293.57
219.921	266.17
220.138	464.21
220.355	455.36
220.572	727.13
220.79	471.94
221.007	486.42
221.224	344.03
221.441	351.32
221.658	438.71
221.875	523.56
222.092	572.25
222.309	555.94
222.526	312.86
222.743	303.82
222.96	344.24
223.177	360.63
223.394	301.65
223.611	390.86
223.828	466.8
224.045	371.61
224.262	333.68
224.479	260.55
224.696	264.63
224.913	343.45
225.13	358.11
225.347	408.12
225.564	326.53
225.781	342.29
225.997	293.4
226.214	191.17
226.431	173.96
226.648	159.37
226.865	139.27
227.082	117.49
227.298	99.35
227.515	87.88
227.732	76.87
227.949	77.47
228.165	75.18
228.382	72.13
228.599	74.27
228.816	73.7
229.032	71.52
229.249	77.47
229.466	83.34
229.682	88.35
229.899	99.22
230.116	114.29
230.332	113.57
230.549	120.28
230.765	141.56
230.982	138.84
231.199	140.48
231.415	150.39
231.632	166.77
231.848	155.87
232.065	163.89
232.281	160.93
232.498	143.93
232.714	140.58
232.931	150.24
233.147	141.45
233.364	138.33
233.58	141.82
233.797	149.65
234.013	140.95
234.23	136.1
234.446	124.18
234.662	116.97
234.879	116.12
235.095	125.89
235.312	123.72
235.528	129.62
235.744	138.91
235.961	146.89
236.177	135.52
236.393	151.16
236.61	153.68
236.826	160.01
237.042	174.58
237.258	165.75
237.475	140.62
237.691	143.89
237.907	122.38
238.123	122.41
238.339	117.91
238.556	103.67
238.772	96.89
238.988	93.15
239.204	94.57
239.42	80.83
239.636	77.25
239.853	80.65
240.069	70.36
240.285	66.01
240.501	57.35
240.717	50.53
240.933	48.11
241.149	46.22
241.365	45.52
241.581	38.5
241.797	42.31
242.013	44.51
242.229	42.58
242.445	44.65
242.661	46.44
242.877	49.38
243.093	50.87
243.309	50.64
243.525	50.2
243.741	55.33
243.957	57.3
244.173	51.81
244.388	52.3
244.604	47.5
244.82	43.44
245.036	38.53
245.252	36
245.468	33.53
245.683	32.28
245.899	31.24
246.115	28.32
246.331	27.92
246.547	28.39
246.762	25.54
246.978	24.99
247.194	26.62
247.409	27.33
247.625	28.39
247.841	32.12
248.057	36.43
248.272	38.23
248.488	44.35
248.703	46.95
248.919	51.49
249.135	58.61
249.35	58.5
249.566	59.63
249.782	59.7
249.997	60.36
250.213	57.41
250.428	51.11
250.644	49.14
250.859	49.07
251.075	48.32
251.29	45.97
251.506	43.76
251.721	48.13
251.937	49.31
252.152	52.69
252.368	52.81
252.583	54.84
252.798	60.75
253.014	63.28
253.229	61.69
253.445	65.14
253.66	71.35
253.875	78.66
254.091	76.13
254.306	75.43
254.521	73.1
254.737	73.13
254.952	73.66
255.167	75.63
255.383	74.29
255.598	69.19
255.813	65.68
256.028	63.37
256.244	59.63
256.459	58.17
256.674	48.89
256.889	46.99
257.104	41.21
257.32	37.55
257.535	31.36
257.75	31.9
257.965	31.14
258.18	30.5
258.395	25.32
258.61	23.59
258.826	22.09
259.041	22.17
259.256	20.5
259.471	21.46
259.686	20.66
259.901	22
260.116	21.11
260.331	22.28
260.546	21.02
260.761	24.39
260.976	25.87
261.191	26.33
261.406	29.66
261.621	36.83
261.836	38.94
262.05	40.19
262.265	40.86
262.48	42.48
262.695	41.44
262.91	47.68
263.125	50.26
263.34	53.4
263.555	56.89
263.769	55.62
263.984	50.46
264.199	50.98
264.414	53.43
264.629	52.26
264.843	50.89
265.058	51.09
265.273	45.13
265.488	41.64
265.702	37.93
265.917	35.58
266.132	35.25
266.346	35.26
266.561	31.43
266.776	29.15
266.99	29.27
267.205	28.71
267.42	25.91
267.634	27.43
267.849	31.25
268.063	31.88
268.278	31.89
268.492	30.33
268.707	29.11
268.922	29.66
269.136	26.76
269.351	27.33
269.565	26.11
269.78	28.38
269.994	26.46
270.209	23.72
270.423	22.89
270.637	24.02
270.852	24.84
271.066	24.83
271.281	25.01
271.495	25.49
271.709	25.05
271.924	25.84
272.138	23.88
272.353	25.77
272.567	26.25
272.781	28.96
272.996	29.13
273.21	29.87
273.424	30.57
273.638	33.6
273.853	34.79
274.067	35.38
274.281	36.42
274.495	37.94
274.71	37.16
274.924	38.63
275.138	35.58
275.352	33.85
275.566	33.07
275.781	32.07
275.995	31.79
276.209	34.6
276.423	33.78
276.637	31.98
276.851	30.44
277.065	29.75
277.279	27.74
277.493	30.42
277.707	31.55
277.921	30.15
278.135	31.54
278.349	29.22
278.563	28.24
278.777	28.18
278.991	28.85
279.205	29.37
279.419	28.24
279.633	30.24
279.847	29.38
280.061	29.71
280.275	30.48
280.489	28.18
280.703	26.58
280.917	25.03
281.131	25.93
281.344	26.61
281.558	26.44
281.772	25.73
281.986	23.69
282.2	22.92
282.414	22.17
282.627	22.52
282.841	24.18
283.055	25.35
283.269	25.67
283.482	25.41
283.696	25.1
283.91	25.04
284.123	25.88
284.337	25.85
284.551	24.81
284.764	23.77
284.978	24.53
285.192	22.61
285.405	22.6
285.619	22.82
285.833	21.76
286.046	21.34
286.26	21.57
286.473	20.92
286.687	20.14
286.9	22.74
287.114	23.85
287.327	21.81
287.541	24.61
287.754	24.86
287.968	23
288.181	22.24
288.395	21.63
288.608	21.6
288.822	21.57
289.035	21.62
289.248	19.15
289.462	19.67
289.675	21.01
289.889	21.39
290.102	21.25
290.315	22.76
290.529	22.62
290.742	23.51
290.955	23.95
291.169	24.53
291.382	25.14
291.595	26.41
291.808	25.13
292.022	24.43
292.235	23.35
292.448	22.43
292.661	21.02
292.875	21.46
293.088	19.68
293.301	17.28
293.514	15.83
293.727	15.21
293.94	14.71
294.153	16.4
294.367	16.74
294.58	17.07
294.793	16.41
295.006	17.88
295.219	17.99
295.432	18.14
295.645	18.53
295.858	18.89
296.071	18.51
296.284	18.09
296.497	16.35
296.71	15.15
296.923	14.36
297.136	15.12
297.349	14.87
297.562	15.2
297.775	17.65
297.988	17.7
298.201	18.83
298.414	19.04
298.626	19.33
298.839	20.22
299.052	21.56
299.265	22.4
299.478	22.23
299.691	21.59
299.903	21.12
300.116	18.71
300.329	18.93
300.542	18.58
300.755	20.31
300.967	21.16
301.18	22.34
301.393	21.91
301.605	22.33
301.818	22.68
302.031	23.05
302.243	25.24
302.456	24.03
302.669	25.15
302.881	24.35
303.094	24.18
303.307	24.7
303.519	23.6
303.732	24.78
303.944	24.1
304.157	23.65
304.37	24.9
304.582	24.02
304.795	26.47
305.007	26.51
305.22	25.81
305.432	25.29
305.645	25.08
305.857	25.36
306.069	25.47
306.282	25.83
306.494	26.35
306.707	24.84
306.919	22.29
307.132	20.94
307.344	20.83
307.556	22.7
307.769	24.19
307.981	23.94
308.193	24.07
308.406	21.47
308.618	20.16
308.83	19.24
309.043	19.05
309.255	19.98
309.467	19.91
309.679	19.51
309.892	18.81
310.104	16.24
310.316	15.75
310.528	13.75
310.74	14.78
310.953	16.29
311.165	16.42
311.377	17.56
311.589	18.66
311.801	18.56
312.013	19.41
312.225	19.16
312.437	20.83
312.649	21.23
312.862	22.94
313.074	22.69
313.286	22.63
313.498	22.79
313.71	21.13
313.922	19.96
314.134	20.68
314.346	19.64
314.558	21.47
314.77	20.09
314.982	20.93
315.193	19.76
315.405	21.52
315.617	19.09
315.829	18.93
316.041	19.29
316.253	19.35
316.465	19.96
316.677	19.49
316.888	18.8
317.1	20.75
317.312	19.76
317.524	20.59
317.736	20.47
317.947	23
318.159	24.42
318.371	24.6
318.583	25.35
318.794	24.32
319.006	25.69
319.218	25.42
319.43	25.69
319.641	26.63
319.853	27.94
320.064	26.65
320.276	27.05
320.488	27
320.699	27.83
320.911	27.4
321.123	30.25
321.334	30.06
321.546	29.89
321.757	29.59
321.969	28.59
322.18	28.21
322.392	28.94
322.603	27.1
322.815	26.47
323.026	26.25
323.238	27.38
323.449	25.13
323.661	24.1
323.872	24.64
324.083	23.54
324.295	24.37
324.506	23.99
324.718	23.84
324.929	25.19
325.14	24.31
325.352	23
325.563	21.85
325.774	21.18
325.986	22.49
326.197	22.33
326.408	23.3
326.62	22.27
326.831	22.21
327.042	22.31
327.253	23.09
327.464	23.93
327.676	24.25
327.887	23.75
328.098	24.58
328.309	23.96
328.52	24.08
328.732	23.46
328.943	24.05
329.154	24.47
329.365	23.93
329.576	22.6
329.787	22.56
329.998	24.77
330.209	25.42
330.42	25.48
330.631	24.92
330.842	26.31
331.053	26.52
331.264	25.7
331.475	26.61
331.686	26.74
331.897	26.05
332.108	26.38
332.319	25.03
332.53	24.77
332.741	24.55
332.952	24.92
333.163	23.27
333.374	22.18
333.585	21.51
333.795	20.97
334.006	21.48
334.217	22.14
334.428	21.69
334.639	23.12
334.849	24.12
335.06	24.05
335.271	23.88
335.482	24.26
335.692	25.61
335.903	27.09
336.114	26.58
336.325	26.41
336.535	26.35
336.746	26.42
336.957	24.82
337.167	24.29
337.378	23.87
337.589	24.34
337.799	22.76
338.01	23.67
338.22	24.22
338.431	25.44
338.642	25.13
338.852	24.42
339.063	25.18
339.273	25.49
339.484	25.78
339.694	25.69
339.905	25.13
340.115	25.33
340.326	24.19
340.536	23.82
340.746	22.61
340.957	23.45
341.167	24.41
341.378	24.27
341.588	25.65
341.799	24.92
342.009	25
342.219	26.08
342.43	26.9
342.64	27.33
342.85	27.98
343.061	27.78
343.271	27.83
343.481	27.24
343.691	26.99
343.902	25.57
344.112	25.36
344.322	25.38
344.532	24.84
344.743	24.31
344.953	24.47
345.163	22.87
345.373	23.18
345.583	23.16
345.793	23.47
346.004	23.84
346.214	24.11
346.424	24.11
346.634	25.08
346.844	24.24
347.054	24.41
347.264	24.17
347.474	25.17
347.684	24.86
347.894	23.99
348.104	24.01
348.314	24.25
348.524	23.36
348.734	24.4
348.944	23.56
349.154	24.26
349.364	23.61
349.574	23.63
349.784	23.91
349.994	24.82
350.204	25.53
350.413	25.3
350.623	24.41
350.833	23.57
351.043	23.18
351.253	24.25
351.463	23.95
351.672	23.75
351.882	23.35
352.092	21.3
352.302	20.29
352.511	20.55
352.721	19.77
352.931	20.07
353.141	20.76
353.35	20.94
353.56	19.59
353.77	17.74
353.979	18.98
354.189	19.02
354.399	19.83
354.608	19.6
354.818	18.61
355.027	18.91
355.237	18.59
355.447	19.48
355.656	19.32
355.866	19.44
356.075	21.12
356.285	20.33
356.494	20.41
356.704	20.4
356.913	20.47
357.123	21.03
357.332	20.54
357.542	20.71
357.751	20.23
357.96	19.94
358.17	19.84
358.379	19.38
358.589	19.21
358.798	18.22
359.007	17.56
359.217	17.42
359.426	17.54
359.635	18.06
359.845	17.25
360.054	17.6
360.263	17.52
360.472	17.39
360.682	17.62
360.891	16.85
361.1	17.3
361.309	17.63
361.519	18.02
361.728	16.91
361.937	17.53
362.146	17.83
362.355	18.07
362.564	17.99
362.774	18.37
362.983	18.58
363.192	19.86
363.401	19.98
363.61	19.6
363.819	19.14
364.028	19.47
364.237	18.91
364.446	18.95
364.655	18.16
364.864	18.48
365.073	17.77
365.282	17.65
365.491	17.52
365.7	16.9
365.909	17.48
366.118	18.29
366.327	18.56
366.536	18.73
366.745	18.8
366.954	19.59
367.162	19.51
367.371	20.68
367.58	20.77
367.789	21.73
367.998	22.57
368.207	22.78
368.415	21.58
368.624	22.08
368.833	23.05
369.042	23.67
369.25	22.72
369.459	22.95
369.668	22.34
369.877	22.46
370.085	21.71
370.294	21.45
370.503	21.25
370.711	21.68
370.92	20.93
371.129	20.57
371.337	20.59
371.546	21.41
371.754	21.37
371.963	21.38
372.171	21.85
372.38	22.05
372.589	21.79
372.797	21.49
373.006	21.52
373.214	22.05
373.423	21.34
373.631	21.08
373.84	19.79
374.048	19.41
374.256	19.41
374.465	19.42
374.673	18.95
374.882	18.82
375.09	18.74
375.298	18.63
375.507	17.61
375.715	18.01
375.923	17.63
376.132	18.27
376.34	17.98
376.548	17.6
376.757	16.59
376.965	16.24
377.173	15.82
377.381	16.23
377.59	16.62
377.798	17.21
378.006	16.42
378.214	16.49
378.423	16.02
378.631	15.61
378.839	15.6
379.047	15.79
379.255	16.29
379.463	16.81
379.671	16.78
379.879	17.1
380.088	18.09
380.296	17.38
380.504	17.21
380.712	18.34
380.92	18.35
381.128	19.14
381.336	19.65
381.544	19.73
381.752	19.97
381.96	20.08
382.168	19.39
382.376	18.19
382.584	19.11
382.791	18.65
382.999	18.29
383.207	18.63
383.415	17.95
383.623	17.7
383.831	17.65
384.039	18.16
384.247	17.99
384.454	19.11
384.662	19.38
384.87	18.69
385.078	19.42
385.285	19.22
385.493	18.98
385.701	18.8
385.909	18.93
386.116	19.14
386.324	18.49
386.532	18.56
386.739	17.82
386.947	18.14
387.155	18.71
387.362	19.52
387.57	19.04
387.778	18.64
387.985	19.65
388.193	18.83
388.4	18.83
388.608	19.01
388.816	18.86
389.023	18.88
389.231	18.53
389.438	18.66
389.646	18.09
389.853	18.2
390.061	18.18
390.268	17.84
390.475	18.52
390.683	17.74
390.89	17.42
391.098	17.28
391.305	17.47
391.512	17.99
391.72	18.25
391.927	17.63
392.135	17.84
392.342	18.54
392.549	17.9
392.756	18.23
392.964	18.1
393.171	18.15
393.378	18.02
393.586	17.82
393.793	17.47
394	16.28
394.207	16.74
394.414	17.02
394.622	17.5
394.829	18.06
395.036	17.75
395.243	19.09
395.45	19.27
395.657	19.51
395.864	19.25
396.072	19.14
396.279	19.91
396.486	19.25
396.693	18.56
396.9	17.78
397.107	17.36
397.314	17.12
397.521	16.14
397.728	16.16
397.935	16.73
398.142	17.07
398.349	17.32
398.556	17.83
398.763	17.95
398.97	18.58
399.177	18.5
399.383	18.23
399.59	18.52
399.797	18.94
400.004	18.85
400.211	18.32
400.418	18.71
400.625	18.27
400.831	18.37
401.038	18.75
401.245	18.02
401.452	18.32
401.658	18.3
401.865	18.03
402.072	18.04
402.279	18.28
402.485	18.27
402.692	17.5
402.899	17.73
403.105	16.82
403.312	17.19
403.519	17.41
403.725	17.01
403.932	16.96
404.138	16.42
404.345	16.42
404.552	16.5
404.758	16.36
404.965	16.32
405.171	15.95
405.378	16.37
405.584	15.81
405.791	15.21
405.997	16.07
406.204	16.58
406.41	17.31
406.617	17.38
406.823	17.22
407.029	17.88
407.236	17.74
407.442	17.63
407.649	17.83
407.855	17.43
408.061	18.59
408.268	18.21
408.474	17.76
408.68	17.66
408.887	17.4
409.093	17.27
409.299	16.87
409.505	17.85
409.712	17.99
409.918	17.68
410.124	18.08
410.33	17.41
410.537	16.76
410.743	16.7
410.949	16.64
411.155	16.29
411.361	15.8
411.567	15.6
411.773	14.62
411.98	14.56
412.186	14.13
412.392	13.68
412.598	14.41
412.804	15.04
413.01	15.24
413.216	15.28
413.422	15.83
413.628	15.72
413.834	15.87
414.04	16.36
414.246	16.19
414.452	16.35
414.658	16.57
414.864	15.97
415.07	15.7
415.275	16
415.481	15.78
415.687	15.6
415.893	15.86
416.099	15.56
416.305	15.27
416.511	15.42
416.716	15.21
416.922	15.48
417.128	15.84
417.334	15.61
417.539	15.31
417.745	14.81
417.951	14.73
418.157	14.67
418.362	14.59
418.568	13.99
418.774	14.17
418.979	14.17
419.185	13.65
419.391	12.94
419.596	12.66
419.802	12.27
420.008	12.5
420.213	10.05
420.419	10.2
420.624	10.49
420.83	10.93
421.035	10.81
421.241	10.75
421.446	11.2
421.652	11.54
421.857	12.06
422.063	12.45
422.268	12.4
422.474	14.75
422.679	14.7
422.885	14.49
423.09	14.26
423.295	14.12
423.501	14.32
423.706	14.01
423.911	13.93
424.117	13.85
424.322	13.79
424.527	14.12
424.733	14.32
424.938	14.62
425.143	14.67
425.349	14.99
425.554	15.41
425.759	15.25
425.964	15.6
426.169	15.59
426.375	15.74
426.58	15.92
426.785	15.61
426.99	15.44
427.195	15.36
427.4	15.16
427.605	14.83
427.811	14.07
428.016	14.45
428.221	14.25
428.426	14.51
428.631	13.85
428.836	13.8
429.041	14.24
429.246	13.94
429.451	14.02
429.656	14.3
429.861	14.73
430.066	15.69
430.271	15.64
430.476	15.66
430.681	15.72
430.886	16.37
431.09	16.44
431.295	16.33
431.5	16.62
431.705	16.25
431.91	16.37
432.115	15.97
432.32	15.59
432.524	15.22
432.729	15.51
432.934	15.35
433.139	15.18
433.343	14.9
433.548	14.66
433.753	14.29
433.958	14.52
434.162	14.48
434.367	14.67
434.572	14.76
434.776	15.11
434.981	14.76
435.186	15.17
435.39	15.03
435.595	15.02
435.799	15.06
436.004	15.42
436.209	15.13
436.413	14.84
436.618	14.69
436.822	14.62
437.027	14.45
437.231	14.59
437.436	13.87
437.64	13.9
437.845	14.05
438.049	14.32
438.253	14.31
438.458	14.12
438.662	14.5
438.867	14.62
439.071	14.24
439.275	14.24
439.48	14.3
439.684	14.38
439.888	14.36
440.093	14.27
440.297	14.21
440.501	14.22
440.706	14.5
440.91	14.22
441.114	14.12
441.318	14.26
441.523	14.36
441.727	14.31
441.931	14.9
442.135	15.13
442.339	15.31
442.543	15.21
442.748	15.35
442.952	15.13
443.156	15.28
443.36	15.53
443.564	15.62
443.768	15.38
443.972	15.18
444.176	14.45
444.38	14.43
444.584	14.3
444.788	14.39
444.992	14.23
445.196	14.15
445.4	13.81
445.604	13.74
445.808	13.65
446.012	13.79
446.216	13.95
446.42	14.07
446.624	13.83
446.828	14.11
447.032	13.84
447.235	13.76
447.439	13.88
447.643	14.27
447.847	14.19
448.051	14.24
448.254	14.02
448.458	13.9
448.662	14.21
448.866	14.7
449.069	14.66
449.273	14.53
449.477	14.86
449.681	14.67
449.884	14.46
450.088	14.6
450.292	14.59
450.495	14.6
