Data from JASIL_3900_Reflection_4.txt Node
Date: Sat Nov 07 20:07:52 EST 2015
User: Geneva
Spectrometer: USB4E03002
Autoset integration time: false
Trigger mode: 4
Integration Time (sec): 1.000000E-1
Scans to average: 10
Electric dark correction enabled: true
Nonlinearity correction enabled: false
Boxcar width: 5
Stray light correction enabled: false
XAxis mode: Wavelengths
Stop averaging: false
Number of Pixels in Spectrum: 3648
>>>>>Begin Spectral Data<<<<<
177.575	57.92
177.794	68.31
178.014	76.04
178.233	117.45
178.452	87.91
178.672	6.83
178.891	184.92
179.11	287.07
179.33	252.32
179.549	144
179.768	107.88
179.987	93.5
180.207	112
180.426	145.48
180.645	205.04
180.864	211.32
181.084	200.88
181.303	253.03
181.522	201.49
181.741	178.62
181.96	165.94
182.179	159.57
182.398	207.43
182.618	227.68
182.837	232.58
183.056	315.74
183.275	354.35
183.494	333.94
183.713	247.71
183.932	296.54
184.151	275.15
184.37	284.92
184.589	207.5
184.808	178.28
185.027	141.35
185.246	121
185.465	88.85
185.684	91.38
185.903	82.67
186.122	85.52
186.341	100.09
186.56	109.6
186.779	108.5
186.998	105.99
187.216	107.32
187.435	117.55
187.654	112.95
187.873	146.3
188.092	109.75
188.311	112.59
188.53	133.16
188.748	123.08
188.967	114.53
189.186	108.88
189.405	128.98
189.623	130.74
189.842	137.22
190.061	142.08
190.28	168.39
190.498	191.05
190.717	174.9
190.936	167.14
191.154	157.27
191.373	130.47
191.592	134.69
191.81	110.9
192.029	117.55
192.248	107.98
192.466	98.8
192.685	64.48
192.904	74.57
193.122	94.68
193.341	102.01
193.559	99.9
193.778	119.1
193.996	121.13
194.215	144.13
194.433	148.82
194.652	168.41
194.87	203.99
195.089	226.2
195.307	183.55
195.526	183.52
195.744	176.62
195.963	168.3
196.181	139.41
196.399	158.51
196.618	150
196.836	140.27
197.055	127.03
197.273	116.02
197.491	114.51
197.71	134.89
197.928	130.85
198.146	118.49
198.365	123.48
198.583	137.5
198.801	137.74
199.019	132.17
199.238	145.08
199.456	132.08
199.674	156.66
199.892	187.42
200.111	130.39
200.329	138.35
200.547	144.57
200.765	159.02
200.983	158.56
201.202	136.85
201.42	144.48
201.638	139.81
201.856	175.68
202.074	175.24
202.292	181.66
202.51	207.64
202.728	195.8
202.946	209.47
203.165	182.61
203.383	176.53
203.601	168.96
203.819	157.2
204.037	163.47
204.255	156.41
204.473	157.16
204.691	152.84
204.909	135.56
205.127	131.53
205.345	132.37
205.562	133.52
205.78	148.43
205.998	153.08
206.216	143.75
206.434	135.35
206.652	110.33
206.87	101.61
207.088	113.22
207.306	115.71
207.523	111.42
207.741	92.69
207.959	98.35
208.177	112.33
208.395	112.58
208.612	131.12
208.83	148.39
209.048	204.44
209.266	216.32
209.483	188.31
209.701	222.69
209.919	241.8
210.136	260.2
210.354	239.32
210.572	157.48
210.79	159.17
211.007	136.4
211.225	110.7
211.442	109.98
211.66	100.61
211.878	108.19
212.095	99.48
212.313	107.9
212.53	110.06
212.748	104.69
212.966	118.56
213.183	107.95
213.401	115.65
213.618	122.75
213.836	120.24
214.053	135.56
214.271	124.82
214.488	141.45
214.705	136.61
214.923	143.97
215.14	155.31
215.358	157.62
215.575	156.04
215.793	133.54
216.01	127.88
216.227	153.3
216.445	151.94
216.662	156.19
216.879	142.46
217.097	157.44
217.314	175.86
217.531	164.68
217.749	139.37
217.966	143.54
218.183	135.76
218.4	150.23
218.618	131.02
218.835	110.06
219.052	100.84
219.269	104.13
219.487	86.33
219.704	69.22
219.921	66.77
220.138	64.88
220.355	49.18
220.572	58.19
220.79	64.36
221.007	52.95
221.224	49.2
221.441	58.34
221.658	62.52
221.875	68.7
222.092	62.14
222.309	56.73
222.526	51.5
222.743	58.26
222.96	62.44
223.177	57.73
223.394	52.63
223.611	66.6
223.828	64.02
224.045	54.97
224.262	53.96
224.479	55.24
224.696	60.04
224.913	59.62
225.13	54.15
225.347	51.84
225.564	49.54
225.781	46.08
225.997	38.9
226.214	35.86
226.431	31.55
226.648	30.49
226.865	28.86
227.082	25.25
227.298	21.54
227.515	23.99
227.732	21.4
227.949	21.13
228.165	22.6
228.382	20.86
228.599	21.5
228.816	21.41
229.032	20.26
229.249	21.42
229.466	21.35
229.682	25.16
229.899	24.47
230.116	26.96
230.332	25.2
230.549	25.84
230.765	30.49
230.982	26.51
231.199	32.26
231.415	32.18
231.632	35.6
231.848	39.04
232.065	32.85
232.281	33.35
232.498	32.05
232.714	35.15
232.931	34.07
233.147	32.75
233.364	36.13
233.58	32.56
233.797	37.7
234.013	37.45
234.23	34.39
234.446	36.62
234.662	37.77
234.879	41.91
235.095	43.62
235.312	45.91
235.528	48.34
235.744	48
235.961	49.93
236.177	43.35
236.393	39.31
236.61	42.17
236.826	40.12
237.042	37.67
237.258	34.44
237.475	33.34
237.691	31.37
237.907	28.33
238.123	26.95
238.339	24.12
238.556	28.95
238.772	29.99
238.988	27.17
239.204	29.08
239.42	29.52
239.636	27.9
239.853	25.08
240.069	22.42
240.285	20.29
240.501	19.87
240.717	20.28
240.933	17.24
241.149	14.42
241.365	14.49
241.581	14.21
241.797	13.29
242.013	12.26
242.229	13.84
242.445	14.11
242.661	14.47
242.877	14.79
243.093	13.98
243.309	14.62
243.525	15.63
243.741	15.85
243.957	15.78
244.173	16.64
244.388	15.71
244.604	12.84
244.82	11.33
245.036	11.42
245.252	10.34
245.468	10.02
245.683	10.83
245.899	10.36
246.115	10.29
246.331	9.94
246.547	9.26
246.762	10.26
246.978	11.4
247.194	12.15
247.409	11.95
247.625	12.69
247.841	12.61
248.057	12.42
248.272	13.33
248.488	13.16
248.703	13.01
248.919	13.73
249.135	13.55
249.35	12.53
249.566	13.23
249.782	14.06
249.997	13.88
250.213	14.33
250.428	13.46
250.644	15.17
250.859	15.79
251.075	15.86
251.29	15.31
251.506	14.98
251.721	14.25
251.937	14.02
252.152	13.27
252.368	13.59
252.583	14.28
252.798	15.7
253.014	14.38
253.229	14.09
253.445	13.75
253.66	15.98
253.875	17.5
254.091	19.34
254.306	18.33
254.521	18.65
254.737	18.18
254.952	17.43
255.167	16
255.383	16.01
255.598	17.1
255.813	16.78
256.028	16.37
256.244	14.37
256.459	14.21
256.674	14.08
256.889	12.89
257.104	11.76
257.32	11.85
257.535	11.64
257.75	10.43
257.965	9.33
258.18	9.42
258.395	8.35
258.61	8.32
258.826	7.63
259.041	7.63
259.256	7.59
259.471	7.85
259.686	7.44
259.901	7.49
260.116	8.12
260.331	7.77
260.546	8.19
260.761	8.58
260.976	8.78
261.191	8.87
261.406	8.95
261.621	9.47
261.836	10.15
262.05	9.43
262.265	9.5
262.48	9
262.695	9.82
262.91	10.21
263.125	11.49
263.34	12.45
263.555	14.17
263.769	14.55
263.984	15.25
264.199	14.52
264.414	15.72
264.629	15.31
264.843	15.35
265.058	14.96
265.273	12.89
265.488	11.53
265.702	10.77
265.917	10.24
266.132	9.97
266.346	9.73
266.561	9.54
266.776	10.32
266.99	9.77
267.205	10.03
267.42	9.72
267.634	10.01
267.849	9.99
268.063	10.68
268.278	10.48
268.492	10.57
268.707	10
268.922	9.97
269.136	8.27
269.351	8.27
269.565	8.27
269.78	8.24
269.994	8.22
270.209	8.01
270.423	7.13
270.637	6.69
270.852	6.63
271.066	6.82
271.281	6.69
271.495	7.52
271.709	7.69
271.924	7.31
272.138	7.56
272.353	8.11
272.567	7.74
272.781	7.93
272.996	8.22
273.21	8.49
273.424	8.66
273.638	8.31
273.853	8.34
274.067	7.8
274.281	8.04
274.495	7.66
274.71	7.61
274.924	8.04
275.138	8.24
275.352	7.96
275.566	8.64
275.781	8.63
275.995	8.76
276.209	8.59
276.423	8.93
276.637	8.1
276.851	9.2
277.065	9.08
277.279	9.33
277.493	9.02
277.707	9.54
277.921	8.26
278.135	7.37
278.349	7.32
278.563	7.52
278.777	8.06
278.991	8.84
279.205	8.18
279.419	8.24
279.633	8.82
279.847	9.2
280.061	9.14
280.275	9.33
280.489	10.38
280.703	9.97
280.917	9.63
281.131	9.14
281.344	8.85
281.558	8.12
281.772	7.16
281.986	6.42
282.2	6.22
282.414	6.24
282.627	6.09
282.841	5.7
283.055	5.88
283.269	5.38
283.482	5.29
283.696	5.02
283.91	5.08
284.123	5.74
284.337	6.22
284.551	5.83
284.764	6.05
284.978	5.95
285.192	6.03
285.405	6.02
285.619	6.68
285.833	6.91
286.046	6.91
286.26	7.42
286.473	7.31
286.687	6.58
286.9	7.17
287.114	6.66
287.327	6.85
287.541	6.53
287.754	6.79
287.968	6.22
288.181	6.33
288.395	6.75
288.608	7.05
288.822	6.63
289.035	6.6
289.248	5.91
289.462	6.14
289.675	5.75
289.889	5.8
290.102	5.08
290.315	5.7
290.529	5.27
290.742	4.83
290.955	4.54
291.169	4.83
291.382	5.01
291.595	5.13
291.808	4.86
292.022	5.26
292.235	4.89
292.448	5.54
292.661	4.55
292.875	4.49
293.088	4.72
293.301	4.27
293.514	4.24
293.727	4.71
293.94	4.7
294.153	4.21
294.367	4.11
294.58	3.96
294.793	4.01
295.006	4.29
295.219	4.76
295.432	4.47
295.645	4.78
295.858	4.64
296.071	4.28
296.284	4.1
296.497	4.34
296.71	4.44
296.923	4.84
297.136	4.86
297.349	4.82
297.562	4.65
297.775	4.97
297.988	4.86
298.201	4.84
298.414	5.05
298.626	5.53
298.839	5.9
299.052	6.12
299.265	6.36
299.478	5.73
299.691	5.64
299.903	5.38
300.116	5.31
300.329	5
300.542	5.36
300.755	5.53
300.967	5.08
301.18	4.51
301.393	4
301.605	3.4
301.818	4.05
302.031	4.78
302.243	4.87
302.456	5.03
302.669	5.3
302.881	5.77
303.094	5.12
303.307	5.04
303.519	5.41
303.732	5.58
303.944	5.76
304.157	5.8
304.37	5.18
304.582	5.55
304.795	5.24
305.007	5.83
305.22	5.91
305.432	6.54
305.645	7.06
305.857	6.97
306.069	6.54
306.282	6.88
306.494	7.01
306.707	7.32
306.919	6.59
307.132	6.04
307.344	5.71
307.556	5.34
307.769	5.56
307.981	5.73
308.193	5.66
308.406	6.15
308.618	5.98
308.83	5.47
309.043	5
309.255	5.13
309.467	5.3
309.679	5.45
309.892	5.09
310.104	4.81
310.316	4.68
310.528	4.6
310.74	4.34
310.953	4.28
311.165	4.7
311.377	4.9
311.589	5.28
311.801	5.41
312.013	5.2
312.225	5.54
312.437	5.72
312.649	5.63
312.862	5.6
313.074	5.66
313.286	5.55
313.498	5.22
313.71	5.7
313.922	5.55
314.134	5.73
314.346	5.76
314.558	5.55
314.77	5.78
314.982	6.11
315.193	6.16
315.405	6.09
315.617	6
315.829	5.98
316.041	6.41
316.253	6.17
316.465	6.16
316.677	6.27
316.888	6.6
317.1	6.41
317.312	6.1
317.524	6.52
317.736	7.31
317.947	7.8
318.159	7.89
318.371	6.78
318.583	7.37
318.794	6.87
319.006	6.68
319.218	6.43
319.43	6.32
319.641	6.65
319.853	7.02
320.064	7.05
320.276	6.96
320.488	6.86
320.699	7
320.911	6.78
321.123	7.57
321.334	7.99
321.546	7.98
321.757	8.17
321.969	8.02
322.18	7.67
322.392	7.06
322.603	6.67
322.815	6.72
323.026	6.74
323.238	6.28
323.449	5.6
323.661	5.2
323.872	5.33
324.083	5.11
324.295	4.92
324.506	4.96
324.718	5.57
324.929	5.48
325.14	5.47
325.352	5.58
325.563	5.95
325.774	6.32
325.986	6.61
326.197	6.6
326.408	6.65
326.62	6.73
326.831	6.72
327.042	6.25
327.253	6.35
327.464	6.85
327.676	7.12
327.887	7.18
328.098	7.09
328.309	6.82
328.52	6.64
328.732	6.55
328.943	6.62
329.154	6.78
329.365	7.3
329.576	7.77
329.787	7.43
329.998	7.45
330.209	7.4
330.42	7.36
330.631	7.46
330.842	7.61
331.053	7.44
331.264	7.46
331.475	7.44
331.686	6.88
331.897	6.5
332.108	6.28
332.319	5.63
332.53	5.65
332.741	5.64
332.952	5.76
333.163	6.04
333.374	6.36
333.585	6.28
333.795	6.19
334.006	6.53
334.217	6.55
334.428	7.23
334.639	7.95
334.849	7.53
335.06	7.65
335.271	7.47
335.482	7.51
335.692	7.49
335.903	7.53
336.114	7.62
336.325	7.55
336.535	7.81
336.746	7.67
336.957	7.37
337.167	7.55
337.378	7.66
337.589	7.84
337.799	7.61
338.01	7.5
338.22	7.09
338.431	6.45
338.642	6.32
338.852	5.97
339.063	5.27
339.273	5.44
339.484	5.35
339.694	5.55
339.905	5.45
340.115	5.6
340.326	6.13
340.536	6.09
340.746	6.55
340.957	6.34
341.167	6.62
341.378	7.04
341.588	7.04
341.799	7.01
342.009	6.54
342.219	6.36
342.43	6.3
342.64	5.88
342.85	5.97
343.061	5.83
343.271	5.95
343.481	5.82
343.691	5.67
343.902	5.43
344.112	5.69
344.322	5.88
344.532	6.3
344.743	6.01
344.953	5.68
345.163	5.54
345.373	5.81
345.583	5.85
345.793	5.76
346.004	6
346.214	6.08
346.424	5.99
346.634	6.12
346.844	5.9
347.054	5.94
347.264	6.6
347.474	7.18
347.684	7.06
347.894	7.2
348.104	7.64
348.314	7.72
348.524	7.8
348.734	7.58
348.944	7.58
349.154	7.82
349.364	7.89
349.574	7.26
349.784	7.17
349.994	6.97
350.204	6.51
350.413	5.87
350.623	5.71
350.833	5.41
351.043	5.29
351.253	5.1
351.463	4.52
351.672	4.36
351.882	4.36
352.092	4.08
352.302	4.14
352.511	4.43
352.721	4.78
352.931	4.47
353.141	4.69
353.35	5.16
353.56	5.02
353.77	5.45
353.979	5.45
354.189	5.58
354.399	5.27
354.608	5.03
354.818	4.92
355.027	4.77
355.237	4.93
355.447	4.85
355.656	4.68
355.866	4.83
356.075	4.73
356.285	4.74
356.494	4.76
356.704	4.96
356.913	5.18
357.123	5.41
357.332	5.39
357.542	5.51
357.751	5.41
357.96	5.43
358.17	5.21
358.379	5.06
358.589	5.35
358.798	5.18
359.007	5.25
359.217	4.88
359.426	4.66
359.635	4.66
359.845	4.77
360.054	4.62
360.263	4.7
360.472	4.79
360.682	4.83
360.891	4.37
361.1	4.47
361.309	4.51
361.519	4.63
361.728	4.78
361.937	4.76
362.146	4.58
362.355	4.69
362.564	4.39
362.774	4.42
362.983	4.56
363.192	4.95
363.401	5.14
363.61	4.99
363.819	5.15
364.028	5.01
364.237	4.87
364.446	4.85
364.655	4.87
364.864	5.02
365.073	5.01
365.282	4.94
365.491	4.68
365.7	4.67
365.909	5.02
366.118	4.97
366.327	4.65
366.536	4.94
366.745	5.15
366.954	5.15
367.162	5.19
367.371	4.98
367.58	4.87
367.789	5.15
367.998	5.24
368.207	4.99
368.415	5.14
368.624	5.49
368.833	5.31
369.042	5.55
369.25	5.5
369.459	5.53
369.668	5.53
369.877	5.28
370.085	5.15
370.294	4.79
370.503	4.77
370.711	4.82
370.92	4.77
371.129	4.76
371.337	3.99
371.546	3.88
371.754	3.91
371.963	4.05
372.171	4.06
372.38	4.15
372.589	4.06
372.797	4.21
373.006	3.95
373.214	4.01
373.423	3.88
373.631	4.17
373.84	4.23
374.048	4.1
374.256	3.97
374.465	4.36
374.673	4.11
374.882	4.26
375.09	3.92
375.298	3.9
375.507	3.53
375.715	3.74
375.923	3.57
376.132	3.58
376.34	3.63
376.548	3.59
376.757	3.28
376.965	3.47
377.173	3.49
377.381	3.85
377.59	4.19
377.798	4.43
378.006	4.01
378.214	4.19
378.423	4.18
378.631	4.17
378.839	4.26
379.047	4.28
379.255	4.08
379.463	4.09
379.671	3.77
379.879	3.64
380.088	3.91
380.296	4.33
380.504	4.34
380.712	4.59
380.92	4.6
381.128	4.87
381.336	4.7
381.544	4.75
381.752	4.69
381.96	4.89
382.168	4.71
382.376	4.42
382.584	4.53
382.791	4.62
382.999	4.55
383.207	4.5
383.415	4.38
383.623	4.65
383.831	4.69
384.039	4.84
384.247	4.74
384.454	4.78
384.662	4.84
384.87	4.7
385.078	4.84
385.285	4.44
385.493	4.54
385.701	4.4
385.909	4.31
386.116	4.46
386.324	4.33
386.532	4.12
386.739	4.09
386.947	3.94
387.155	4.13
387.362	3.94
387.57	4.25
387.778	4.12
387.985	4.14
388.193	4.16
388.4	4.07
388.608	4.15
388.816	4.31
389.023	4.24
389.231	4.34
389.438	4.36
389.646	4.24
389.853	4.19
390.061	4.14
390.268	4.17
390.475	4.05
390.683	4.09
390.89	3.95
391.098	3.89
391.305	3.92
391.512	3.84
391.72	3.56
391.927	3.62
392.135	3.6
392.342	3.59
392.549	3.63
392.756	3.73
392.964	3.55
393.171	3.72
393.378	3.81
393.586	3.54
393.793	3.52
394	3.44
394.207	3.46
394.414	3.55
394.622	3.59
394.829	3.62
395.036	3.7
395.243	3.62
395.45	3.38
395.657	3.43
395.864	3.7
396.072	3.6
396.279	3.79
396.486	3.65
396.693	3.47
396.9	3.59
397.107	3.33
397.314	3.2
397.521	3.39
397.728	3.44
397.935	3.52
398.142	3.28
398.349	3.42
398.556	3.34
398.763	3.35
398.97	3.4
399.177	3.3
399.383	3.39
399.59	3.35
399.797	3.28
400.004	3.16
400.211	3.15
400.418	3.34
400.625	3.27
400.831	3.34
401.038	3.25
401.245	3.34
401.452	3.33
401.658	3.4
401.865	3.39
402.072	3.45
402.279	3.42
402.485	3.06
402.692	3.04
402.899	3.11
403.105	3.06
403.312	3.36
403.519	3.43
403.725	3.36
403.932	3.53
404.138	3.43
404.345	3.31
404.552	3.48
404.758	3.73
404.965	3.79
405.171	3.83
405.378	3.73
405.584	3.64
405.791	3.29
405.997	3.46
406.204	3.41
406.41	3.7
406.617	3.78
406.823	3.59
407.029	3.5
407.236	3.44
407.442	3.44
407.649	3.68
407.855	3.44
408.061	3.65
408.268	3.58
408.474	3.32
408.68	3.18
408.887	3.29
409.093	3.39
409.299	3.44
409.505	3.4
409.712	3.27
409.918	3.22
410.124	3.25
410.33	3.19
410.537	3.16
410.743	3.26
410.949	3.15
411.155	3.15
411.361	3.24
411.567	3.28
411.773	3.35
411.98	3.29
412.186	3.43
412.392	3.57
412.598	3.59
412.804	3.37
413.01	3.33
413.216	3.36
413.422	3.29
413.628	3.05
413.834	2.81
414.04	2.98
414.246	3.1
414.452	2.92
414.658	2.79
414.864	2.77
415.07	2.88
415.275	2.83
415.481	2.81
415.687	2.86
415.893	2.97
416.099	3.02
416.305	2.73
416.511	2.68
416.716	2.63
416.922	2.67
417.128	2.66
417.334	2.69
417.539	2.72
417.745	2.63
417.951	2.58
418.157	2.52
418.362	2.49
418.568	2.58
418.774	2.58
418.979	2.61
419.185	2.62
419.391	2.62
419.596	2.52
419.802	2.5
420.008	2.49
420.213	2.57
420.419	2.61
420.624	2.69
420.83	2.65
421.035	2.63
421.241	2.66
421.446	2.61
421.652	2.64
421.857	2.7
422.063	2.68
422.268	2.73
422.474	2.62
422.679	2.59
422.885	2.55
423.09	2.47
423.295	2.42
423.501	2.31
423.706	2.3
423.911	2.22
424.117	2.18
424.322	2.23
424.527	2.27
424.733	2.21
424.938	2.23
425.143	2.22
425.349	2.35
425.554	2.49
425.759	2.55
425.964	2.63
426.169	2.65
426.375	2.65
426.58	2.67
426.785	2.58
426.99	2.67
427.195	2.78
427.4	2.75
427.605	2.78
427.811	2.73
428.016	2.85
428.221	2.87
428.426	2.96
428.631	3.1
428.836	2.98
429.041	3.06
429.246	3.03
429.451	3.05
429.656	3.21
429.861	3.14
430.066	3.12
430.271	3.04
430.476	2.96
430.681	2.89
430.886	2.81
431.09	2.85
431.295	2.74
431.5	2.68
431.705	2.42
431.91	2.17
432.115	2.19
432.32	2.23
432.524	2.13
432.729	2.11
432.934	2.01
433.139	2.02
433.343	2.01
433.548	2.09
433.753	2.2
433.958	2.34
434.162	2.48
434.367	2.49
434.572	2.41
434.776	2.56
434.981	2.58
435.186	2.8
435.39	2.79
435.595	2.86
435.799	2.75
436.004	2.67
436.209	2.64
436.413	2.58
436.618	2.44
436.822	2.25
437.027	2.15
437.231	2.19
437.436	2
437.64	2.01
437.845	1.95
438.049	2.12
438.253	2.07
438.458	2.04
438.662	2.17
438.867	2.27
439.071	2.42
439.275	2.48
439.48	2.46
439.684	2.5
439.888	2.49
440.093	2.5
440.297	2.38
440.501	2.47
440.706	2.44
440.91	2.33
441.114	2.31
441.318	2.31
441.523	2.33
441.727	2.34
441.931	2.43
442.135	2.47
442.339	2.43
442.543	2.47
442.748	2.35
442.952	2.37
443.156	2.39
443.36	2.41
443.564	2.39
443.768	2.22
443.972	2.18
444.176	2.03
444.38	2.03
444.584	2.03
444.788	2.1
444.992	2.11
445.196	2.09
445.4	2.01
445.604	1.98
445.808	1.94
446.012	1.99
446.216	1.96
446.42	2.09
446.624	2.08
446.828	2.05
447.032	1.96
447.235	1.97
447.439	1.99
447.643	2.11
447.847	2.18
448.051	2.26
448.254	2.25
448.458	2.32
448.662	2.28
448.866	2.28
449.069	2.22
449.273	2.34
449.477	2.32
449.681	2.4
449.884	2.35
450.088	2.32
450.292	2.25
450.495	2.23
450.699	2.25
450.902	2.27
451.106	2.28
451.31	2.44
451.513	2.29
451.717	2.35
451.92	2.32
452.124	2.3
452.327	2.28
452.531	2.38
452.734	2.4
452.938	2.38
453.141	2.41
453.345	2.35
453.548	2.39
453.752	2.47
453.955	2.56
454.158	2.51
454.362	2.56
454.565	2.63
454.769	2.66
454.972	2.74
455.175	2.8
455.379	2.66
455.582	2.68
455.785	2.45
455.988	2.45
456.192	2.34
456.395	2.34
456.598	2.33
456.801	2.16
457.005	2.06
457.208	2.02
457.411	1.9
457.614	1.98
457.817	1.98
458.021	2.01
458.224	2.11
458.427	2.08
458.63	2.08
458.833	2.05
459.036	2.05
459.239	2.06
459.442	2.07
459.645	2.08
459.848	2.1
460.051	2.05
460.254	2.15
460.457	2.04
460.66	2.14
460.863	2.17
461.066	2.13
461.269	2.15
461.472	2.21
461.675	2.19
461.878	2.17
462.081	2.13
462.284	2.22
462.486	2.1
462.689	2.22
462.892	2.04
463.095	2
463.298	2.05
463.5	2.04
463.703	1.95
463.906	2
464.109	2.08
464.311	2.03
464.514	2.11
464.717	2.17
464.92	2.14
465.122	2.2
465.325	2.28
465.528	2.29
465.73	2.34
465.933	2.37
466.135	2.16
466.338	2.14
466.541	2.16
466.743	2.08
466.946	2.03
467.148	1.98
467.351	2.05
467.553	2.03
467.756	1.99
467.958	1.89
468.161	1.94
