Data from JASIL_3174_Reflection_2.txt Node
Date: Thu Nov 12 23:04:20 EST 2015
User: Geneva
Spectrometer: USB4E03002
Autoset integration time: false
Trigger mode: 4
Integration Time (sec): 1.000000E-1
Scans to average: 10
Electric dark correction enabled: true
Nonlinearity correction enabled: false
Boxcar width: 5
Stray light correction enabled: false
XAxis mode: Wavelengths
Stop averaging: false
Number of Pixels in Spectrum: 3648
>>>>>Begin Spectral Data<<<<<
177.575	46.4
177.794	45.54
178.014	13.59
178.233	-488.87
178.452	-77.01
178.672	-174.9
178.891	-35.25
179.11	10.42
179.33	65.83
179.549	-14.56
179.768	-25.39
179.987	-26.89
180.207	-126.23
180.426	-425.36
180.645	410.66
180.864	345.94
181.084	181.72
181.303	825.93
181.522	198.19
181.741	104.56
181.96	246.87
182.179	166.53
182.398	342.96
182.618	-15.11
182.837	42.74
183.056	-17.66
183.275	33.16
183.494	14.54
183.713	55.89
183.932	66.03
184.151	72.12
184.37	88.67
184.589	68.15
184.808	79.54
185.027	73.28
185.246	85.09
185.465	87.38
185.684	92.24
185.903	100.6
186.122	69
186.341	86.29
186.56	79.96
186.779	122.03
186.998	206.11
187.216	157.99
187.435	144.22
187.654	134.56
187.873	173.14
188.092	103.25
188.311	131.2
188.53	693.67
188.748	-1687.83
188.967	-18.77
189.186	-10.58
189.405	-110.98
189.623	-94.98
189.842	-46.13
190.061	-18.63
190.28	-7.76
190.498	14.89
190.717	-4.92
190.936	-19.29
191.154	-1.77
191.373	-253.05
191.592	-82.41
191.81	-58.39
192.029	-778.58
192.248	-250.87
192.466	-212.58
192.685	-306.31
192.904	-479.1
193.122	-472.39
193.341	-334.43
193.559	-618.09
193.778	-198.01
193.996	-269.16
194.215	-114.02
194.433	-77.23
194.652	-278.46
194.87	-175.94
195.089	-246.43
195.307	-128.75
195.526	-308.7
195.744	347.73
195.963	179.44
196.181	83.27
196.399	88.87
196.618	61.52
196.836	111.48
197.055	122.87
197.273	117.84
197.491	157.8
197.71	149.01
197.928	162.63
198.146	248.45
198.365	527.19
198.583	441.76
198.801	667.22
199.019	-250.17
199.238	-18.36
199.456	-102.26
199.674	-43.6
199.892	-99.52
200.111	6.65
200.329	27.75
200.547	46.85
200.765	59.54
200.983	27.68
201.202	28.04
201.42	64.16
201.638	43.26
201.856	41.35
202.074	36.37
202.292	70.64
202.51	15.74
202.728	14.42
202.946	4.37
203.165	8.72
203.383	26.1
203.601	44.81
203.819	4.85
204.037	-29.03
204.255	-17.83
204.473	-39.17
204.691	-59.89
204.909	-14.6
205.127	-0.76
205.345	-15.24
205.562	-19.05
205.78	-35.08
205.998	-51.12
206.216	-83.49
206.434	-167.82
206.652	-296.91
206.87	-242.79
207.088	-8321.09
207.306	-1051.28
207.523	1022.02
207.741	690.57
207.959	-2122.27
208.177	-296.64
208.395	-393.37
208.612	-128.73
208.83	-12.61
209.048	20.23
209.266	37.15
209.483	7.19
209.701	11.27
209.919	-6.06
210.136	-4.47
210.354	5.15
210.572	-19.36
210.79	6.45
211.007	18.86
211.225	-9.33
211.442	-1.1
211.66	-3.72
211.878	39.29
212.095	181.23
212.313	142.87
212.53	154.32
212.748	141.4
212.966	139.6
213.183	150.85
213.401	147.17
213.618	164.74
213.836	169.03
214.053	167.61
214.271	167.25
214.488	-5776.62
214.705	-1196.86
214.923	-999.76
215.14	-507.39
215.358	-381.12
215.575	-109.93
215.793	-107.22
216.01	38.36
216.227	-509.09
216.445	-26.45
216.662	-1.66
216.879	74.89
217.097	36.89
217.314	38.46
217.531	17.06
217.749	-18.54
217.966	-44.12
218.183	-50.08
218.4	-76.97
218.618	-50.45
218.835	-28.21
219.052	-33.59
219.269	-15.61
219.487	-27.6
219.704	-18.52
219.921	4.05
220.138	30.12
220.355	20.76
220.572	-39.8
220.79	5.03
221.007	1.65
221.224	-1.35
221.441	-14.78
221.658	-17
221.875	23.46
222.092	24.79
222.309	19.84
222.526	2.32
222.743	16.11
222.96	33.25
223.177	13.99
223.394	-17.5
223.611	-7.57
223.828	-28.28
224.045	-20.54
224.262	-59.31
224.479	-70.58
224.696	-48.22
224.913	-30.59
225.13	-51.02
225.347	-18.24
225.564	10.72
225.781	24.03
225.997	11.95
226.214	17.83
226.431	15.68
226.648	16.62
226.865	14.54
227.082	11.92
227.298	10.93
227.515	10.08
227.732	12.5
227.949	0.4
228.165	6.09
228.382	15.96
228.599	23.31
228.816	15.12
229.032	12.55
229.249	13.95
229.466	17.84
229.682	11.52
229.899	9.01
230.116	-0.24
230.332	-5.39
230.549	-5.53
230.765	-1.09
230.982	-15.43
231.199	3.54
231.415	6.96
231.632	9.81
231.848	4.13
232.065	17.85
232.281	24.37
232.498	24.31
232.714	36.11
232.931	22.89
233.147	15.16
233.364	28.84
233.58	17
233.797	14.55
234.013	6.45
234.23	2.68
234.446	-15.46
234.662	-25.38
234.879	-19.59
235.095	-19.45
235.312	-17.02
235.528	-0.59
235.744	-4.81
235.961	-7.54
236.177	-18.08
236.393	-26.43
236.61	-9.11
236.826	5.81
237.042	5.89
237.258	-0.81
237.475	-6.87
237.691	-1.78
237.907	-5.53
238.123	-7.16
238.339	8.5
238.556	9.24
238.772	13.24
238.988	19.41
239.204	23.06
239.42	28.2
239.636	36.67
239.853	32.87
240.069	24.45
240.285	20.26
240.501	20.53
240.717	19.57
240.933	19.6
241.149	20.13
241.365	15.32
241.581	12.92
241.797	13.03
242.013	8.73
242.229	8.19
242.445	13.36
242.661	17.73
242.877	18.87
243.093	18.61
243.309	19.64
243.525	24.94
243.741	24.96
243.957	20.57
244.173	19.17
244.388	16.66
244.604	22.6
244.82	16.4
245.036	9.92
245.252	6.9
245.468	8.6
245.683	8.78
245.899	6.05
246.115	4.28
246.331	6
246.547	4.72
246.762	1.93
246.978	-1.63
247.194	-1.11
247.409	-1.18
247.625	0.1
247.841	-3.18
248.057	-4.25
248.272	-6.17
248.488	-2.84
248.703	1.45
248.919	-2.4
249.135	1.14
249.35	2.61
249.566	5.79
249.782	3.95
249.997	2.42
250.213	6.11
250.428	-0.41
250.644	-5.51
250.859	-8.73
251.075	-16.33
251.29	-13.11
251.506	-13.17
251.721	-14.58
251.937	-15.95
252.152	-10.46
252.368	-12.29
252.583	-22.06
252.798	-16.94
253.014	-12.42
253.229	-17.04
253.445	-15.43
253.66	-6.29
253.875	-9.59
254.091	-7.47
254.306	-4.06
254.521	-13.3
254.737	-11.37
254.952	-8
255.167	-4.43
255.383	0.61
255.598	0.45
255.813	-2.02
256.028	-8.44
256.244	-1.99
256.459	-4.12
256.674	-6.93
256.889	-4.16
257.104	1.67
257.32	4.27
257.535	6.57
257.75	-3.57
257.965	-0.1
258.18	-0.67
258.395	0.2
258.61	0.61
258.826	2.63
259.041	1.87
259.256	1.96
259.471	-0.32
259.686	-2.37
259.901	-2.6
260.116	1.09
260.331	0.79
260.546	4.75
260.761	5.98
260.976	6.54
261.191	6.55
261.406	10.26
261.621	5.86
261.836	8.69
262.05	13.88
262.265	10.92
262.48	16.67
262.695	19.24
262.91	17.22
263.125	17.48
263.34	14.92
263.555	14.39
263.769	4.46
263.984	9.18
264.199	7.14
264.414	7.54
264.629	4.41
264.843	-1.93
265.058	-8.89
265.273	-9.97
265.488	-15.24
265.702	-11.68
265.917	-9.75
266.132	-7.62
266.346	-4.46
266.561	-6.64
266.776	-7.68
266.99	-5.17
267.205	-0.81
267.42	0.27
267.634	0.16
267.849	1.97
268.063	1.47
268.278	-4.79
268.492	-8.23
268.707	-5.31
268.922	-3.59
269.136	-3.6
269.351	2.08
269.565	-0.37
269.78	0.67
269.994	1.46
270.209	3.34
270.423	4.07
270.637	9.34
270.852	12.42
271.066	10.92
271.281	8.63
271.495	9.3
271.709	3.09
271.924	3.9
272.138	5.11
272.353	3.65
272.567	1.74
272.781	-0.94
272.996	-3.01
273.21	-0.37
273.424	0.8
273.638	5.41
273.853	5.13
274.067	7.71
274.281	8.68
274.495	8.02
274.71	10.24
274.924	12.47
275.138	13.87
275.352	10.77
275.566	8.07
275.781	3.27
275.995	1.12
276.209	-5.25
276.423	-6.63
276.637	-8.14
276.851	-7.56
277.065	-12.76
277.279	-15.7
277.493	-14.77
277.707	-5.91
277.921	-4.94
278.135	-4.59
278.349	1.12
278.563	3.12
278.777	3.19
278.991	2.4
279.205	0.11
279.419	4.64
279.633	2.11
279.847	2.08
280.061	0.9
280.275	2.64
280.489	1.61
280.703	-7.78
280.917	-1.42
281.131	0.76
281.344	-1.59
281.558	-0.23
281.772	-0.96
281.986	-0.07
282.2	1.09
282.414	-1.7
282.627	-3.43
282.841	-1.41
283.055	4.38
283.269	2.13
283.482	0.97
283.696	0.44
283.91	1.64
284.123	-3.13
284.337	-0.16
284.551	-0.5
284.764	2.8
284.978	3.56
285.192	4.59
285.405	3.6
285.619	3.6
285.833	5.45
286.046	9.41
286.26	11.5
286.473	14.77
286.687	15.12
286.9	17.63
287.114	15.47
287.327	14.65
287.541	13.44
287.754	13.77
287.968	8.95
288.181	7.31
288.395	2.64
288.608	1.37
288.822	-0.52
289.035	-0.99
289.248	-3.44
289.462	-1.95
289.675	-0.13
289.889	0.65
290.102	1.53
290.315	5.57
290.529	5.08
290.742	6.59
290.955	5.16
291.169	7.19
291.382	6.66
291.595	6.86
291.808	7.31
292.022	6.67
292.235	6.68
292.448	5.69
292.661	6.13
292.875	4.08
293.088	3.96
293.301	2.05
293.514	-0.88
293.727	-1.82
293.94	-4.05
294.153	-4.92
294.367	-7.45
294.58	-6.32
294.793	-7.12
295.006	-10.3
295.219	-6.83
295.432	-5.13
295.645	-3.13
295.858	-1.44
296.071	0.25
296.284	2.12
296.497	3.76
296.71	3.67
296.923	3.2
297.136	3.77
297.349	3.61
297.562	4.18
297.775	3.28
297.988	2.58
298.201	3.38
298.414	2.46
298.626	2.54
298.839	-0.81
299.052	2.79
299.265	1.8
299.478	2.91
299.691	2.42
299.903	3.79
300.116	4.83
300.329	6.84
300.542	5.96
300.755	4.48
300.967	4.13
301.18	5.13
301.393	3.09
301.605	5.5
301.818	3.22
302.031	5.01
302.243	0.35
302.456	1.91
302.669	-1.89
302.881	-6.22
303.094	-4.8
303.307	-3.84
303.519	-3.51
303.732	-4.5
303.944	-4.54
304.157	-6.84
304.37	-4.49
304.582	-4.02
304.795	-6.2
305.007	-4.82
305.22	2.14
305.432	2.6
305.645	2.22
305.857	4.75
306.069	7.42
306.282	6.71
306.494	10.5
306.707	10.24
306.919	10.65
307.132	9.48
307.344	9.24
307.556	7.22
307.769	3.66
307.981	4
308.193	-0.26
308.406	-1.01
308.618	-1.77
308.83	-1.83
309.043	0.43
309.255	1.36
309.467	-0.67
309.679	1.7
309.892	2.9
310.104	5.58
310.316	3.12
310.528	5.57
310.74	4.62
310.953	3.95
311.165	3.16
311.377	1.46
311.589	1.82
311.801	3.05
312.013	1.16
312.225	1.05
312.437	0.59
312.649	0.75
312.862	1.28
313.074	-0.21
313.286	4.45
313.498	6.86
313.71	4.09
313.922	1.25
314.134	3.52
314.346	3.97
314.558	2.87
314.77	2.44
314.982	3.98
315.193	3.02
315.405	1.41
315.617	-1.18
315.829	-7.51
316.041	-7.01
316.253	-2
316.465	-4.26
316.677	-2.94
316.888	-4.54
317.1	-0.79
317.312	-2.73
317.524	-1.87
317.736	-1.07
317.947	-1.75
318.159	3.48
318.371	6.79
318.583	6.82
318.794	10.35
319.006	10.03
319.218	11.78
319.43	8.92
319.641	13.44
319.853	14.78
320.064	18.15
320.276	17.33
320.488	17.06
320.699	13.8
320.911	13.59
321.123	9.8
321.334	4.68
321.546	4.37
321.757	6.79
321.969	5.89
322.18	4.37
322.392	2.84
322.603	1.14
322.815	0.1
323.026	-0.13
323.238	-1.67
323.449	0.41
323.661	-0.33
323.872	-0.28
324.083	-2.6
324.295	-2.68
324.506	-0.13
324.718	1.49
324.929	5.83
325.14	8.16
325.352	10.85
325.563	12.39
325.774	14.55
325.986	17.34
326.197	16.65
326.408	18.57
326.62	18.21
326.831	16.28
327.042	15.59
327.253	15.63
327.464	14.6
327.676	12.41
327.887	10.67
328.098	8.43
328.309	8.82
328.52	8.49
328.732	7.47
328.943	6.94
329.154	9.82
329.365	8.25
329.576	7.23
329.787	7.61
329.998	6.4
330.209	8.19
330.42	7.86
330.631	6.87
330.842	8.7
331.053	8.42
331.264	10.2
331.475	8.08
331.686	11.08
331.897	9.14
332.108	6.17
332.319	9.29
332.53	8.75
332.741	10.98
332.952	12.83
333.163	12.13
333.374	11.2
333.585	11.05
333.795	7.68
334.006	3.91
334.217	6.72
334.428	9.2
334.639	7.78
334.849	8.2
335.06	8.78
335.271	6.64
335.482	7.2
335.692	8.83
335.903	8.54
336.114	8.72
336.325	12.71
336.535	10.93
336.746	8.63
336.957	6.89
337.167	5.26
337.378	0.99
337.589	4.38
337.799	4.28
338.01	1.35
338.22	2.41
338.431	5.6
338.642	2.33
338.852	4.36
339.063	6.2
339.273	8.58
339.484	10.57
339.694	14.05
339.905	11.41
340.115	10.45
340.326	12.75
340.536	11.34
340.746	10.47
340.957	11.1
341.167	8.15
341.378	8.36
341.588	8.96
341.799	6.92
342.009	5.53
342.219	8.79
342.43	9.32
342.64	11.76
342.85	11.21
343.061	11.04
343.271	10.17
343.481	9.44
343.691	8.66
343.902	7.48
344.112	8.85
344.322	10.14
344.532	8.21
344.743	9.21
344.953	7.3
345.163	8.95
345.373	9.9
345.583	10.28
345.793	10.9
346.004	10.64
346.214	11.95
346.424	12.04
346.634	12.27
346.844	11.64
347.054	11.94
347.264	11.38
347.474	9.82
347.684	9.04
347.894	10.26
348.104	11.23
348.314	12.33
348.524	12.31
348.734	13.43
348.944	13.32
349.154	14.56
349.364	13.91
349.574	14.47
349.784	15.46
349.994	16.11
350.204	16.51
350.413	15.76
350.623	15.74
350.833	15.24
351.043	14.57
351.253	12.88
351.463	11.78
351.672	11.54
351.882	11.82
352.092	10.27
352.302	9.89
352.511	6.79
352.721	6.57
352.931	6.24
353.141	6.24
353.35	5.79
353.56	6.25
353.77	6.45
353.979	6.38
354.189	3.9
354.399	4.11
354.608	2.17
354.818	3.64
355.027	5.25
355.237	5.01
355.447	4.83
355.656	4.14
355.866	2.94
356.075	2.4
356.285	2.88
356.494	4.96
356.704	5.56
356.913	6.44
357.123	6.82
357.332	5.9
357.542	6.39
357.751	7.03
357.96	6.52
358.17	7.84
358.379	10.14
358.589	9.44
358.798	8.77
359.007	9.33
359.217	11.24
359.426	11.78
359.635	12.24
359.845	11.42
360.054	11.19
360.263	12.5
360.472	12.9
360.682	11.89
360.891	11.26
361.1	11.5
361.309	11.98
361.519	10.4
361.728	9.02
361.937	8.92
362.146	9.45
362.355	10.04
362.564	9.5
362.774	8.77
362.983	9.26
363.192	10.45
363.401	10.47
363.61	9.65
363.819	9.66
364.028	12.66
364.237	13.37
364.446	13.59
364.655	12.55
364.864	12.81
365.073	13.85
365.282	13.88
365.491	13.8
365.7	13.94
365.909	14.21
366.118	14.7
366.327	13.64
366.536	13.45
366.745	13.92
366.954	13.65
367.162	12.49
367.371	12.15
367.58	10.67
367.789	10.77
367.998	10.87
368.207	11.46
368.415	11.36
368.624	10.95
368.833	10.05
369.042	7.98
369.25	8.15
369.459	9.77
369.668	9.96
369.877	10.8
370.085	10.32
370.294	10.19
370.503	9.77
370.711	8.38
370.92	8.49
371.129	9.43
371.337	9.85
371.546	10.5
371.754	10.57
371.963	8.96
372.171	9.49
372.38	9.14
372.589	7.83
372.797	6.99
373.006	7.74
373.214	6.89
373.423	7.15
373.631	8.45
373.84	8.59
374.048	8.42
374.256	10.98
374.465	8.49
374.673	8.87
374.882	9.41
375.09	9.89
375.298	11.19
375.507	13.3
375.715	12.66
375.923	12.72
376.132	11.71
376.34	12.58
376.548	10.81
376.757	10.88
376.965	11.82
377.173	12.13
377.381	11.84
377.59	10.83
377.798	8.06
378.006	8.14
378.214	6.48
378.423	7.08
378.631	6.6
378.839	6.56
379.047	8.75
379.255	7.88
379.463	10.11
379.671	10.19
379.879	10.4
380.088	12.19
380.296	12.54
380.504	12.16
380.712	12.53
380.92	12.23
381.128	13.06
381.336	12.12
381.544	12.21
381.752	10.15
381.96	10.93
382.168	11.28
382.376	10.47
382.584	10.04
382.791	9.66
382.999	8.65
383.207	7.8
383.415	8.4
383.623	8.2
383.831	8
384.039	7.52
384.247	6.51
384.454	6.42
384.662	6.03
384.87	6.91
385.078	8.34
385.285	9.32
385.493	9.76
385.701	9.26
385.909	8.68
386.116	8.84
386.324	9
386.532	9.55
386.739	9.93
386.947	9.61
387.155	7.68
387.362	7.21
387.57	6.44
387.778	7
387.985	6.55
388.193	6.22
388.4	5.8
388.608	6.95
388.816	5.59
389.023	5.59
389.231	6.34
389.438	6.85
389.646	7.54
389.853	7.37
390.061	6.68
390.268	5.92
390.475	6.91
390.683	6.63
390.89	6.02
391.098	6.94
391.305	6.59
391.512	6.39
391.72	6.32
391.927	6.47
392.135	7.63
392.342	7.55
392.549	7.56
392.756	7.68
392.964	8.67
393.171	8.58
393.378	8.54
393.586	8.1
393.793	8.11
394	9.19
394.207	8.56
394.414	7.75
394.622	7.49
394.829	7.81
395.036	8.21
395.243	7.69
395.45	7.86
395.657	6.96
395.864	7.49
396.072	7.66
396.279	7.1
396.486	6.02
396.693	5.91
396.9	5.94
397.107	5.71
397.314	5.5
397.521	5.93
397.728	5.35
397.935	5.57
398.142	4.79
398.349	4.98
398.556	4.97
398.763	6.8
398.97	6.55
399.177	7
399.383	8.37
399.59	8.84
399.797	7.92
400.004	7.77
400.211	7.58
400.418	9.02
400.625	9.11
400.831	8.52
401.038	7.84
401.245	7.64
401.452	7.55
401.658	6.5
401.865	5.72
402.072	6.21
402.279	6.33
402.485	6.51
402.692	5.1
402.899	3.86
403.105	5.55
403.312	6.21
403.519	6.4
403.725	5.62
403.932	5.97
404.138	5.81
404.345	6.08
404.552	5.66
404.758	5.49
404.965	5.88
405.171	6.24
405.378	4.75
405.584	3.65
405.791	4.36
405.997	4.19
406.204	4.03
406.41	3.19
406.617	2.12
406.823	1.83
407.029	2.4
407.236	1.48
407.442	1.48
407.649	0.87
407.855	1.73
408.061	0.1
408.268	1.04
408.474	1.34
408.68	2.39
408.887	3.74
409.093	4.75
409.299	3.34
409.505	4.45
409.712	4.53
409.918	5.19
410.124	4.44
410.33	4.9
410.537	5.35
410.743	4.85
410.949	4.41
411.155	4.46
411.361	4.35
411.567	5.19
411.773	6.51
411.98	7.46
412.186	6.29
412.392	6.7
412.598	7.58
412.804	7.25
413.01	6.92
413.216	7.16
413.422	5.5
413.628	5.79
413.834	5.23
414.04	3.43
414.246	3.78
414.452	5.02
414.658	5.63
414.864	4.87
415.07	5.11
415.275	5.62
415.481	5.29
415.687	5.86
415.893	5.04
416.099	6.38
416.305	6.59
416.511	6.29
416.716	6.46
416.922	5.87
417.128	5.88
417.334	5.5
417.539	4.92
417.745	5.73
417.951	6.37
418.157	6.84
418.362	6.5
418.568	6.44
418.774	5.68
418.979	5.18
419.185	5.26
419.391	6.08
419.596	5.98
419.802	6.87
420.008	6.35
420.213	6.14
420.419	6.27
420.624	6.46
420.83	7.08
421.035	7.29
421.241	7.69
421.446	7.63
421.652	7.23
421.857	7.16
422.063	6.66
422.268	6.71
422.474	6.19
422.679	6.33
422.885	6.09
423.09	5.24
423.295	5.75
423.501	5.73
423.706	6.19
423.911	6.39
424.117	6.84
424.322	6.51
424.527	6.66
424.733	7.1
424.938	6.8
425.143	6.61
425.349	7.38
425.554	7.09
425.759	7.63
425.964	6.73
426.169	6.68
426.375	6.36
426.58	7.26
426.785	7.09
426.99	6.9
427.195	6.49
427.4	6.67
427.605	5.98
427.811	6.36
428.016	5.9
428.221	6.15
428.426	5.52
428.631	5.79
428.836	5.12
429.041	5.34
429.246	5.15
429.451	5.26
429.656	5.8
429.861	5.89
430.066	5.26
430.271	5.25
430.476	5.4
430.681	5.47
430.886	4.92
431.09	5.31
431.295	5.36
431.5	5.58
431.705	5.84
431.91	5.34
432.115	5.64
432.32	5.69
432.524	5.47
432.729	5.11
432.934	5.32
433.139	6.04
433.343	6.1
433.548	5.55
433.753	5.21
433.958	5.05
434.162	5.17
434.367	5.08
434.572	4.83
434.776	4.63
434.981	4.67
435.186	4.91
435.39	4.61
435.595	4.19
435.799	4.75
436.004	4.51
436.209	5.59
436.413	5.4
436.618	4.77
436.822	5.41
437.027	5.05
437.231	6.07
437.436	5.75
437.64	4.86
437.845	5.14
438.049	5.2
438.253	6.09
438.458	4.96
438.662	5.42
438.867	5.94
439.071	5.51
439.275	5.87
439.48	5.35
439.684	5.51
439.888	6.19
440.093	5.91
440.297	5.69
440.501	5.55
440.706	5.6
440.91	4.91
441.114	4.69
441.318	4.59
441.523	4.44
441.727	4.75
441.931	4.63
442.135	4.84
442.339	4.6
442.543	4.71
442.748	4.87
442.952	4.9
443.156	5.2
443.36	5.45
443.564	5.71
443.768	5.61
443.972	4.77
444.176	5.14
444.38	5.01
444.584	5.27
444.788	5.07
444.992	4.77
445.196	4.76
445.4	5.02
445.604	5.27
445.808	4.97
446.012	5.2
446.216	5.7
446.42	5.12
446.624	5.06
446.828	5
447.032	5.29
447.235	5.39
447.439	5.52
447.643	5.47
447.847	5.15
448.051	5.43
448.254	5.31
448.458	5.46
448.662	5.73
448.866	5.89
449.069	5.5
449.273	5.37
449.477	5.38
449.681	5.51
449.884	4.67
450.088	4.35
450.292	4.58
450.495	4.7
450.699	4.18
450.902	4.51
451.106	4.46
451.31	5.38
451.513	5.1
451.717	5.04
451.92	4.96
452.124	5.69
452.327	6.04
452.531	5.98
452.734	6
452.938	6.3
453.141	5.8
453.345	5.87
453.548	5.54
453.752	5.55
453.955	5.3
454.158	5.67
454.362	4.99
454.565	5.45
454.769	5.23
454.972	4.61
455.175	4.39
455.379	5.14
455.582	4.3
455.785	4.02
455.988	3.66
456.192	3.47
456.395	2.83
456.598	3.86
456.801	3.98
457.005	3.29
457.208	3.77
457.411	3.82
457.614	3.11
457.817	3.79
458.021	4.04
458.224	4.57
458.427	4.8
458.63	4.85
458.833	4.72
459.036	3.73
459.239	4.67
459.442	4.64
459.645	4.9
459.848	5.22
460.051	5.26
460.254	5.55
460.457	5.48
460.66	5.55
460.863	6.15
461.066	6.08
461.269	6.57
461.472	5.81
461.675	6.15
461.878	6.08
462.081	6.41
462.284	5.94
462.486	5.66
462.689	5.52
462.892	5.47
463.095	4.87
463.298	4.13
463.5	3.91
463.703	3.8
463.906	3.62
464.109	3.13
464.311	2.73
464.514	2.96
