Data from JASIL_3235_Reflection_2.txt Node
Date: Mon Nov 16 20:14:43 EST 2015
User: Geneva
Spectrometer: USB4E03002
Autoset integration time: false
Trigger mode: 4
Integration Time (sec): 1.000000E-1
Scans to average: 10
Electric dark correction enabled: false
Nonlinearity correction enabled: false
Boxcar width: 5
Stray light correction enabled: false
XAxis mode: Wavelengths
Stop averaging: false
Number of Pixels in Spectrum: 3648
>>>>>Begin Spectral Data<<<<<
177.575	1625.49
177.794	2859.09
178.014	1721.97
178.233	1557.89
178.452	1096.43
178.672	2098.12
178.891	2642.31
179.11	2197.45
179.33	2420.71
179.549	1590.62
179.768	1666.23
179.987	1110.51
180.207	876.23
180.426	1182.14
180.645	1327.95
180.864	1540.08
181.084	971.96
181.303	1204.32
181.522	1382.73
181.741	1064.36
181.96	891.25
182.179	1067.4
182.398	1419.78
182.618	5432.35
182.837	4635.8
183.056	4130.34
183.275	2342.5
183.494	4914.67
183.713	1982.26
183.932	1153.07
184.151	1749.06
184.37	1970.1
184.589	1843.38
184.808	1861.43
185.027	1139.26
185.246	943.74
185.465	1004.67
185.684	1842.86
185.903	1270.28
186.122	1448.92
186.341	6006.25
186.56	2550
186.779	-4803.9
186.998	-3646.46
187.216	-2173.84
187.435	-9351.22
187.654	-5005.33
187.873	-6666.07
188.092	-10244.44
188.311	-37840
188.53	-3675.51
188.748	5148.65
188.967	-6100
189.186	4569.74
189.405	2019.41
189.623	1609.57
189.842	3196.19
190.061	4992.75
190.28	2068.07
190.498	2680.47
190.717	4772.06
190.936	3305.94
191.154	7560.47
191.373	4051.9
191.592	3771.11
191.81	4639.19
192.029	3727.17
192.248	-8220.51
192.466	-9364.71
192.685	-1306.99
192.904	-1967.97
193.122	-1395.35
193.341	-3543.33
193.559	-2140.91
193.778	-3055.26
193.996	6909.43
194.215	-7793.48
194.433	-1849.48
194.652	-1753.62
194.87	-1774.26
195.089	-3318.02
195.307	-1960
195.526	-2666.67
195.744	-1752.97
195.963	-1378.83
196.181	-1025.84
196.399	-636.68
196.618	-530.21
196.836	-1191.86
197.055	-1222.33
197.273	-65833.33
197.491	-12345.45
197.71	3052.9
197.928	9870
198.146	6222.22
198.365	2541.56
198.583	1434.18
198.801	1056.68
199.019	685.34
199.238	931.33
199.456	854.51
199.674	1199.34
199.892	1040.57
200.111	1110.34
200.329	863.26
200.547	1135.91
200.765	1817.5
200.983	11962.07
201.202	-3293.27
201.42	-2670.63
201.638	-5613.11
201.856	13615.38
202.074	3336.45
202.292	7608.7
202.51	-5968.97
202.728	6365.45
202.946	3232.71
203.165	1743.43
203.383	1675.96
203.601	1313.09
203.819	2380.41
204.037	4809.59
204.255	10182.35
204.473	-5627.42
204.691	-15290.91
204.909	-19158.82
205.127	-2607.5
205.345	7741.86
205.562	2292.57
205.78	1370.87
205.998	1044.2
206.216	854.35
206.434	1009.04
206.652	942.22
206.87	1136.56
207.088	911.43
207.306	1335.71
207.523	2216.39
207.741	7014.04
207.959	25412.5
208.177	-11466.67
208.395	-2481.82
208.612	-3302.46
208.83	3498.26
209.048	3663.48
209.266	410500
209.483	-3979.61
209.701	20855
209.919	3183.33
210.136	1344.41
210.354	931.05
210.572	693.89
210.79	545.05
211.007	536.73
211.225	650.15
211.442	640.42
211.66	486.63
211.878	504.9
212.095	511.18
212.313	516.34
212.53	687.35
212.748	797.09
212.966	1084.37
213.183	1432.72
213.401	1299.15
213.618	1457.69
213.836	1204.57
214.053	1371.6
214.271	840
214.488	785.5
214.705	867.68
214.923	695.47
215.14	1260.15
215.358	878.2
215.575	1188.97
215.793	1082.08
216.01	638.09
216.227	770.94
216.445	755.39
216.662	1018.31
216.879	1128.06
217.097	720.92
217.314	686.02
217.531	575.31
217.749	619.02
217.966	557.99
218.183	657.89
218.4	1454.55
218.618	1080.23
218.835	946.95
219.052	848.5
219.269	909.05
219.487	2361.49
219.704	3400.97
219.921	1764
220.138	1595.02
220.355	880.88
220.572	1532.87
220.79	1002.01
221.007	1131.82
221.224	1206
221.441	2008.65
221.658	1719.37
221.875	1516.87
222.092	2378.71
222.309	60116.67
222.526	3635.35
222.743	8454.76
222.96	1849.46
223.177	649.05
223.394	649.06
223.611	599.14
223.828	577.5
224.045	475.71
224.262	385.06
224.479	367.45
224.696	323.84
224.913	321.53
225.13	331.05
225.347	282.84
225.564	343.32
225.781	290.83
225.997	277.55
226.214	225.04
226.431	202.98
226.648	189.59
226.865	175.09
227.082	160.88
227.298	142.4
227.515	123.79
227.732	111.25
227.949	97.52
228.165	91.97
228.382	87.01
228.599	82.21
228.816	79.6
229.032	79.49
229.249	77.05
229.466	74.68
229.682	82.25
229.899	91.04
230.116	98.64
230.332	107.13
230.549	108.93
230.765	116.85
230.982	125.32
231.199	143.88
231.415	153.44
231.632	157.72
231.848	160.72
232.065	170.47
232.281	166.95
232.498	163.18
232.714	179.34
232.931	185.51
233.147	175.44
233.364	177.88
233.58	170.37
233.797	156.12
234.013	146.3
234.23	146.75
234.446	137.99
234.662	141.65
234.879	146.48
235.095	130.53
235.312	127.16
235.528	136.71
235.744	136.54
235.961	136.88
236.177	149.26
236.393	153.89
236.61	158.67
236.826	155.88
237.042	169.18
237.258	163.83
237.475	181.56
237.691	182.32
237.907	171.61
238.123	165.66
238.339	159.93
238.556	155.89
238.772	154.15
238.988	143.83
239.204	135.6
239.42	117.66
239.636	114.85
239.853	105.29
240.069	98.69
240.285	89.98
240.501	86.55
240.717	83.99
240.933	74.57
241.149	72.59
241.365	69.28
241.581	65.45
241.797	62.79
242.013	60.11
242.229	58.18
242.445	56.34
242.661	57.1
242.877	59.9
243.093	57.71
243.309	61.78
243.525	63.29
243.741	63.89
243.957	67.97
244.173	66.72
244.388	67.39
244.604	66.57
244.82	65.19
245.036	63.7
245.252	55.6
245.468	53.36
245.683	48.83
245.899	43.92
246.115	41.58
246.331	38.35
246.547	37.15
246.762	36.52
246.978	36.31
247.194	36.59
247.409	35.94
247.625	37.56
247.841	37.68
248.057	39.19
248.272	41.92
248.488	44.61
248.703	47.82
248.919	51.63
249.135	53.46
249.35	56.45
249.566	59.08
249.782	64.57
249.997	67.61
250.213	69.13
250.428	68.86
250.644	68.4
250.859	67.48
251.075	66.51
251.29	63.99
251.506	62.76
251.721	59.98
251.937	61.2
252.152	59.42
252.368	57.57
252.583	60.57
252.798	64.61
253.014	67.4
253.229	70.21
253.445	74.07
253.66	81
253.875	85.24
254.091	89.44
254.306	91.12
254.521	97.54
254.737	104.38
254.952	104.13
255.167	103.6
255.383	101.77
255.598	101.69
255.813	97.38
256.028	93.46
256.244	93.77
256.459	89.2
256.674	83.02
256.889	73.8
257.104	64.28
257.32	59.2
257.535	52.95
257.75	49.03
257.965	44.82
258.18	41.4
258.395	36.71
258.61	33.99
258.826	32.85
259.041	30.25
259.256	29.13
259.471	27.8
259.686	27.96
259.901	28.24
260.116	27.78
260.331	28.97
260.546	30.61
260.761	33.06
260.976	34.48
261.191	37.02
261.406	40.25
261.621	41.88
261.836	46.14
262.05	48.83
262.265	51.42
262.48	53.88
262.695	56.63
262.91	56.66
263.125	56.27
263.34	56.34
263.555	55.17
263.769	55.89
263.984	58.37
264.199	59.87
264.414	56.59
264.629	54.27
264.843	55.36
265.058	54.53
265.273	54.31
265.488	54.34
265.702	53.98
265.917	54.29
266.132	52.04
266.346	51.54
266.561	50.39
266.776	50.32
266.99	50.38
267.205	49.05
267.42	47.85
267.634	46.88
267.849	45.37
268.063	43.75
268.278	43.02
268.492	43.38
268.707	42.05
268.922	41.79
269.136	41.48
269.351	40.16
269.565	38.79
269.78	37.29
269.994	37.75
270.209	36.93
270.423	38.2
270.637	35.88
270.852	35.78
271.066	34.68
271.281	35.77
271.495	35.78
271.709	35.97
271.924	36.54
272.138	37.07
272.353	36.32
272.567	38.35
272.781	37.74
272.996	38.59
273.21	39.82
273.424	41.93
273.638	41.86
273.853	42.65
274.067	44.47
274.281	45.94
274.495	47
274.71	48.47
274.924	47.81
275.138	46.71
275.352	50.43
275.566	48.62
275.781	48.64
275.995	47.59
276.209	47.99
276.423	46.27
276.637	46.07
276.851	45.47
277.065	43.67
277.279	43.93
277.493	46.29
277.707	45.24
277.921	45.62
278.135	44.53
278.349	44.1
278.563	42.63
278.777	44.74
278.991	44.76
279.205	44.17
279.419	44.51
279.633	45.6
279.847	43.89
280.061	40.43
280.275	40.54
280.489	40.13
280.703	40.13
280.917	39.6
281.131	37.53
281.344	37.35
281.558	36.97
281.772	37.12
281.986	34.62
282.2	34.28
282.414	35.29
282.627	34
282.841	34.51
283.055	34.44
283.269	34.72
283.482	34.67
283.696	33.73
283.91	33.99
284.123	32.04
284.337	32.1
284.551	31.4
284.764	32.29
284.978	33.27
285.192	31.48
285.405	31.85
285.619	32.42
285.833	32.45
286.046	33.16
286.26	34.07
286.473	34.27
286.687	34.86
286.9	35.24
287.114	34.93
287.327	34.19
287.541	35.34
287.754	35.5
287.968	34.82
288.181	34.75
288.395	33.28
288.608	32.13
288.822	32.43
289.035	32.04
289.248	31.64
289.462	31.91
289.675	32.11
289.889	32.1
290.102	31.96
290.315	32.46
290.529	32.36
290.742	33.14
290.955	33.08
291.169	34.33
291.382	35.29
291.595	37.54
291.808	38.22
292.022	37.62
292.235	37.79
292.448	36.64
292.661	36.44
292.875	37.08
293.088	36.4
293.301	36.59
293.514	35.4
293.727	35.14
293.94	33.35
294.153	32
294.367	33
294.58	32.65
294.793	32.19
295.006	32.02
295.219	30.54
295.432	31.29
295.645	29.78
295.858	30.13
296.071	28.29
296.284	28.04
296.497	27.35
296.71	26.04
296.923	25.62
297.136	25.54
297.349	25.46
297.562	25.73
297.775	25.55
297.988	26.78
298.201	27.09
298.414	28.39
298.626	28.94
298.839	28.87
299.052	29.7
299.265	31.17
299.478	31.37
299.691	32.3
299.903	32.2
300.116	31.99
300.329	32.53
300.542	32.16
300.755	31.93
300.967	33.17
301.18	33.4
301.393	33.26
301.605	32.4
301.818	32.08
302.031	31.22
302.243	31.59
302.456	31.37
302.669	30.95
302.881	31.81
303.094	32.26
303.307	30.85
303.519	31.7
303.732	33.24
303.944	33.13
304.157	34.95
304.37	35.33
304.582	35.36
304.795	34.53
305.007	34.44
305.22	33.24
305.432	33.82
305.645	33.81
305.857	33.58
306.069	33.01
306.282	33.57
306.494	33.59
306.707	33.77
306.919	33.26
307.132	34.37
307.344	34.79
307.556	35.5
307.769	33.84
307.981	34.45
308.193	33.96
308.406	32.63
308.618	32.34
308.83	31.18
309.043	30.16
309.255	31.07
309.467	31.82
309.679	30.77
309.892	29.71
310.104	31.21
310.316	30.6
310.528	30.4
310.74	31.09
310.953	31.92
311.165	32.72
311.377	32.45
311.589	32.91
311.801	31.54
312.013	32.18
312.225	33.33
312.437	32.68
312.649	32.88
312.862	32.67
313.074	33.18
313.286	33.45
313.498	34.14
313.71	36.32
313.922	35.76
314.134	37.75
314.346	37.75
314.558	36.92
314.77	37.47
314.982	38.87
315.193	40.91
315.405	40.98
315.617	40.29
315.829	40.7
316.041	39.81
316.253	40.71
316.465	40.75
316.677	40.97
316.888	43.32
317.1	43.91
317.312	43.18
317.524	43.6
317.736	45.05
317.947	44.84
318.159	45.02
318.371	46.15
318.583	46.85
318.794	47.38
319.006	48.47
319.218	47.45
319.43	46.84
319.641	46.61
319.853	45
320.064	45.04
320.276	46.63
320.488	45.5
320.699	45.43
320.911	44.23
321.123	44.1
321.334	43.34
321.546	43.07
321.757	44.36
321.969	45.81
322.18	44.63
322.392	42.43
322.603	40.25
322.815	39.92
323.026	38.44
323.238	37.77
323.449	36.8
323.661	37.04
323.872	36.52
324.083	35.69
324.295	34.6
324.506	35.74
324.718	35.23
324.929	34.89
325.14	34.14
325.352	34.96
325.563	35.01
325.774	34.83
325.986	34.55
326.197	35.18
326.408	35.37
326.62	34.65
326.831	35.09
327.042	36.41
327.253	37.47
327.464	38.72
327.676	38.84
327.887	39.8
328.098	39.9
328.309	40.14
328.52	39.1
328.732	39.32
328.943	39.91
329.154	40.17
329.365	40.51
329.576	40.74
329.787	41.29
329.998	39.86
330.209	39.37
330.42	38.17
330.631	38.51
330.842	39.22
331.053	38.12
331.264	38.2
331.475	37.96
331.686	37.62
331.897	36.86
332.108	36.61
332.319	37.09
332.53	37.37
332.741	38.15
332.952	38.18
333.163	38.83
333.374	39.28
333.585	38.62
333.795	39.06
334.006	39.25
334.217	40.34
334.428	40.76
334.639	42.02
334.849	40.67
335.06	40.18
335.271	39.34
335.482	38.8
335.692	38.76
335.903	39.4
336.114	39.24
336.325	38.95
336.535	38.61
336.746	38.64
336.957	37.98
337.167	39.69
337.378	39.91
337.589	40.68
337.799	40.41
338.01	40.36
338.22	40.58
338.431	40.76
338.642	40.21
338.852	40.57
339.063	40.79
339.273	40.48
339.484	40.12
339.694	40.96
339.905	41.52
340.115	42.51
340.326	43.23
340.536	43.08
340.746	42.5
340.957	43.19
341.167	42.79
341.378	41.83
341.588	41.98
341.799	42.23
342.009	41.9
342.219	40.48
342.43	39.28
342.64	39.53
342.85	38.89
343.061	37.83
343.271	38.11
343.481	37.41
343.691	37.02
343.902	36.28
344.112	34.09
344.322	32.83
344.532	32.16
344.743	33.18
344.953	32.32
345.163	32.85
345.373	34.47
345.583	33.37
345.793	32.82
346.004	32.62
346.214	32.92
346.424	33.82
346.634	34.78
346.844	36.29
347.054	36.04
347.264	35.88
347.474	35.44
347.684	34.23
347.894	34.11
348.104	34.32
348.314	35.09
348.524	35.29
348.734	35.43
348.944	35.21
349.154	33.69
349.364	33
349.574	32.53
349.784	33.48
349.994	33.79
350.204	34.23
350.413	34.5
350.623	33.72
350.833	33.45
351.043	33.46
351.253	32.13
351.463	32.13
351.672	32.51
351.882	31.85
352.092	31.37
352.302	31.64
352.511	31.14
352.721	30.75
352.931	31.28
353.141	31.07
353.35	31.1
353.56	32.36
353.77	32.14
353.979	33.22
354.189	34.45
354.399	33.49
354.608	32.46
354.818	32.23
355.027	32.98
355.237	32.05
355.447	31.82
355.656	31.31
355.866	30.58
356.075	30.64
356.285	29.51
356.494	28.59
356.704	29.15
356.913	29.17
357.123	28.68
357.332	28.13
357.542	28
357.751	28.05
357.96	28.42
358.17	28.66
358.379	29.45
358.589	29.21
358.798	28.94
359.007	27.74
359.217	27.4
359.426	27.79
359.635	27.02
359.845	26.87
360.054	26.89
360.263	26.55
360.472	26.5
360.682	26.07
360.891	26.01
361.1	25.51
361.309	26.28
361.519	25.29
361.728	24.88
361.937	24.57
362.146	24.75
362.355	24.48
362.564	24.41
362.774	24.5
362.983	24.43
363.192	23.87
363.401	24.85
363.61	24.8
363.819	26.72
364.028	26.5
364.237	27.26
364.446	27.9
364.655	28.11
364.864	28.7
365.073	28.96
365.282	28.26
365.491	28.36
365.7	27.94
365.909	28.56
366.118	28.19
366.327	28.56
366.536	28.42
366.745	28.64
366.954	28.17
367.162	27.99
367.371	27.34
367.58	28.79
367.789	29.31
367.998	30.54
368.207	29.69
368.415	29.86
368.624	30.61
368.833	31.15
369.042	30.26
369.25	30.94
369.459	30.93
369.668	31.79
369.877	31.16
370.085	30.76
370.294	29.8
370.503	30.08
370.711	29.68
370.92	29.09
371.129	28.87
371.337	28.42
371.546	27.44
371.754	27.28
371.963	26.7
372.171	26.99
372.38	26.67
372.589	26.48
372.797	26.3
373.006	26.04
373.214	26.65
373.423	26.61
373.631	27.33
373.84	28.76
374.048	28.84
374.256	28.56
374.465	28.55
374.673	29.35
374.882	29.64
375.09	29.21
375.298	29.3
375.507	28.84
375.715	28.59
375.923	28.08
376.132	27.16
376.34	26.96
376.548	26.92
376.757	27.06
376.965	26.4
377.173	25.82
377.381	26.4
377.59	27.11
377.798	26.47
378.006	26.35
378.214	26.78
378.423	27.35
378.631	27.4
378.839	28.04
379.047	27.76
379.255	28.01
379.463	28.47
379.671	28.6
379.879	27.18
380.088	28.42
380.296	28.6
380.504	28.26
380.712	27.91
380.92	27.57
381.128	26.98
381.336	26.1
381.544	25.75
381.752	25.91
381.96	26.09
382.168	26.82
382.376	27.14
382.584	27.82
382.791	27.89
382.999	27.95
383.207	28.19
383.415	28.38
383.623	29.51
383.831	29.85
384.039	29.51
384.247	28.71
384.454	29.37
384.662	28.84
384.87	28.45
385.078	27.97
385.285	27.72
385.493	27.63
385.701	26.9
385.909	26.3
386.116	25.96
386.324	25.76
386.532	25.61
386.739	24.63
386.947	24.72
387.155	24.96
387.362	25.69
387.57	26.48
387.778	26.92
387.985	27.61
388.193	28.09
388.4	27.98
388.608	28.79
388.816	29.03
389.023	30.02
389.231	29.5
389.438	29.17
389.646	28.48
389.853	27.28
390.061	27.31
390.268	26.54
390.475	24.98
390.683	25.61
390.89	24.71
391.098	24.38
391.305	23.45
391.512	23.37
391.72	23.41
391.927	23.69
392.135	23.8
392.342	22.97
392.549	23.49
392.756	24.15
392.964	24.27
393.171	24.84
393.378	24.75
393.586	24.9
393.793	24.8
394	24.2
394.207	24.44
394.414	24.63
394.622	24.93
394.829	24.49
395.036	24.83
395.243	24.45
395.45	24.56
395.657	25.47
395.864	25.81
396.072	25.69
396.279	26.24
396.486	25.82
396.693	26.36
396.9	26.21
397.107	26.51
397.314	26.48
397.521	27.12
397.728	26.6
397.935	26.25
398.142	26
398.349	26.78
398.556	26.6
398.763	27.08
398.97	26.42
399.177	26.78
399.383	26.6
399.59	25.99
399.797	25.19
400.004	25.17
400.211	25.14
400.418	25.12
400.625	25.37
400.831	25.27
401.038	25.26
401.245	25.3
401.452	25.48
401.658	25.77
401.865	26.26
402.072	26.71
402.279	26.47
402.485	26.15
402.692	25.65
402.899	25.08
403.105	24.87
403.312	24.63
403.519	24.29
403.725	23.47
403.932	23.52
404.138	23.38
404.345	23.15
404.552	23.54
404.758	23.5
404.965	24.49
405.171	24.41
405.378	24.57
405.584	24.44
405.791	25
405.997	25.66
406.204	26.14
406.41	26.58
406.617	26.16
406.823	25.91
407.029	25.95
407.236	25.46
407.442	25.87
407.649	26.25
407.855	25.91
408.061	26
408.268	25.73
408.474	25.09
408.68	24.94
408.887	25.32
409.093	25.05
409.299	25.41
409.505	24.69
409.712	24.59
409.918	23.85
410.124	24.43
410.33	24.1
410.537	24.87
410.743	25.17
410.949	25.21
411.155	25.65
411.361	25.6
411.567	25.62
411.773	26.49
411.98	26.69
412.186	27.4
412.392	27.11
412.598	27.54
412.804	26.52
413.01	26.27
413.216	26.14
413.422	25.77
413.628	26.14
413.834	26.27
414.04	26.41
414.246	25.87
414.452	25.56
414.658	25.5
414.864	25.41
415.07	25.41
415.275	25.84
415.481	25.51
415.687	25.55
415.893	25.38
416.099	24.44
416.305	23.41
416.511	23.06
416.716	22.45
416.922	22.22
417.128	21.96
417.334	22.15
417.539	21.36
417.745	21.17
417.951	20.62
418.157	20.57
418.362	20.47
418.568	20.73
418.774	20.71
418.979	20.86
419.185	20.68
419.391	20.17
419.596	19.86
419.802	19.87
420.008	19.93
420.213	22
420.419	21.86
420.624	21.92
420.83	21.62
421.035	21.25
421.241	21.24
421.446	20.95
421.652	21.02
421.857	21.06
422.063	21.05
422.268	20.97
422.474	19.12
422.679	19.08
422.885	19.2
423.09	19.38
423.295	19.61
423.501	19.55
423.706	19.97
423.911	20.17
424.117	20.21
424.322	20.34
424.527	20.33
424.733	19.96
424.938	20.12
425.143	20.02
425.349	19.98
425.554	20.28
425.759	20.61
425.964	20.71
426.169	20.84
426.375	20.87
426.58	21.22
426.785	21.48
426.99	22.22
427.195	22.43
427.4	23.02
427.605	23.39
427.811	23.26
428.016	23.09
428.221	23.54
428.426	23.69
428.631	24.25
428.836	23.97
429.041	24.02
429.246	23.92
429.451	23.95
429.656	23.86
429.861	23.77
430.066	24.25
430.271	24.37
430.476	24.21
430.681	24.04
430.886	23.48
431.09	23.95
431.295	23.83
431.5	24.06
431.705	23.95
431.91	23.95
432.115	24.09
432.32	23.95
432.524	23.58
432.729	23.08
432.934	23.06
433.139	23.58
433.343	22.95
433.548	22.97
433.753	22.7
433.958	22.6
434.162	22.62
434.367	22.9
434.572	22.77
434.776	23.21
434.981	23.44
435.186	23.56
435.39	23.03
435.595	23.4
435.799	23.18
436.004	23.22
436.209	23.35
436.413	23.06
436.618	22.73
436.822	22.9
437.027	22.64
437.231	22.79
437.436	22.54
437.64	22.49
437.845	22.45
438.049	22.52
438.253	22.21
438.458	21.81
438.662	21.91
438.867	21.65
439.071	21.53
439.275	21.22
439.48	21.06
439.684	20.92
439.888	21.08
440.093	20.65
440.297	20.72
440.501	21.12
440.706	21.44
440.91	21.31
441.114	21.11
441.318	21.01
441.523	21.42
441.727	21.4
441.931	21.83
442.135	21.88
442.339	22.21
442.543	21.91
442.748	21.89
442.952	21.64
443.156	21.73
443.36	21.95
443.564	22.2
443.768	21.88
443.972	21.93
444.176	21.54
444.38	21.56
444.584	21.38
444.788	21.78
444.992	21.25
445.196	21.38
445.4	21.16
445.604	21.1
445.808	20.93
446.012	20.85
446.216	20.78
446.42	20.94
446.624	20.51
446.828	20.46
447.032	20.31
447.235	20.54
447.439	20.22
447.643	20.29
447.847	20.62
448.051	20.75
448.254	21.2
448.458	21.64
448.662	22.01
448.866	22.13
449.069	22.51
449.273	22.63
449.477	22.77
449.681	23.21
449.884	23.37
450.088	23.22
450.292	23.21
