Data from JASIL_3017_Reflection_01.txt Node
Date: Mon Nov 09 10:40:40 EST 2015
User: Geneva
Spectrometer: USB4E03002
Autoset integration time: false
Trigger mode: 4
Integration Time (sec): 1.000000E-1
Scans to average: 10
Electric dark correction enabled: false
Nonlinearity correction enabled: false
Boxcar width: 5
Stray light correction enabled: false
XAxis mode: Wavelengths
Stop averaging: false
Number of Pixels in Spectrum: 3648
>>>>>Begin Spectral Data<<<<<
177.575	50.14
177.794	57.99
178.014	50.81
178.233	55.13
178.452	46.86
178.672	12.28
178.891	-200
179.11	524.39
179.33	3200
179.549	296.15
179.768	179.52
179.987	608.33
180.207	-655
180.426	-517.91
180.645	-91.7
180.864	-43.65
181.084	-36.84
181.303	-32.64
181.522	-34.53
181.741	-34.63
181.96	-35.74
182.179	58.51
182.398	34.88
182.618	-23.95
182.837	-40.78
183.056	-306.32
183.275	311.85
183.494	-335.56
183.713	-905
183.932	-395.74
184.151	-821.21
184.37	-112.04
184.589	-2444.44
184.808	226.77
185.027	79.55
185.246	91.17
185.465	37.25
185.684	32.95
185.903	6.04
186.122	4.6
186.341	-34.2
186.56	-82.2
186.779	-681.63
186.998	432.97
187.216	222.4
187.435	142.71
187.654	116.96
187.873	94.27
188.092	112.09
188.311	46.87
188.53	54.87
188.748	54.39
188.967	42.18
189.186	73.12
189.405	59.55
189.623	4.67
189.842	-241.27
190.061	4560
190.28	386.17
190.498	404.76
190.717	185.24
190.936	225.86
191.154	186.73
191.373	181.41
191.592	289.51
191.81	129.26
192.029	20.11
192.248	42.42
192.466	94.25
192.685	82.27
192.904	47.83
193.122	-176.81
193.341	4240
193.559	-1866.67
193.778	-301.14
193.996	-351.79
194.215	-277.66
194.433	-284.4
194.652	-106.96
194.87	48.91
195.089	87.16
195.307	84.67
195.526	133.95
195.744	196.1
195.963	359.56
196.181	-1178.72
196.399	-363.86
196.618	-417.52
196.836	-205.02
197.055	-194.39
197.273	-168.93
197.491	-110
197.71	-129.06
197.928	-61.59
198.146	-37.14
198.365	-69.01
198.583	-2944.44
198.801	105.75
199.019	87.64
199.238	90.97
199.456	149.39
199.674	151.72
199.892	281.48
200.111	295
200.329	310.71
200.547	-966.67
200.765	-70.13
200.983	189.4
201.202	135.12
201.42	126.79
201.638	127.35
201.856	375.56
202.074	344.44
202.292	587.3
202.51	609.72
202.728	7650
202.946	-125.76
203.165	852.63
203.383	142.31
203.601	68.18
203.819	-24.42
204.037	63.75
204.255	0.5
204.473	106.02
204.691	-38.24
204.909	119.05
205.127	-272.73
205.345	-25.49
205.562	62.96
205.78	310
205.998	246.38
206.216	224.53
206.434	114.61
206.652	-1642.86
206.87	649.15
207.088	211.52
207.306	250.96
207.523	204.55
207.741	276.92
207.959	150.45
208.177	110.26
208.395	250.9
208.612	200
208.83	170.64
209.048	131.88
209.266	119.12
209.483	65.57
209.701	-413.79
209.919	15000
210.136	772.73
210.354	4108.33
210.572	-1191.49
210.79	-1188.89
211.007	429.2
211.225	412.28
211.442	1484.21
211.66	-359.02
211.878	-672.37
212.095	-494.34
212.313	-7666.67
212.53	-86.07
212.748	11.85
212.966	-46.34
213.183	-3900
213.401	-0.44
213.618	69.58
213.836	41.04
214.053	7.51
214.271	89.26
214.488	29.13
214.705	66.4
214.923	83.59
215.14	60.63
215.358	124.58
215.575	163.48
215.793	590.91
216.01	1275
216.227	666.67
216.445	-133.18
216.662	-155.1
216.879	-28.68
217.097	11.74
217.314	25
217.531	-143.1
217.749	30.23
217.966	-11.54
218.183	6.68
218.4	-1.11
218.618	-4.7
218.835	16.21
219.052	34.44
219.269	17.32
219.487	26.24
219.704	25.97
219.921	12.07
220.138	11.11
220.355	15.74
220.572	-300
220.79	92.59
221.007	59.56
221.224	236.46
221.441	187.25
221.658	-132.23
221.875	-86.19
222.092	-33.58
222.309	-34.83
222.526	-59.69
222.743	-51.82
222.96	-54.23
223.177	-18.22
223.394	-1.38
223.611	15.02
223.828	26.56
224.045	51.26
224.262	47.58
224.479	31
224.696	32.39
224.913	25.27
225.13	27.15
225.347	33.04
225.564	27.29
225.781	14.27
225.997	15.91
226.214	11.91
226.431	13.66
226.648	11.9
226.865	20.99
227.082	19.79
227.298	22.46
227.515	24
227.732	24.35
227.949	23.51
228.165	24.41
228.382	22.43
228.599	18.27
228.816	14.64
229.032	14.95
229.249	1.14
229.466	8.98
229.682	2.99
229.899	3.56
230.116	0.4
230.332	-2.24
230.549	-7.28
230.765	-14.5
230.982	-7.05
231.199	-5.55
231.415	-4.33
231.632	4.46
231.848	-6.24
232.065	5.91
232.281	-8.68
232.498	-7.74
232.714	1.17
232.931	8.43
233.147	5.39
233.364	2.24
233.58	-11.34
233.797	-17.11
234.013	-8.62
234.23	-3.85
234.446	-6.8
234.662	4.21
234.879	7.24
235.095	4.27
235.312	-0.36
235.528	0.36
235.744	6.04
235.961	11.08
236.177	15.05
236.393	2.68
236.61	-11.03
236.826	-6.64
237.042	-14.93
237.258	-8.59
237.475	-10.95
237.691	-9.1
237.907	4.05
238.123	-3.88
238.339	6.52
238.556	7.24
238.772	9.58
238.988	8.72
239.204	5.13
239.42	7.96
239.636	2.67
239.853	3.53
240.069	1.01
240.285	-6.11
240.501	-5.37
240.717	-4.11
240.933	-1.54
241.149	4.66
241.365	5.08
241.581	4.51
241.797	4.8
242.013	7.04
242.229	8.55
242.445	10.06
242.661	14.08
242.877	16.69
243.093	15.66
243.309	15.3
243.525	7.44
243.741	14.31
243.957	15.48
244.173	14
244.388	13.24
244.604	12.41
244.82	11.76
245.036	10
245.252	9.96
245.468	9.8
245.683	9.2
245.899	9.7
246.115	7.49
246.331	6.61
246.547	6.63
246.762	4.21
246.978	2.01
247.194	2.1
247.409	2.85
247.625	2.73
247.841	2.09
248.057	2.25
248.272	1.25
248.488	1.94
248.703	3.07
248.919	2.62
249.135	8.17
249.35	11.81
249.566	12.61
249.782	5.42
249.997	0.84
250.213	4.14
250.428	6.14
250.644	9.15
250.859	8.68
251.075	11.01
251.29	9.93
251.506	9.25
251.721	10.97
251.937	11.66
252.152	15.75
252.368	19.28
252.583	20.13
252.798	21.08
253.014	19.25
253.229	27.26
253.445	21.06
253.66	25.29
253.875	24.64
254.091	15.71
254.306	13.89
254.521	15.58
254.737	11.07
254.952	9.9
255.167	10.08
255.383	9.1
255.598	-1.16
255.813	2.32
256.028	-0.19
256.244	3.63
256.459	9.42
256.674	11.02
256.889	7.85
257.104	12.64
257.32	12.02
257.535	7.91
257.75	7.7
257.965	8.92
258.18	9.59
258.395	8.88
258.61	7.67
258.826	7.68
259.041	6.36
259.256	6.99
259.471	5.54
259.686	3.72
259.901	5.24
260.116	4.21
260.331	2.56
260.546	2.18
260.761	3.39
260.976	4.51
261.191	1.5
261.406	0.44
261.621	2.48
261.836	3.99
262.05	5
262.265	1.68
262.48	4.07
262.695	6.92
262.91	7.14
263.125	4.53
263.34	1.41
263.555	1.83
263.769	2.75
263.984	2.64
264.199	2
264.414	0.35
264.629	1.41
264.843	-2.15
265.058	-4.16
265.273	-4.32
265.488	1.13
265.702	0.14
265.917	1.18
266.132	6.65
266.346	6.61
266.561	6.41
266.776	6.46
266.99	4.79
267.205	10.05
267.42	9.82
267.634	11.92
267.849	10.09
268.063	12.51
268.278	12.7
268.492	7.31
268.707	4.42
268.922	6.74
269.136	8.92
269.351	8.74
269.565	5.41
269.78	4.12
269.994	1.63
270.209	-1.13
270.423	-3.72
270.637	-3.24
270.852	-0.24
271.066	0.91
271.281	-0.86
271.495	-1.43
271.709	-0.2
271.924	0.47
272.138	0.91
272.353	-1.14
272.567	-0.08
272.781	3.36
272.996	0.89
273.21	-3.01
273.424	-3.15
273.638	-2.77
273.853	-3.17
274.067	-2.11
274.281	-4.07
274.495	-1.57
274.71	-0.8
274.924	0.85
275.138	0.98
275.352	-0.75
275.566	-0.73
275.781	-2.34
275.995	-1.62
276.209	-3.04
276.423	-2.91
276.637	-2.81
276.851	-3.78
277.065	-2.06
277.279	-1.57
277.493	-2.45
277.707	0.48
277.921	2.69
278.135	3.99
278.349	3.47
278.563	2.71
278.777	2.28
278.991	5.78
279.205	7.92
279.419	7.1
279.633	6.48
279.847	5.07
280.061	2.85
280.275	0.68
280.489	0.77
280.703	-1.88
280.917	-2.07
281.131	-1.51
281.344	-3.5
281.558	-4.22
281.772	-2.85
281.986	-3.21
282.2	-3.27
282.414	0.46
282.627	2.59
282.841	2.11
283.055	4.87
283.269	4.83
283.482	4.1
283.696	3.64
283.91	2.68
284.123	0.61
284.337	0.22
284.551	0.53
284.764	-0.5
284.978	0.65
285.192	3.42
285.405	2.5
285.619	2.79
285.833	2.6
286.046	1.07
286.26	0.39
286.473	2.09
286.687	3.2
286.9	4.35
287.114	2.45
287.327	0.28
287.541	-2.13
287.754	-1.84
287.968	2.36
288.181	1.91
288.395	4.23
288.608	5.55
288.822	4.56
289.035	4.31
289.248	2.93
289.462	5.05
289.675	3.51
289.889	1.66
290.102	2.95
290.315	0.96
290.529	1.41
290.742	2.68
290.955	0.03
291.169	0.68
291.382	0.43
291.595	2.87
291.808	1.58
292.022	2.63
292.235	2.87
292.448	0.23
292.661	1.07
292.875	1.53
293.088	-1.35
293.301	0.93
293.514	0.74
293.727	2.11
293.94	0.41
294.153	1.46
294.367	2.35
294.58	1.89
294.793	4.62
295.006	4.28
295.219	3.22
295.432	3.66
295.645	2.95
295.858	4.49
296.071	2.96
296.284	2.37
296.497	2.68
296.71	2.58
296.923	3.9
297.136	0.73
297.349	0.4
297.562	-0.86
297.775	-1.42
297.988	-0.34
298.201	-2.82
298.414	-3.58
298.626	-1.68
298.839	-3.81
299.052	-2.2
299.265	-2.33
299.478	-1.17
299.691	-1.94
299.903	-0.38
300.116	-0.15
300.329	-0.63
300.542	2.16
300.755	3.27
300.967	2.56
301.18	3.58
301.393	2.09
301.605	1.56
301.818	0.91
302.031	0.98
302.243	1.39
302.456	2.28
302.669	1.43
302.881	0.02
303.094	-0.84
303.307	-0.76
303.519	-2.38
303.732	-2.98
303.944	-5.63
304.157	-4.12
304.37	-4.81
304.582	-6.25
304.795	-5.77
305.007	-2.77
305.22	-2.55
305.432	-1.72
305.645	-0.92
305.857	-0.57
306.069	-0.85
306.282	1.29
306.494	1.31
306.707	1.65
306.919	3.56
307.132	2.6
307.344	0.93
307.556	1.5
307.769	1.31
307.981	0.78
308.193	4.22
308.406	4.15
308.618	4.04
308.83	3.7
309.043	5.16
309.255	6.69
309.467	6.87
309.679	8.19
309.892	5.85
310.104	4.9
310.316	5.64
310.528	3.98
310.74	3.99
310.953	5.26
311.165	4.37
311.377	2.81
311.589	1.15
311.801	3.17
312.013	3.3
312.225	6.09
312.437	6.66
312.649	3.49
312.862	3.33
313.074	2.24
313.286	5.09
313.498	6.83
313.71	9.69
313.922	11.51
314.134	8.35
314.346	6.35
314.558	5.63
314.77	6.1
314.982	5.82
315.193	7.03
315.405	8.4
315.617	3.12
315.829	4.71
316.041	3.68
316.253	2.05
316.465	3.33
316.677	4.2
316.888	3.41
317.1	4.46
317.312	5.93
317.524	4.71
317.736	7.19
317.947	8.09
318.159	8.95
318.371	9.68
318.583	11.76
318.794	11.4
319.006	8.48
319.218	9.35
319.43	10.37
319.641	10.9
319.853	10.72
320.064	8.37
320.276	9.97
320.488	8.73
320.699	9.2
320.911	6.89
321.123	11.28
321.334	11.27
321.546	12
321.757	12.42
321.969	14.7
322.18	14.33
322.392	14.55
322.603	14.18
322.815	13.13
323.026	10.72
323.238	12.72
323.449	9.59
323.661	12.22
323.872	11.84
324.083	11.7
324.295	11.43
324.506	13.08
324.718	13.06
324.929	10.54
325.14	9.73
325.352	10.88
325.563	9.05
325.774	8.78
325.986	7.62
326.197	5.85
326.408	4.88
326.62	4.89
326.831	4.47
327.042	4.66
327.253	7.67
327.464	9.27
327.676	8.78
327.887	10.24
328.098	10.73
328.309	9.55
328.52	12.02
328.732	11.73
328.943	10.99
329.154	9.58
329.365	7.5
329.576	5.15
329.787	6.16
329.998	5.43
330.209	4.43
330.42	3.78
330.631	8.92
330.842	7.7
331.053	10.13
331.264	11.09
331.475	12.29
331.686	14.17
331.897	17.48
332.108	16.74
332.319	18.3
332.53	17.55
332.741	19.02
332.952	16.81
333.163	16.85
333.374	15.08
333.585	15.36
333.795	13.76
334.006	14.49
334.217	12.5
334.428	11.69
334.639	9.06
334.849	10.27
335.06	6.83
335.271	11
335.482	10.66
335.692	10.98
335.903	10.69
336.114	11.99
336.325	13.64
336.535	14.09
336.746	13.53
336.957	14.57
337.167	12.78
337.378	15.1
337.589	10.29
337.799	10.13
338.01	9.22
338.22	9.82
338.431	9.82
338.642	7.12
338.852	5.24
339.063	5.5
339.273	5.9
339.484	6.26
339.694	6.02
339.905	9.19
340.115	9.64
340.326	10.85
340.536	9.24
340.746	7.19
340.957	5.89
341.167	8.52
341.378	7.99
341.588	8.41
341.799	8.09
342.009	6.47
342.219	2.27
342.43	3.65
342.64	2.42
342.85	4.59
343.061	5.24
343.271	6.38
343.481	3.74
343.691	1.61
343.902	1.66
344.112	3.12
344.322	3.8
344.532	6.46
344.743	5.11
344.953	4.19
345.163	3.99
345.373	4.81
345.583	4.26
345.793	5.18
346.004	7.68
346.214	7.87
346.424	4.83
346.634	5.77
346.844	4.7
347.054	6.19
347.264	5.72
347.474	4.48
347.684	2.87
347.894	2.99
348.104	4.85
348.314	4.23
348.524	5.68
348.734	8.17
348.944	6.52
349.154	8.29
349.364	7.45
349.574	10.15
349.784	7.69
349.994	6.45
350.204	6.54
350.413	5.43
350.623	4.62
350.833	1.49
351.043	0.8
351.253	2.08
351.463	-2.08
351.672	-3.03
351.882	-2.17
352.092	1.49
352.302	5.18
352.511	6.12
352.721	6.64
352.931	6.79
353.141	6.91
353.35	7.02
353.56	10.06
353.77	12.43
353.979	12.19
354.189	11.32
354.399	10.93
354.608	12.03
354.818	11.51
355.027	10.52
355.237	11.24
355.447	13.18
355.656	14.34
355.866	11.72
356.075	11.88
356.285	11.46
356.494	11.98
356.704	11.51
356.913	10.29
357.123	11.73
357.332	11.24
357.542	11.15
357.751	10.14
357.96	10.34
358.17	9.84
358.379	9.11
358.589	10.57
358.798	8.95
359.007	9.28
359.217	9.91
359.426	9.35
359.635	9.77
359.845	10.32
360.054	10.04
360.263	8.71
360.472	8.98
360.682	8.8
360.891	7.65
361.1	8.81
361.309	7.99
361.519	6.12
361.728	5.58
361.937	5.89
362.146	5.08
362.355	6.17
362.564	7.61
362.774	9.36
362.983	10.39
363.192	11.26
363.401	9.74
363.61	11.62
363.819	13.21
364.028	12.64
364.237	12.68
364.446	13.44
364.655	12.36
364.864	13.98
365.073	11.92
365.282	9.72
365.491	11.55
365.7	13.88
365.909	13.74
366.118	14.83
366.327	15.35
366.536	16.36
366.745	16.25
366.954	17.23
367.162	14.14
367.371	14.94
367.58	15.88
367.789	14.73
367.998	12.57
368.207	12.68
368.415	10.6
368.624	10.74
368.833	9.22
369.042	8.89
369.25	8.61
369.459	10.45
369.668	9.3
369.877	8.76
370.085	7.79
370.294	9.19
370.503	7.61
370.711	7.51
370.92	6.86
371.129	6.54
371.337	6.94
371.546	7.18
371.754	6.52
371.963	7.86
372.171	8.94
372.38	9.83
372.589	9.47
372.797	9.36
373.006	8.9
373.214	9.07
373.423	10.26
373.631	11.31
373.84	10.47
374.048	9.89
374.256	9.03
374.465	8.86
374.673	7.17
374.882	7.31
375.09	9
375.298	9.14
375.507	10.66
375.715	10.62
375.923	8.44
376.132	9.98
376.34	10.25
376.548	10.21
376.757	10.19
376.965	11.4
377.173	10.54
377.381	10.54
377.59	11.03
377.798	9.37
378.006	7.83
378.214	8.89
378.423	8.37
378.631	8.38
378.839	8.93
379.047	8.99
379.255	8.82
379.463	7.78
379.671	6.19
379.879	6.32
380.088	6.21
380.296	7.37
380.504	7.36
380.712	7.9
380.92	8.22
381.128	7.89
381.336	7.84
381.544	7.63
381.752	9.33
381.96	9.17
382.168	8.79
382.376	10.52
382.584	9.75
382.791	10.32
382.999	8.18
383.207	8.31
383.415	9.37
383.623	8.85
383.831	8.19
384.039	8.67
384.247	10.4
384.454	8.48
384.662	7.85
384.87	8.14
385.078	8.06
385.285	8.92
385.493	7.73
385.701	7.84
385.909	7.92
386.116	7.42
386.324	6.26
386.532	4.83
386.739	7.34
386.947	8.12
387.155	8.14
387.362	7.26
387.57	7.93
387.778	7.78
387.985	5.3
388.193	4.63
388.4	6.22
388.608	6.7
388.816	6.86
389.023	6.53
389.231	6.4
389.438	5.59
389.646	4.85
389.853	3.95
390.061	4.73
390.268	7.62
390.475	8.51
390.683	8.52
390.89	7.47
391.098	6.88
391.305	7.27
391.512	6.24
391.72	5.91
391.927	6.52
392.135	6.97
392.342	8.03
392.549	5.46
392.756	5.06
392.964	6.23
393.171	7.39
393.378	8.6
393.586	9.21
393.793	9.12
394	11.1
394.207	12.03
394.414	12.32
394.622	10.93
394.829	10.53
395.036	11.08
395.243	8.95
395.45	8.93
395.657	9.15
395.864	7.61
396.072	7.72
396.279	6.84
396.486	6.25
396.693	6.23
396.9	6
397.107	6.96
397.314	6.4
397.521	6.31
397.728	5.27
397.935	4.56
398.142	4.65
398.349	4.3
398.556	3.15
398.763	2.52
398.97	1.35
399.177	1.12
399.383	2.26
399.59	1.63
399.797	2.96
400.004	4.08
400.211	4.82
400.418	5.03
400.625	5.3
400.831	6.71
401.038	7.38
401.245	8.99
401.452	10.65
401.658	10.16
401.865	11.19
402.072	10.88
402.279	11.21
402.485	10.22
402.692	10.97
402.899	11.8
403.105	11.21
403.312	11.78
403.519	11.86
403.725	12.07
403.932	12.38
404.138	12.72
404.345	12.67
404.552	12.41
404.758	12.81
404.965	12.49
405.171	11.61
405.378	12.3
405.584	11.78
405.791	10.89
405.997	10.2
406.204	10.06
406.41	9.7
406.617	9.9
406.823	9.77
407.029	10.72
407.236	11.27
407.442	11.39
407.649	11.5
407.855	11.39
408.061	10.91
408.268	10.7
408.474	9.73
408.68	9.61
408.887	9.38
409.093	9.55
409.299	8.12
409.505	6.95
409.712	7.47
409.918	6.45
410.124	7.36
410.33	6.81
410.537	6.43
410.743	6.73
410.949	6.19
411.155	6.34
411.361	5.32
411.567	5.3
411.773	6.29
411.98	6.01
412.186	7.04
412.392	6.2
412.598	6.27
412.804	6.58
413.01	7.66
413.216	7.78
413.422	7.77
413.628	7.94
413.834	7.45
414.04	6.98
414.246	6.57
414.452	5.67
414.658	5.48
414.864	6.03
415.07	5.38
415.275	4.36
415.481	3.79
415.687	3.96
415.893	4.48
416.099	4.6
416.305	4.86
416.511	4.96
416.716	5.17
416.922	4.45
417.128	4.48
417.334	4.83
417.539	4.77
417.745	5.6
417.951	5.61
418.157	5.77
418.362	6.23
418.568	5.85
418.774	5.81
418.979	5.29
419.185	6.19
419.391	5.7
419.596	5.8
419.802	6
420.008	5.54
420.213	0.86
420.419	0.66
420.624	0.27
420.83	0.4
421.035	0.19
421.241	0.94
421.446	1.15
421.652	2
421.857	1.62
422.063	1.59
422.268	1.75
422.474	5.57
422.679	5.48
422.885	5.8
423.09	5.64
423.295	5.77
423.501	6.09
423.706	6.05
423.911	5.76
424.117	5.61
424.322	5.75
424.527	6.04
424.733	6.77
424.938	7.1
425.143	7.05
425.349	7.09
425.554	6.63
425.759	6.54
425.964	6.27
426.169	6.28
426.375	6.54
426.58	6.57
426.785	6.15
426.99	6.15
427.195	5.65
427.4	5.42
427.605	5.59
427.811	6.89
428.016	5.44
428.221	5.07
428.426	4.58
428.631	4.93
428.836	5.35
429.041	5.82
429.246	5.8
429.451	6.52
429.656	6.25
429.861	6.21
430.066	5.56
430.271	6.29
430.476	6.56
430.681	7.52
430.886	7.61
431.09	7.06
431.295	6.61
431.5	6.72
431.705	6.18
431.91	6.79
432.115	6.94
432.32	6.49
432.524	6.81
432.729	6.56
432.934	5.85
433.139	5.7
433.343	5.61
433.548	5.83
433.753	5.4
433.958	5.38
434.162	4.9
434.367	4.91
434.572	5.09
434.776	4.89
434.981	4.56
435.186	4.6
435.39	4.49
435.595	4.79
435.799	4.42
436.004	4.66
436.209	4.83
436.413	5.47
436.618	5.16
436.822	5.76
437.027	5.79
437.231	6.11
437.436	5.63
437.64	5.54
437.845	5.26
438.049	5.3
438.253	5.26
438.458	5.17
438.662	4.52
438.867	4.21
439.071	4.49
439.275	4.51
439.48	4.35
439.684	5.02
439.888	5.21
440.093	5.11
440.297	4.63
440.501	4.51
440.706	4.33
440.91	4.52
441.114	4.65
441.318	4.44
441.523	4.03
441.727	4.18
441.931	4.44
442.135	4.2
442.339	4.32
442.543	4.86
442.748	5.24
442.952	5.26
443.156	5.55
443.36	5.91
443.564	5.4
443.768	6.04
443.972	6.44
444.176	5.29
444.38	5.9
444.584	6.53
444.788	7.1
444.992	7.27
445.196	7.44
445.4	6.96
445.604	6.57
445.808	6.63
446.012	6.22
446.216	5.53
446.42	6
446.624	5.34
446.828	4.52
447.032	4.28
447.235	3.9
447.439	4.02
447.643	4.51
447.847	4.81
448.051	5.23
448.254	4.99
448.458	5.09
448.662	6.03
448.866	6.39
449.069	6.44
449.273	6
449.477	5.86
449.681	5.82
449.884	6.29
450.088	6.27
450.292	6.6
450.495	7.19
450.699	7.54
450.902	6.79
451.106	6.42
451.31	6.81
451.513	7.03
451.717	7.42
451.92	7.05
452.124	6.21
452.327	6.03
452.531	5.28
452.734	5.24
452.938	4.91
453.141	4.69
453.345	4.81
453.548	4.95
453.752	4.81
453.955	4.64
454.158	4.62
454.362	4.99
454.565	5.32
454.769	5.41
454.972	5.41
455.175	5.2
455.379	4.97
455.582	5.33
455.785	5.08
455.988	5.04
456.192	5.44
456.395	6.28
456.598	6.65
456.801	6.09
457.005	6.66
457.208	6.37
457.411	6.87
457.614	7.23
457.817	7.12
458.021	7.14
458.224	6.68
458.427	6.73
458.63	6.36
458.833	6.02
459.036	6.44
459.239	5.87
459.442	5.86
459.645	5.69
459.848	5.75
460.051	5.75
460.254	5.36
460.457	5.79
460.66	5.16
460.863	4.73
461.066	4.43
461.269	4.14
461.472	3.96
461.675	3.93
461.878	3.25
462.081	3.23
462.284	2.79
462.486	2.96
462.689	2.81
462.892	3.72
463.095	4.37
463.298	4.52
463.5	5
463.703	5.25
463.906	5.41
464.109	5.96
464.311	5.4
464.514	5.4
464.717	5.55
464.92	5.79
465.122	5.03
465.325	5.19
465.528	5.21
465.73	4.79
465.933	5.59
