Data from JASIL_3101_Relative_2.txt Node
Date: Thu Nov 12 19:28:46 EST 2015
User: Geneva
Spectrometer: USB4E03002
Autoset integration time: false
Trigger mode: 4
Integration Time (sec): 1.000000E-1
Scans to average: 10
Electric dark correction enabled: true
Nonlinearity correction enabled: false
Boxcar width: 5
Stray light correction enabled: false
XAxis mode: Wavelengths
Stop averaging: false
Number of Pixels in Spectrum: 3648
>>>>>Begin Spectral Data<<<<<
177.575	42.56
177.794	-100.48
178.014	-66.05
178.233	17.1
178.452	-15.23
178.672	-29.71
178.891	233.1
179.11	57.98
179.33	877.98
179.549	-56.43
179.768	-129.04
179.987	549.47
180.207	-55.81
180.426	352.84
180.645	-1105.56
180.864	99.08
181.084	97.79
181.303	69.62
181.522	10.35
181.741	4.86
181.96	-4.67
182.179	-399.33
182.398	183.21
182.618	460.74
182.837	2.06
183.056	151.66
183.275	24.99
183.494	-58.76
183.713	-19.76
183.932	-193.93
184.151	-133.1
184.37	-419.05
184.589	-102.94
184.808	6.69
185.027	-464.73
185.246	-119.81
185.465	-83.74
185.684	-30.36
185.903	-22.08
186.122	-0.91
186.341	165.66
186.56	173.51
186.779	-97.33
186.998	-29.33
187.216	97.01
187.435	60.34
187.654	69.93
187.873	63.17
188.092	60.52
188.311	40.12
188.53	54.43
188.748	83.8
188.967	109.72
189.186	174.3
189.405	198.27
189.623	114.69
189.842	-209.02
190.061	-1850.63
190.28	-2.82
190.498	35.02
190.717	52.07
190.936	49.52
191.154	117.56
191.373	98.71
191.592	72.17
191.81	88.39
192.029	119.93
192.248	99.89
192.466	45.34
192.685	84.49
192.904	39.17
193.122	6.6
193.341	17.61
193.559	359.74
193.778	-541.76
193.996	-103.11
194.215	-129.57
194.433	-156.31
194.652	-1188.42
194.87	426.76
195.089	410.54
195.307	120.96
195.526	84.73
195.744	147.46
195.963	187.26
196.181	734.9
196.399	62.97
196.618	29.27
196.836	-28.21
197.055	32.28
197.273	-14.64
197.491	-64.35
197.71	1870
197.928	83.5
198.146	60.64
198.365	-48.09
198.583	-1922.41
198.801	25.55
199.019	-83.56
199.238	-41.26
199.456	-18.15
199.674	19.93
199.892	25.63
200.111	-93.01
200.329	305.42
200.547	204.25
200.765	234.09
200.983	213.88
201.202	213.93
201.42	94.92
201.638	180.46
201.856	179.27
202.074	187.24
202.292	194.37
202.51	-392.75
202.728	-164.41
202.946	-84.52
203.165	-17.95
203.383	22.16
203.601	42.36
203.819	30.51
204.037	60.58
204.255	44.78
204.473	67.3
204.691	75.04
204.909	102.4
205.127	125.27
205.345	177.82
205.562	-3.28
205.78	3.06
205.998	-88.83
206.216	-725.67
206.434	283.21
206.652	-3391.18
206.87	-207.69
207.088	-103.62
207.306	-606.55
207.523	-148.5
207.741	-340.53
207.959	3741.7
208.177	38452
208.395	-407.99
208.612	-724.53
208.83	-165.29
209.048	-177.55
209.266	-547.14
209.483	-92.03
209.701	26.1
209.919	-41.07
210.136	-100.32
210.354	-106.02
210.572	97.97
210.79	-159.32
211.007	176.16
211.225	346.95
211.442	87.31
211.66	223.47
211.878	-61.58
212.095	-418.52
212.313	-727.6
212.53	-586.27
212.748	-641.68
212.966	-272.1
213.183	-235.74
213.401	-346.8
213.618	-592.68
213.836	-754.8
214.053	-700.59
214.271	-519.97
214.488	30.96
214.705	-9.88
214.923	1340.97
215.14	-2013.59
215.358	141.5
215.575	108.2
215.793	80.92
216.01	50.54
216.227	2914.81
216.445	472.24
216.662	145.5
216.879	1656.6
217.097	97.22
217.314	-52.39
217.531	-263.15
217.749	129.67
217.966	219.46
218.183	343.43
218.4	133.26
218.618	247.45
218.835	216.65
219.052	141.97
219.269	101.29
219.487	109.54
219.704	104.48
219.921	80.76
220.138	93.73
220.355	93.25
220.572	159.33
220.79	136.21
221.007	152.35
221.224	42.81
221.441	32.2
221.658	-24.57
221.875	-58.13
222.092	-4.57
222.309	2.06
222.526	-45.07
222.743	-55.09
222.96	-54.12
223.177	-19.56
223.394	-2.75
223.611	-219.02
223.828	-18.3
224.045	-5.58
224.262	12.48
224.479	-23.76
224.696	-19.82
224.913	22.74
225.13	14.7
225.347	-44.86
225.564	-42.37
225.781	-94.92
225.997	-65.03
226.214	-68.5
226.431	-67.31
226.648	-42.45
226.865	-36.68
227.082	-68.53
227.298	-81.85
227.515	-82.69
227.732	-19.49
227.949	-26.02
228.165	-35.49
228.382	-22.07
228.599	-48.92
228.816	-37.32
229.032	-15.02
229.249	-4.63
229.466	2.01
229.682	-1.9
229.899	13.14
230.116	7.76
230.332	13.24
230.549	21.7
230.765	25.04
230.982	41.47
231.199	23.94
231.415	12.85
231.632	18.95
231.848	28.48
232.065	27.59
232.281	22.16
232.498	28.01
232.714	11.77
232.931	3.63
233.147	19.45
233.364	-1.74
233.58	46.64
233.797	34.11
234.013	46.11
234.23	27.15
234.446	32.47
234.662	8.23
234.879	20.25
235.095	1.4
235.312	24.61
235.528	15.63
235.744	6.35
235.961	-10.27
236.177	13.22
236.393	-31.81
236.61	21.04
236.826	39.85
237.042	47.82
237.258	46.31
237.475	63.3
237.691	55.09
237.907	39.81
238.123	36.99
238.339	29.45
238.556	19.94
238.772	19.55
238.988	6.93
239.204	-12.72
239.42	-8.37
239.636	-16.04
239.853	-5.25
240.069	-5.45
240.285	0.43
240.501	3.88
240.717	4.75
240.933	1.32
241.149	2.94
241.365	-0.94
241.581	4
241.797	-0.26
242.013	5.38
242.229	3.79
242.445	7.72
242.661	8.19
242.877	12.22
243.093	14.65
243.309	19.88
243.525	21.86
243.741	23.29
243.957	20.25
244.173	18.98
244.388	11.78
244.604	14.82
244.82	18.29
245.036	18.86
245.252	12.6
245.468	13.47
245.683	10.76
245.899	9.73
246.115	9.01
246.331	9.87
246.547	10.69
246.762	14.11
246.978	10.45
247.194	6.29
247.409	4.91
247.625	3.55
247.841	0.47
248.057	2.53
248.272	-2.87
248.488	-2.83
248.703	-0.63
248.919	-3.05
249.135	-15.27
249.35	-7.58
249.566	-6.06
249.782	0.6
249.997	8.13
250.213	8.04
250.428	5.89
250.644	17.37
250.859	18.62
251.075	19.21
251.29	21.33
251.506	24.47
251.721	17.61
251.937	15.93
252.152	8.96
252.368	11.48
252.583	8.13
252.798	2.89
253.014	-0.47
253.229	-1.45
253.445	-11.58
253.66	-15.36
253.875	-12.39
254.091	-24.12
254.306	-21.82
254.521	-20.83
254.737	-41.67
254.952	-21.16
255.167	-18.71
255.383	-14.44
255.598	-13.12
255.813	12.86
256.028	14.79
256.244	13.37
256.459	25.75
256.674	20.64
256.889	20.05
257.104	18.64
257.32	16.51
257.535	16.76
257.75	16.46
257.965	16.25
258.18	10.95
258.395	8.08
258.61	6.56
258.826	5.72
259.041	8.1
259.256	8.15
259.471	7.12
259.686	8.95
259.901	8.77
260.116	7.43
260.331	5.71
260.546	5.22
260.761	6.55
260.976	5.85
261.191	5.5
261.406	3.77
261.621	0.97
261.836	3.09
262.05	2.2
262.265	5.34
262.48	4.05
262.695	6.07
262.91	-0.83
263.125	1.39
263.34	-6.15
263.555	-7.49
263.769	-7.99
263.984	-3.12
264.199	-3.96
264.414	-6.23
264.629	-7.67
264.843	-11.14
265.058	-5.46
265.273	-4.7
265.488	-5.02
265.702	1.38
265.917	3.88
266.132	9.61
266.346	7.3
266.561	4.95
266.776	8.18
266.99	1.95
267.205	4.85
267.42	-1.57
267.634	2.43
267.849	-0.94
268.063	-0.8
268.278	1.02
268.492	-1.38
268.707	-0.36
268.922	5.75
269.136	2.05
269.351	6.43
269.565	9.02
269.78	11.57
269.994	7.87
270.209	6.71
270.423	7.31
270.637	3.64
270.852	1.7
271.066	0.69
271.281	-1.71
271.495	-0.78
271.709	-2.88
271.924	-5.34
272.138	-6.42
272.353	-4.62
272.567	-0.12
272.781	-0.75
272.996	1.19
273.21	0.78
273.424	3.15
273.638	1.65
273.853	1.93
274.067	3.47
274.281	4.48
274.495	1.47
274.71	3.24
274.924	0.73
275.138	1.34
275.352	1.07
275.566	2.42
275.781	3.29
275.995	1.22
276.209	-1.04
276.423	-1.39
276.637	-2.03
276.851	-0.16
277.065	-1.91
277.279	-4.71
277.493	0.53
277.707	-1.86
277.921	-4.53
278.135	-4.71
278.349	-3.89
278.563	-1.16
278.777	-0.66
278.991	-3.49
279.205	1.75
279.419	3.04
279.633	6.41
279.847	5.24
280.061	4.52
280.275	5.73
280.489	2.19
280.703	5.11
280.917	5.2
281.131	6.61
281.344	6.83
281.558	4.42
281.772	0.98
281.986	1.31
282.2	-1.74
282.414	0.98
282.627	1.1
282.841	3.14
283.055	5.01
283.269	2.79
283.482	3.92
283.696	6.02
283.91	9.21
284.123	12.63
284.337	13.18
284.551	13.56
284.764	13.24
284.978	14.77
285.192	13.81
285.405	12.75
285.619	14.63
285.833	12.61
286.046	12.06
286.26	9.94
286.473	8.44
286.687	5.3
286.9	5.24
287.114	6.39
287.327	1.28
287.541	4.1
287.754	3.81
287.968	3.38
288.181	2.25
288.395	1.36
288.608	1.62
288.822	-0.33
289.035	2.02
289.248	-2.47
289.462	-0.2
289.675	1.48
289.889	-1.44
290.102	-1.73
290.315	-2.76
290.529	-4.34
290.742	-3.16
290.955	-3.1
291.169	-1.97
291.382	-4.43
291.595	-1.92
291.808	-4.54
292.022	-0.65
292.235	-0.01
292.448	0.85
292.661	0.28
292.875	2.34
293.088	-1.12
293.301	-1.79
293.514	-2.17
293.727	-1.47
293.94	1.32
294.153	2.34
294.367	-0.19
294.58	0.24
294.793	-0.88
295.006	3.25
295.219	3.67
295.432	6.43
295.645	7.43
295.858	8.16
296.071	9.82
296.284	8.47
296.497	7.8
296.71	8.38
296.923	8.28
297.136	8.58
297.349	6.93
297.562	8.87
297.775	9.06
297.988	7.61
298.201	7.98
298.414	7.24
298.626	8.75
298.839	8.63
299.052	8.15
299.265	8.63
299.478	8.24
299.691	5.85
299.903	2.88
300.116	2.38
300.329	1.58
300.542	1.87
300.755	2.21
300.967	0.49
301.18	-0.8
301.393	1.33
301.605	1.51
301.818	4.15
302.031	5.22
302.243	6.36
302.456	5.37
302.669	10.41
302.881	12.15
303.094	13.01
303.307	15.19
303.519	13.63
303.732	13.32
303.944	11.14
304.157	10.54
304.37	9.97
304.582	9.62
304.795	8.84
305.007	4.65
305.22	5.37
305.432	5.15
305.645	5.75
305.857	9
306.069	6.36
306.282	8.17
306.494	6.52
306.707	7.17
306.919	8.58
307.132	10.09
307.344	8.32
307.556	6.8
307.769	5.39
307.981	2.47
308.193	1.81
308.406	3.76
308.618	3.74
308.83	2.45
309.043	4.3
309.255	1.99
309.467	2.76
309.679	6.59
309.892	7.19
310.104	9.14
310.316	10.36
310.528	8.95
310.74	8.94
310.953	9.08
311.165	10.21
311.377	6.52
311.589	8.27
311.801	8.02
312.013	7.86
312.225	6.82
312.437	4.55
312.649	3.53
312.862	4.48
313.074	2.5
313.286	2.29
313.498	2.34
313.71	4.53
313.922	2.25
314.134	2.24
314.346	0.19
314.558	-0.66
314.77	-0.46
314.982	-1.84
315.193	-1.27
315.405	-0.57
315.617	-3.22
315.829	-1.54
316.041	-3.06
316.253	0.98
316.465	-0.62
316.677	-0.84
316.888	0.64
317.1	0.7
317.312	1.11
317.524	0.42
317.736	1.3
317.947	3.67
318.159	-0.91
318.371	1.22
318.583	-4.94
318.794	-3.34
319.006	-1.17
319.218	-2.02
319.43	0.57
319.641	1.56
319.853	0.3
320.064	-1.87
320.276	-1.15
320.488	4.02
320.699	5.21
320.911	7.37
321.123	8.95
321.334	8.59
321.546	10.63
321.757	6.53
321.969	6.55
322.18	7.64
322.392	8.99
322.603	5.93
322.815	4.85
323.026	0.26
323.238	1.09
323.449	0.85
323.661	-1.31
323.872	-2.07
324.083	-2.47
324.295	-0.93
324.506	1.71
324.718	1.68
324.929	8.31
325.14	7.65
325.352	9.15
325.563	8.13
325.774	4.85
325.986	4.06
326.197	4.18
326.408	5.34
326.62	4.02
326.831	1.64
327.042	0.25
327.253	-4.4
327.464	-4.2
327.676	-3.06
327.887	-3.82
328.098	-2.64
328.309	-0.6
328.52	-0.91
328.732	0.2
328.943	1.99
329.154	5.77
329.365	5.46
329.576	6.04
329.787	5.73
329.998	5.61
330.209	6.64
330.42	6.27
330.631	5.36
330.842	3.93
331.053	3.41
331.264	-1.15
331.475	-3.54
331.686	0.39
331.897	-0.15
332.108	-1.38
332.319	-1.43
332.53	-1.52
332.741	-1.89
332.952	-1.54
333.163	-0.24
333.374	0.73
333.585	1.01
333.795	-0.23
334.006	-1.64
334.217	-1.99
334.428	0.34
334.639	-0.02
334.849	0.31
335.06	4.31
335.271	3.92
335.482	0.33
335.692	1.76
335.903	7.08
336.114	5.27
336.325	5.28
336.535	5.08
336.746	2.76
336.957	3.92
337.167	4.6
337.378	4.32
337.589	3.83
337.799	7.16
338.01	4.72
338.22	1
338.431	2.01
338.642	1.26
338.852	1.66
339.063	2.15
339.273	-0.59
339.484	0.31
339.694	-3.07
339.905	-0.86
340.115	-2.83
340.326	-1.66
340.536	0.26
340.746	0.87
340.957	1.29
341.167	3.66
341.378	5.14
341.588	7.85
341.799	6.79
342.009	8.28
342.219	6.24
342.43	8.36
342.64	9.41
342.85	8.97
343.061	11.25
343.271	11.7
343.481	9.08
343.691	7.67
343.902	7.21
344.112	7.91
344.322	7.69
344.532	9.41
344.743	8.42
344.953	5.16
345.163	4.83
345.373	4.51
345.583	2.75
345.793	3.23
346.004	4.33
346.214	3.09
346.424	2.27
346.634	2.68
346.844	1.53
347.054	2.72
347.264	3.19
347.474	2.37
347.684	-0.83
347.894	0.87
348.104	0.6
348.314	1.83
348.524	3.36
348.734	3.63
348.944	3.35
349.154	2.8
349.364	1.58
349.574	3.26
349.784	4.98
349.994	5.24
350.204	3.77
350.413	3.17
350.623	2.94
350.833	2.78
351.043	1.39
351.253	0.89
351.463	2
351.672	-0.69
351.882	-2.08
352.092	-2.67
352.302	-1.64
352.511	-1.66
352.721	-0.03
352.931	-2.14
353.141	-4.03
353.35	-2.09
353.56	-1.83
353.77	-3.35
353.979	0.31
354.189	1.8
354.399	3
354.608	3.74
354.818	4.12
355.027	3.49
355.237	4.13
355.447	8.71
355.656	8.02
355.866	8.51
356.075	9.48
356.285	8.9
356.494	8.49
356.704	5.63
356.913	5.91
357.123	7.44
357.332	8.12
357.542	7.2
357.751	5.06
357.96	5.62
358.17	3.9
358.379	3.57
358.589	3.66
358.798	3.76
359.007	5.21
359.217	6.4
359.426	6.36
359.635	5.82
359.845	6.67
360.054	5.84
360.263	7.06
360.472	7.95
360.682	8.77
360.891	9.46
361.1	9.09
361.309	9.51
361.519	7.55
361.728	6.77
361.937	6.54
362.146	6.87
362.355	6.7
362.564	4.59
362.774	4.81
362.983	3.57
363.192	3.6
363.401	4.16
363.61	4.17
363.819	5.05
364.028	5.49
364.237	4.89
364.446	4.07
364.655	4.1
364.864	3.94
365.073	3.79
365.282	4.89
365.491	4.2
365.7	2.85
365.909	2.27
366.118	1.2
366.327	0.93
366.536	2
366.745	2.94
366.954	2.31
367.162	2.73
367.371	2.09
367.58	0.92
367.789	0.64
367.998	1.94
368.207	1.45
368.415	2.1
368.624	1.47
368.833	2.15
369.042	2.37
369.25	3.84
369.459	4.66
369.668	6.11
369.877	8.09
370.085	8.02
370.294	6.73
370.503	7.1
370.711	7.57
370.92	8.47
371.129	7.71
371.337	7.89
371.546	7.78
371.754	7.83
371.963	7.07
372.171	5.85
372.38	6.31
372.589	5.56
372.797	5.94
373.006	6.09
373.214	5.53
373.423	5.1
373.631	5.67
373.84	4.2
374.048	3.57
374.256	4.74
374.465	4.75
374.673	4.85
374.882	6.23
375.09	6.58
375.298	7.73
375.507	7.33
375.715	7.13
375.923	5.58
376.132	6.76
376.34	6.09
376.548	3.94
376.757	2.77
376.965	3.73
377.173	4.46
377.381	5.28
377.59	4.04
377.798	4.82
378.006	6.02
378.214	5.56
378.423	5.96
378.631	6.54
378.839	7.95
379.047	10.07
379.255	9.47
379.463	8.97
379.671	7.7
379.879	8.03
380.088	7.31
380.296	4.83
380.504	5.91
380.712	4.14
380.92	2.84
381.128	1.87
381.336	-0.04
381.544	-1.4
381.752	-0.6
381.96	0.03
382.168	-0.4
382.376	-0.46
382.584	0.71
382.791	-0.47
382.999	-1.16
383.207	-1.07
383.415	-0.6
383.623	-0.43
383.831	-1.19
384.039	-2.02
384.247	-1.74
384.454	-3.32
384.662	-3.06
384.87	-2.58
385.078	-0.62
385.285	-0.07
385.493	2.28
385.701	2.35
385.909	4.27
386.116	5.21
386.324	4.1
386.532	2.6
386.739	3.86
386.947	3.1
387.155	3.1
387.362	3.05
387.57	3.15
387.778	1.97
387.985	1.69
388.193	0.23
388.4	-0.05
388.608	0.02
388.816	0.7
389.023	-0.27
389.231	1.3
389.438	1.64
389.646	0.83
389.853	1.92
390.061	2.64
390.268	2.25
390.475	2.15
390.683	1.88
390.89	2.89
391.098	3.32
391.305	3.61
391.512	2.24
391.72	1.04
391.927	0.5
392.135	0.16
392.342	0
392.549	0.39
392.756	0.05
392.964	0.45
393.171	-0.59
393.378	-0.65
393.586	-0.14
393.793	-0.23
394	0.28
394.207	0.61
394.414	0.53
394.622	0.02
394.829	0.07
395.036	0.52
395.243	0.82
395.45	1.91
395.657	2.75
395.864	3.15
396.072	4.04
396.279	4.42
396.486	3.9
396.693	4.34
396.9	4.01
397.107	2.96
397.314	2.52
397.521	1.72
397.728	1.99
397.935	0.82
398.142	0.04
398.349	-0.41
398.556	-0.7
398.763	1.47
398.97	1.09
399.177	1.96
399.383	2.48
399.59	2.85
399.797	3.58
400.004	2.25
400.211	1.6
400.418	1.71
400.625	1.77
400.831	1.67
401.038	0.16
401.245	-0.53
401.452	-1.52
401.658	-1.5
401.865	-1.34
402.072	-1.66
402.279	0.06
402.485	0.89
402.692	1.06
402.899	0.58
403.105	0.05
403.312	0.79
403.519	1.65
403.725	2.27
403.932	2.69
404.138	3.56
404.345	4
404.552	2.96
404.758	2.83
404.965	3.15
405.171	3.54
405.378	4.4
405.584	3.92
405.791	3.94
405.997	3.5
406.204	3.89
406.41	3.42
406.617	3.38
406.823	3.3
407.029	2.91
407.236	1.8
407.442	1.76
407.649	2.07
407.855	2.04
408.061	2.51
408.268	2.25
408.474	2.09
408.68	1.22
408.887	1.51
409.093	2.41
409.299	2.68
409.505	3.76
409.712	4.48
409.918	3.86
410.124	3.52
410.33	2.75
410.537	3.21
410.743	2.06
410.949	3.09
411.155	2.07
411.361	1.29
411.567	0.24
411.773	-0.36
411.98	-1.61
412.186	-2.31
412.392	-2.11
412.598	-2.44
412.804	-2.86
413.01	-2.5
413.216	-3.22
413.422	-2.39
413.628	-1.79
413.834	-1.27
414.04	-1.24
414.246	-0.5
414.452	0.55
414.658	0.38
414.864	0.36
415.07	0.65
415.275	1.16
415.481	0.96
415.687	0.84
415.893	0.93
416.099	1.36
416.305	1.56
416.511	1.54
416.716	1.87
416.922	1.68
417.128	1.85
417.334	2.01
417.539	2.33
417.745	2.38
417.951	1.79
418.157	1.69
418.362	1.67
418.568	1.73
418.774	2.07
418.979	1.33
419.185	1.58
419.391	2.12
419.596	1.88
419.802	1.8
420.008	1.71
420.213	0.16
420.419	-0.13
420.624	0.02
420.83	0.37
421.035	0.05
421.241	0.34
421.446	0.57
421.652	0.1
421.857	0.22
422.063	-0.06
422.268	0.1
422.474	1.62
422.679	1.94
422.885	2.11
423.09	1.39
423.295	1.63
423.501	2.09
423.706	2.18
423.911	2.62
424.117	2.75
424.322	2.95
424.527	2.84
424.733	3.52
424.938	3.51
425.143	3.5
425.349	3.91
425.554	3.95
425.759	3.55
425.964	3.27
426.169	2.99
426.375	2.86
426.58	2.73
426.785	3.11
426.99	2.7
427.195	2.46
427.4	2.33
427.605	1.88
427.811	1.73
428.016	1.9
428.221	2.36
428.426	2.56
428.631	2.52
428.836	3.35
429.041	2.99
429.246	2.79
429.451	2.99
429.656	2.69
429.861	3.51
430.066	3.17
430.271	3.17
430.476	2.96
430.681	3.18
430.886	3.38
431.09	3.22
431.295	3.44
431.5	3.93
431.705	3.45
431.91	3.73
432.115	3.67
432.32	3.82
432.524	3.87
432.729	3.65
432.934	3.33
433.139	3.1
433.343	2.68
433.548	2.57
433.753	2.29
433.958	2.98
434.162	2.88
434.367	2.86
434.572	2.84
434.776	3.22
434.981	3.34
435.186	3.37
435.39	3.73
435.595	4.01
435.799	4.09
436.004	4.06
436.209	4.27
436.413	3.47
436.618	2.98
436.822	3.47
437.027	3.45
437.231	3.25
437.436	2.87
437.64	2.93
437.845	2.51
438.049	2.5
438.253	2.92
438.458	2.2
438.662	3.01
438.867	3.41
439.071	2.91
439.275	2.81
439.48	3.07
439.684	3.17
439.888	2.95
440.093	3.53
440.297	3.52
440.501	3.37
440.706	3.59
440.91	3.05
441.114	2.96
441.318	3.21
441.523	2.83
441.727	2.38
441.931	1.86
442.135	1.68
442.339	0.71
442.543	1.03
442.748	0.48
442.952	0.34
443.156	0.92
443.36	0.61
443.564	0.57
443.768	0.89
443.972	1.12
444.176	1.87
444.38	2.07
444.584	2.74
444.788	2.35
444.992	2.77
445.196	2.69
445.4	2.62
445.604	2.89
445.808	2.68
446.012	2.04
446.216	1.85
446.42	2.35
446.624	2.47
446.828	2.19
447.032	2.63
447.235	2.39
447.439	2.46
447.643	2.16
447.847	1.88
448.051	1.78
448.254	1.79
448.458	1.92
448.662	1.08
448.866	0.82
449.069	0.65
449.273	-0.02
449.477	0.23
449.681	0.39
449.884	0.37
450.088	0.3
450.292	0.1
450.495	0.8
450.699	1.14
450.902	0.97
451.106	1.15
451.31	1.18
451.513	1.79
451.717	1.46
451.92	1.37
452.124	1.28
452.327	1.12
452.531	1.44
452.734	1.28
452.938	0.38
453.141	0.83
453.345	0.31
453.548	0.63
453.752	-0.53
453.955	-0.61
454.158	-0.68
454.362	-0.26
454.565	-0.22
454.769	-0.38
454.972	-0.54
455.175	0.32
455.379	0.02
455.582	0.36
455.785	0.16
455.988	0.78
456.192	0.92
456.395	0.98
456.598	1.16
456.801	1.57
457.005	1.64
457.208	1.7
457.411	1.31
457.614	1.67
457.817	1.86
458.021	2
458.224	2.43
458.427	2.55
458.63	2.77
458.833	2.49
459.036	2.14
459.239	2.54
459.442	2.75
459.645	2.88
459.848	2.71
460.051	2.92
460.254	2.85
460.457	2.63
460.66	3.02
460.863	2.78
461.066	3.81
461.269	4.19
461.472	4.29
461.675	4.51
461.878	5.04
462.081	4.79
462.284	4.67
462.486	4.12
462.689	4.18
462.892	3.69
463.095	3.63
463.298	2.57
463.5	2.8
463.703	2.68
463.906	2.11
464.109	1.84
464.311	2.02
464.514	1.5
464.717	2.32
