Data from JASIL_2969_Reflection_2.txt Node
Date: Sat Nov 07 21:38:42 EST 2015
User: Geneva
Spectrometer: USB4E03002
Autoset integration time: false
Trigger mode: 4
Integration Time (sec): 1.000000E-1
Scans to average: 10
Electric dark correction enabled: true
Nonlinearity correction enabled: false
Boxcar width: 5
Stray light correction enabled: false
XAxis mode: Wavelengths
Stop averaging: false
Number of Pixels in Spectrum: 3648
>>>>>Begin Spectral Data<<<<<
177.575	383.48
177.794	196.35
178.014	101.89
178.233	23.94
178.452	-28.79
178.672	-16.21
178.891	39.41
179.11	98.45
179.33	105.64
179.549	69.46
179.768	136.19
179.987	137.36
180.207	37.05
180.426	134.28
180.645	90.47
180.864	86.79
181.084	86.86
181.303	82.64
181.522	95.08
181.741	92.7
181.96	60.58
182.179	67.35
182.398	65.73
182.618	69.7
182.837	62.92
183.056	85.25
183.275	57.51
183.494	56.05
183.713	69.09
183.932	88.61
184.151	51.81
184.37	70.95
184.589	43.41
184.808	74.8
185.027	60.28
185.246	70.14
185.465	45.38
185.684	32.98
185.903	36.56
186.122	32.65
186.341	22.97
186.56	30.91
186.779	11.83
186.998	5.22
187.216	9.51
187.435	-5.58
187.654	-49.52
187.873	-40.17
188.092	-56.79
188.311	-34.84
188.53	-37.31
188.748	-30.22
188.967	-70.47
189.186	-28.53
189.405	-37.08
189.623	-118.12
189.842	-52.23
190.061	-41.13
190.28	-70.93
190.498	-79.91
190.717	-99.78
190.936	-91.49
191.154	-192.31
191.373	-246.48
191.592	-492.63
191.81	2023.91
192.029	913.44
192.248	2526.23
192.466	-411.92
192.685	-203.97
192.904	-87.79
193.122	-77.92
193.341	-149.59
193.559	-19.1
193.778	-0.27
193.996	15.58
194.215	10.97
194.433	9.49
194.652	22.02
194.87	20.91
195.089	35.31
195.307	32.59
195.526	36.51
195.744	49.99
195.963	49.1
196.181	55.34
196.399	45.89
196.618	65.63
196.836	72.63
197.055	76.07
197.273	66.31
197.491	58.66
197.71	62.64
197.928	61.84
198.146	43.36
198.365	29.2
198.583	15.81
198.801	32.45
199.019	11.13
199.238	9.66
199.456	17.59
199.674	11.7
199.892	14.09
200.111	-3.39
200.329	9.51
200.547	2.22
200.765	15.77
200.983	5.25
201.202	34.12
201.42	47.6
201.638	32.77
201.856	26.56
202.074	42.41
202.292	17.9
202.51	21.44
202.728	11.82
202.946	10.44
203.165	-2.26
203.383	-5.36
203.601	-24.78
203.819	-28.73
204.037	17.07
204.255	17.39
204.473	27.94
204.691	61.74
204.909	50.8
205.127	57.65
205.345	65.36
205.562	55.74
205.78	61.93
205.998	66.48
206.216	64.54
206.434	50.81
206.652	48.77
206.87	38.6
207.088	24.95
207.306	28.08
207.523	24
207.741	-6.07
207.959	-5.98
208.177	-14.33
208.395	-38.23
208.612	-74.61
208.83	-65.75
209.048	-56.2
209.266	-97.15
209.483	-144.13
209.701	-158.68
209.919	-116.92
210.136	-72.85
210.354	-12.58
210.572	2.15
210.79	16.27
211.007	17.01
211.225	15.47
211.442	6.67
211.66	12.42
211.878	17.48
212.095	49.63
212.313	50.59
212.53	49.27
212.748	43.26
212.966	45.31
213.183	42.02
213.401	41.34
213.618	45.95
213.836	46.77
214.053	47.69
214.271	44.34
214.488	-13.63
214.705	-31.94
214.923	-27.13
215.14	-12.56
215.358	-3.13
215.575	12.99
215.793	29.65
216.01	23.66
216.227	23.61
216.445	2.59
216.662	8.72
216.879	13.35
217.097	26.83
217.314	19.1
217.531	5.87
217.749	-17.96
217.966	-15.61
218.183	-10.88
218.4	-13.7
218.618	-8.55
218.835	-0.44
219.052	-7.95
219.269	-3.34
219.487	-0.57
219.704	-2.85
219.921	-2.67
220.138	8.43
220.355	4.33
220.572	1.11
220.79	2.49
221.007	10.35
221.224	9.08
221.441	17.27
221.658	10.16
221.875	12.02
222.092	12.59
222.309	8.83
222.526	6.31
222.743	4.14
222.96	0.94
223.177	5.52
223.394	2.57
223.611	3.56
223.828	1.94
224.045	3.65
224.262	1.11
224.479	1.25
224.696	5.46
224.913	6.13
225.13	8.21
225.347	8.31
225.564	5.84
225.781	7.03
225.997	8.35
226.214	8.75
226.431	10.94
226.648	10.13
226.865	10.31
227.082	10.44
227.298	10.05
227.515	8.95
227.732	8.74
227.949	8.78
228.165	7.92
228.382	6.87
228.599	6.86
228.816	6.18
229.032	5.67
229.249	6.38
229.466	5.24
229.682	4.8
229.899	5.72
230.116	6.81
230.332	7.82
230.549	9.61
230.765	11.47
230.982	11.38
231.199	11.37
231.415	11.74
231.632	10.39
231.848	11.85
232.065	12.3
232.281	12.9
232.498	11.67
232.714	11.32
232.931	9.5
233.147	10.18
233.364	9.7
233.58	11.03
233.797	10.67
234.013	10.32
234.23	9.16
234.446	10.4
234.662	9.83
234.879	10.61
235.095	9.52
235.312	9.69
235.528	8.04
235.744	8
235.961	7.11
236.177	7.37
236.393	7.75
236.61	8.09
236.826	6.66
237.042	7.43
237.258	7.56
237.475	7.98
237.691	7.69
237.907	7.94
238.123	8.53
238.339	7.85
238.556	7.78
238.772	8.31
238.988	8.8
239.204	8.54
239.42	7.17
239.636	7.14
239.853	7.34
240.069	7.5
240.285	7.75
240.501	7.72
240.717	7.7
240.933	7.9
241.149	7.51
241.365	7.8
241.581	7.9
241.797	8.17
242.013	7.97
242.229	8.1
242.445	8.16
242.661	7.87
242.877	7.75
243.093	7.89
243.309	8.04
243.525	8.02
243.741	7.36
243.957	8
244.173	8.05
244.388	7.57
244.604	7.03
244.82	6.93
245.036	6.56
245.252	6.84
245.468	6.71
245.683	6.66
245.899	7.05
246.115	7.02
246.331	6.63
246.547	6.45
246.762	6.46
246.978	6.64
247.194	6.62
247.409	6.96
247.625	6.78
247.841	6.71
248.057	6.85
248.272	6.63
248.488	6.56
248.703	6.51
248.919	6.85
249.135	7.23
249.35	6.98
249.566	6.71
249.782	6.08
249.997	6.23
250.213	6.48
250.428	6.52
250.644	6.12
250.859	6.4
251.075	6.58
251.29	6.35
251.506	5.88
251.721	6.04
251.937	6.48
252.152	6.83
252.368	6.8
252.583	6.84
252.798	6.7
253.014	7.1
253.229	6.75
253.445	6.36
253.66	6.19
253.875	6.43
254.091	6.03
254.306	5.54
254.521	5.01
254.737	5.12
254.952	4.95
255.167	4.6
255.383	4.72
255.598	5.55
255.813	5.86
256.028	5.84
256.244	6.3
256.459	6.08
256.674	6.19
256.889	6.35
257.104	6.24
257.32	5.94
257.535	5.79
257.75	5.48
257.965	5.14
258.18	5
258.395	4.92
258.61	4.65
258.826	4.79
259.041	4.63
259.256	4.67
259.471	4.68
259.686	4.76
259.901	4.74
260.116	4.75
260.331	4.73
260.546	4.73
260.761	4.66
260.976	4.76
261.191	4.51
261.406	4.5
261.621	4.37
261.836	4
262.05	3.68
262.265	3.5
262.48	3.69
262.695	3.77
262.91	3.9
263.125	3.81
263.34	3.71
263.555	4.18
263.769	4.1
263.984	4.27
264.199	4.68
264.414	4.97
264.629	5.03
264.843	4.69
265.058	4.6
265.273	4.83
265.488	5.14
265.702	5.15
265.917	5.67
266.132	5.8
266.346	5.74
266.561	5.66
266.776	5.51
266.99	5.7
267.205	5.62
267.42	5.63
267.634	5.36
267.849	5.37
268.063	5.26
268.278	4.41
268.492	4.46
268.707	4.42
268.922	4.22
269.136	4.42
269.351	4.42
269.565	4.65
269.78	4.58
269.994	4.34
270.209	4.19
270.423	4.45
270.637	4.64
270.852	4.5
271.066	4.51
271.281	4.61
271.495	4.61
271.709	4.73
271.924	4.8
272.138	4.56
272.353	4.75
272.567	4.82
272.781	4.57
272.996	4.81
273.21	4.74
273.424	4.63
273.638	4.57
273.853	4.58
274.067	4.16
274.281	3.91
274.495	3.96
274.71	4.03
274.924	4.09
275.138	4.09
275.352	3.93
275.566	3.94
275.781	4.05
275.995	4.17
276.209	4.21
276.423	4.24
276.637	4.07
276.851	4.27
277.065	4.38
277.279	4.34
277.493	4.73
277.707	4.54
277.921	4.78
278.135	4.93
278.349	4.82
278.563	4.64
278.777	4.67
278.991	4.95
279.205	5.15
279.419	4.95
279.633	4.77
279.847	4.45
280.061	4.56
280.275	4.57
280.489	4.39
280.703	4.43
280.917	4.29
281.131	4.51
281.344	4.35
281.558	4.21
281.772	4.38
281.986	4.46
282.2	4.54
282.414	4.49
282.627	4.32
282.841	4.47
283.055	4.36
283.269	4.29
283.482	3.93
283.696	4.09
283.91	4.34
284.123	4.19
284.337	4.15
284.551	4.23
284.764	4.12
284.978	4.27
285.192	4.05
285.405	4.26
285.619	4.52
285.833	4.47
286.046	4.31
286.26	4.14
286.473	4.01
286.687	4.12
286.9	4.19
287.114	4.38
287.327	4.61
287.541	4.75
287.754	4.44
287.968	3.93
288.181	4.32
288.395	4.47
288.608	4.36
288.822	4.6
289.035	4.56
289.248	4.35
289.462	4.47
289.675	4.5
289.889	4.5
290.102	4.73
290.315	5.17
290.529	5.17
290.742	5.11
290.955	5.11
291.169	4.98
291.382	5.04
291.595	4.98
291.808	4.59
292.022	4.55
292.235	4.34
292.448	4.34
292.661	4.34
292.875	4.37
293.088	4.34
293.301	4.29
293.514	4.31
293.727	4.2
293.94	4.37
294.153	4.7
294.367	4.54
294.58	4.69
294.793	4.52
295.006	4.46
295.219	4.51
295.432	4.63
295.645	4.86
295.858	4.88
296.071	4.97
296.284	4.96
296.497	4.83
296.71	4.87
296.923	4.74
297.136	4.8
297.349	4.91
297.562	4.8
297.775	4.79
297.988	4.71
298.201	4.89
298.414	4.84
298.626	4.77
298.839	4.81
299.052	4.83
299.265	5.03
299.478	4.91
299.691	4.84
299.903	4.89
300.116	4.83
300.329	4.8
300.542	4.51
300.755	4.36
300.967	4.51
301.18	4.51
301.393	4.34
301.605	4.22
301.818	4.34
302.031	4.36
302.243	4.2
302.456	4.4
302.669	4.37
302.881	4.69
303.094	4.8
303.307	4.9
303.519	5.12
303.732	5.36
303.944	5.58
304.157	5.71
304.37	5.92
304.582	6.2
304.795	6.11
305.007	6.22
305.22	6.02
305.432	6.06
305.645	5.87
305.857	5.85
306.069	5.81
306.282	5.77
306.494	5.76
306.707	5.48
306.919	5.37
307.132	5.24
307.344	5.17
307.556	5.21
307.769	5.32
307.981	5.3
308.193	5.32
308.406	5.19
308.618	5.34
308.83	5.2
309.043	5.35
309.255	5.35
309.467	5.52
309.679	5.78
309.892	5.84
310.104	5.83
310.316	5.89
310.528	5.71
310.74	5.95
310.953	6.01
311.165	6.17
311.377	5.98
311.589	5.93
311.801	5.78
312.013	5.67
312.225	5.76
312.437	5.88
312.649	5.94
312.862	6.13
313.074	5.88
313.286	5.68
313.498	5.67
313.71	6.15
313.922	6.16
314.134	6.27
314.346	6.17
314.558	6.08
314.77	5.85
314.982	5.74
315.193	5.82
315.405	5.83
315.617	5.91
315.829	5.83
316.041	5.62
316.253	5.72
316.465	5.68
316.677	5.73
316.888	5.82
317.1	6.13
317.312	6.48
317.524	6.4
317.736	6.55
317.947	6.51
318.159	6.74
318.371	6.68
318.583	6.63
318.794	6.85
319.006	6.94
319.218	6.84
319.43	6.44
319.641	6.23
319.853	6.25
320.064	6.43
320.276	6.55
320.488	6.33
320.699	6.26
320.911	6.51
321.123	6.54
321.334	6.45
321.546	6.37
321.757	6.82
321.969	6.96
322.18	7.09
322.392	6.68
322.603	6.61
322.815	6.62
323.026	6.85
323.238	6.75
323.449	6.72
323.661	6.72
323.872	6.96
324.083	6.78
324.295	6.68
324.506	6.37
324.718	6.43
324.929	6.62
325.14	6.88
325.352	6.87
325.563	7.04
325.774	7.02
325.986	7.08
326.197	6.94
326.408	6.86
326.62	6.85
326.831	7.06
327.042	7.32
327.253	7.21
327.464	7.17
327.676	7.08
327.887	6.93
328.098	6.8
328.309	6.86
328.52	6.84
328.732	7.26
328.943	7.45
329.154	7.67
329.365	7.45
329.576	7.45
329.787	7.2
329.998	7.21
330.209	7.25
330.42	7.4
330.631	7.29
330.842	7.4
331.053	7.26
331.264	7.07
331.475	7.06
331.686	7.2
331.897	7.21
332.108	7.18
332.319	7.2
332.53	7.25
332.741	7.11
332.952	7.15
333.163	7.1
333.374	7.01
333.585	7.03
333.795	6.73
334.006	6.68
334.217	6.58
334.428	6.69
334.639	6.59
334.849	6.57
335.06	6.77
335.271	6.84
335.482	6.66
335.692	6.8
335.903	6.69
336.114	6.72
336.325	6.85
336.535	6.94
336.746	6.8
336.957	6.91
337.167	6.85
337.378	6.66
337.589	6.59
337.799	6.77
338.01	6.72
338.22	6.84
338.431	6.79
338.642	6.65
338.852	6.52
339.063	6.38
339.273	6.29
339.484	6.2
339.694	6.24
339.905	6.22
340.115	6.12
340.326	5.87
340.536	5.97
340.746	6.07
340.957	6
341.167	6
341.378	6.23
341.588	6.43
341.799	6.39
342.009	6.43
342.219	6.39
342.43	6.45
342.64	6.39
342.85	6.31
343.061	6.26
343.271	6.19
343.481	6.36
343.691	6.23
343.902	6.01
344.112	5.82
344.322	5.93
344.532	5.98
344.743	6.03
344.953	6.05
345.163	5.98
345.373	6
345.583	6.11
345.793	5.97
346.004	5.93
346.214	6.03
346.424	6.32
346.634	6.35
346.844	6.23
347.054	6.17
347.264	6.38
347.474	6.3
347.684	6.14
347.894	6.16
348.104	6.1
348.314	6.24
348.524	6.21
348.734	6.3
348.944	6.09
349.154	6.22
349.364	6.13
349.574	5.93
349.784	5.96
349.994	6.08
350.204	5.8
350.413	5.76
350.623	5.73
350.833	5.61
351.043	5.4
351.253	5.45
351.463	5.36
351.672	5.27
351.882	5.43
352.092	5.5
352.302	5.5
352.511	5.7
352.721	5.67
352.931	5.72
353.141	5.69
353.35	5.68
353.56	5.58
353.77	5.55
353.979	5.8
354.189	5.71
354.399	5.72
354.608	5.64
354.818	5.66
355.027	5.76
355.237	5.73
355.447	5.82
355.656	5.89
355.866	5.96
356.075	5.94
356.285	5.83
356.494	5.72
356.704	5.72
356.913	5.74
357.123	5.68
357.332	5.61
357.542	5.72
357.751	5.74
357.96	5.63
358.17	5.65
358.379	5.63
358.589	5.7
358.798	5.79
359.007	5.78
359.217	5.68
359.426	5.66
359.635	5.66
359.845	5.65
360.054	5.57
360.263	5.54
360.472	5.55
360.682	5.6
360.891	5.56
361.1	5.55
361.309	5.51
361.519	5.58
361.728	5.61
361.937	5.59
362.146	5.46
362.355	5.43
362.564	5.52
362.774	5.51
362.983	5.34
363.192	5.23
363.401	5.23
363.61	5.24
363.819	5.22
364.028	5.17
364.237	5.23
364.446	5.48
364.655	5.48
364.864	5.46
365.073	5.44
365.282	5.52
365.491	5.54
365.7	5.47
365.909	5.39
366.118	5.49
366.327	5.47
366.536	5.41
366.745	5.17
366.954	5.15
367.162	5.07
367.371	5
367.58	4.93
367.789	4.93
367.998	4.95
368.207	5.04
368.415	4.98
368.624	4.89
368.833	4.85
369.042	4.88
369.25	4.94
369.459	4.95
369.668	4.83
369.877	4.97
370.085	5.04
370.294	4.91
370.503	4.98
370.711	4.83
370.92	4.86
371.129	4.89
371.337	4.91
371.546	4.82
371.754	4.77
371.963	4.9
372.171	4.79
372.38	4.69
372.589	4.79
372.797	4.7
373.006	4.77
373.214	4.78
373.423	4.73
373.631	4.66
373.84	4.66
374.048	4.62
374.256	4.6
374.465	4.57
374.673	4.53
374.882	4.45
375.09	4.36
375.298	4.22
375.507	4.22
375.715	4.14
375.923	4.09
376.132	4.07
376.34	4.04
376.548	3.99
376.757	4.08
376.965	4.1
377.173	4.18
377.381	4.19
377.59	4.23
377.798	4.16
378.006	4.25
378.214	4.32
378.423	4.36
378.631	4.47
378.839	4.45
379.047	4.41
379.255	4.34
379.463	4.26
379.671	4.16
379.879	4.14
380.088	4.11
380.296	4.11
380.504	4.03
380.712	4.08
380.92	4.07
381.128	4.1
381.336	4.11
381.544	4.11
381.752	4.07
381.96	4.09
382.168	4.13
382.376	4.19
382.584	4.09
382.791	4.13
382.999	3.94
383.207	3.89
383.415	3.76
383.623	3.68
383.831	3.69
384.039	3.67
384.247	3.63
384.454	3.71
384.662	3.75
384.87	3.82
385.078	3.76
385.285	3.89
385.493	3.93
385.701	4.01
385.909	4.04
386.116	4.06
386.324	4.14
386.532	4.16
386.739	4.02
386.947	3.92
387.155	3.81
387.362	3.79
387.57	3.79
387.778	3.69
387.985	3.7
388.193	3.69
388.4	3.8
388.608	3.64
388.816	3.68
389.023	3.64
389.231	3.63
389.438	3.67
389.646	3.59
389.853	3.49
390.061	3.41
390.268	3.36
390.475	3.28
390.683	3.19
390.89	3.18
391.098	3.18
391.305	3.2
391.512	3.18
391.72	3.15
391.927	3.2
392.135	3.24
392.342	3.31
392.549	3.28
392.756	3.27
392.964	3.22
393.171	3.26
393.378	3.2
393.586	3.19
393.793	3.23
394	3.11
394.207	3.11
394.414	3.16
394.622	3.14
394.829	3.11
395.036	3.08
395.243	3.11
395.45	3.12
395.657	3.09
395.864	3.04
396.072	3.13
396.279	3.29
396.486	3.31
396.693	3.22
396.9	3.24
397.107	3.18
397.314	3.22
397.521	3.18
397.728	3.15
397.935	3.13
398.142	3.18
398.349	3.07
398.556	3.04
398.763	3.04
398.97	2.98
399.177	2.98
399.383	3.06
399.59	3.03
399.797	3.03
400.004	2.95
400.211	2.97
400.418	2.9
400.625	2.94
400.831	2.89
401.038	2.85
401.245	2.79
401.452	2.72
401.658	2.72
401.865	2.78
402.072	2.76
402.279	2.91
402.485	2.91
402.692	2.98
402.899	2.92
403.105	3
403.312	2.99
403.519	3.04
403.725	3.15
403.932	3.15
404.138	3.06
404.345	3.02
404.552	2.96
404.758	2.92
404.965	2.86
405.171	2.83
405.378	2.75
405.584	2.77
405.791	2.74
405.997	2.7
406.204	2.68
406.41	2.69
406.617	2.73
406.823	2.68
407.029	2.72
407.236	2.77
407.442	2.75
407.649	2.96
407.855	2.95
408.061	3.02
408.268	2.96
408.474	2.92
408.68	2.95
408.887	2.84
409.093	2.91
409.299	2.92
409.505	2.88
409.712	2.88
409.918	2.72
410.124	2.63
410.33	2.59
410.537	2.63
410.743	2.65
410.949	2.66
411.155	2.79
411.361	2.76
411.567	2.62
411.773	2.53
411.98	2.58
412.186	2.56
412.392	2.59
412.598	2.61
412.804	2.58
413.01	2.55
413.216	2.47
413.422	2.57
413.628	2.59
413.834	2.63
414.04	2.7
414.246	2.61
414.452	2.58
414.658	2.62
414.864	2.66
415.07	2.65
415.275	2.65
415.481	2.69
415.687	2.52
415.893	2.54
416.099	2.59
416.305	2.57
416.511	2.63
416.716	2.58
416.922	2.59
417.128	2.56
417.334	2.58
417.539	2.57
417.745	2.55
417.951	2.61
418.157	2.58
418.362	2.58
418.568	2.55
418.774	2.53
418.979	2.56
419.185	2.54
419.391	2.52
419.596	2.5
419.802	2.5
420.008	2.52
420.213	2.47
420.419	2.49
420.624	2.47
420.83	2.5
421.035	2.53
421.241	2.57
421.446	2.59
421.652	2.59
421.857	2.59
422.063	2.62
422.268	2.57
422.474	2.6
422.679	2.57
422.885	2.59
423.09	2.6
423.295	2.58
423.501	2.54
423.706	2.5
423.911	2.52
424.117	2.51
424.322	2.51
424.527	2.56
424.733	2.53
424.938	2.55
425.143	2.58
425.349	2.56
425.554	2.55
425.759	2.55
425.964	2.55
426.169	2.55
426.375	2.55
426.58	2.49
426.785	2.48
426.99	2.52
427.195	2.5
427.4	2.45
427.605	2.45
427.811	2.5
428.016	2.52
428.221	2.57
428.426	2.57
428.631	2.58
428.836	2.6
429.041	2.56
429.246	2.59
429.451	2.64
429.656	2.6
429.861	2.59
430.066	2.58
430.271	2.57
430.476	2.52
430.681	2.46
430.886	2.44
431.09	2.44
431.295	2.47
431.5	2.44
431.705	2.39
431.91	2.38
432.115	2.43
432.32	2.4
432.524	2.39
432.729	2.37
432.934	2.43
433.139	2.44
433.343	2.48
433.548	2.44
433.753	2.45
433.958	2.44
434.162	2.46
434.367	2.45
434.572	2.41
434.776	2.45
434.981	2.5
435.186	2.43
435.39	2.45
435.595	2.45
435.799	2.45
436.004	2.42
436.209	2.45
436.413	2.48
436.618	2.43
436.822	2.47
437.027	2.45
437.231	2.38
437.436	2.43
437.64	2.38
437.845	2.35
438.049	2.36
438.253	2.34
438.458	2.34
438.662	2.33
438.867	2.33
439.071	2.35
439.275	2.35
439.48	2.37
439.684	2.36
439.888	2.35
440.093	2.35
440.297	2.34
440.501	2.35
440.706	2.37
440.91	2.39
441.114	2.39
441.318	2.35
441.523	2.37
441.727	2.4
441.931	2.45
442.135	2.45
442.339	2.46
442.543	2.47
442.748	2.47
442.952	2.43
443.156	2.41
443.36	2.41
443.564	2.45
443.768	2.43
443.972	2.4
444.176	2.35
444.38	2.35
444.584	2.35
444.788	2.35
444.992	2.36
445.196	2.36
445.4	2.37
445.604	2.36
445.808	2.36
446.012	2.32
446.216	2.33
446.42	2.31
446.624	2.33
446.828	2.29
447.032	2.29
447.235	2.3
447.439	2.33
447.643	2.34
447.847	2.32
448.051	2.27
448.254	2.3
448.458	2.28
448.662	2.3
448.866	2.22
449.069	2.31
449.273	2.34
449.477	2.31
449.681	2.29
449.884	2.29
450.088	2.28
450.292	2.33
450.495	2.35
450.699	2.45
450.902	2.42
451.106	2.48
451.31	2.43
451.513	2.43
451.717	2.4
451.92	2.35
452.124	2.33
452.327	2.33
452.531	2.32
452.734	2.3
452.938	2.23
453.141	2.23
453.345	2.23
453.548	2.2
453.752	2.2
453.955	2.2
454.158	2.25
454.362	2.25
454.565	2.25
454.769	2.24
454.972	2.24
455.175	2.17
455.379	2.19
455.582	2.2
455.785	2.2
455.988	2.14
456.192	2.14
456.395	2.11
456.598	2.12
456.801	2.11
457.005	2.11
457.208	2.14
457.411	2.21
457.614	2.19
457.817	2.17
458.021	2.19
458.224	2.19
458.427	2.22
458.63	2.25
458.833	2.24
459.036	2.24
459.239	2.24
459.442	2.21
459.645	2.2
459.848	2.2
460.051	2.23
460.254	2.21
460.457	2.22
460.66	2.25
460.863	2.23
461.066	2.26
461.269	2.3
461.472	2.29
461.675	2.33
461.878	2.38
462.081	2.38
462.284	2.38
462.486	2.41
462.689	2.4
462.892	2.37
463.095	2.39
463.298	2.33
463.5	2.31
463.703	2.32
463.906	2.31
464.109	2.27
464.311	2.33
464.514	2.33
464.717	2.29
464.92	2.34
465.122	2.35
465.325	2.38
465.528	2.44
465.73	2.41
465.933	2.38
466.135	2.39
466.338	2.41
466.541	2.38
466.743	2.39
466.946	2.38
467.148	2.34
467.351	2.3
467.553	2.27
467.756	2.26
467.958	2.32
468.161	2.37
468.363	2.32
468.566	2.29
468.768	2.24
468.971	2.24
469.173	2.27
469.375	2.28
469.578	2.37
469.78	2.33
469.983	2.34
470.185	2.26
470.387	2.23
470.59	2.18
470.792	2.15
470.994	2.22
471.196	2.25
471.399	2.22
471.601	2.21
471.803	2.11
472.005	2.1
