Data from JASIL_2971_Reflection_2.txt Node
Date: Sat Nov 07 21:43:56 EST 2015
User: Geneva
Spectrometer: USB4E03002
Autoset integration time: false
Trigger mode: 4
Integration Time (sec): 1.000000E-1
Scans to average: 10
Electric dark correction enabled: true
Nonlinearity correction enabled: false
Boxcar width: 5
Stray light correction enabled: false
XAxis mode: Wavelengths
Stop averaging: false
Number of Pixels in Spectrum: 3648
>>>>>Begin Spectral Data<<<<<
177.575	-465.91
177.794	-248.42
178.014	-334.78
178.233	206.13
178.452	107.42
178.672	198.37
178.891	132.38
179.11	21.28
179.33	31.98
179.549	-29.25
179.768	-62.95
179.987	-241.74
180.207	-484.6
180.426	369.65
180.645	181.77
180.864	180.55
181.084	194.37
181.303	205.85
181.522	182.29
181.741	155.59
181.96	129.42
182.179	130.9
182.398	127.88
182.618	106.67
182.837	129.19
183.056	117.7
183.275	71.5
183.494	109.27
183.713	138.1
183.932	146.46
184.151	132
184.37	173.1
184.589	130.25
184.808	102.86
185.027	104.79
185.246	82.2
185.465	86.87
185.684	96.39
185.903	73.47
186.122	66.72
186.341	74.34
186.56	72.32
186.779	62.38
186.998	76.9
187.216	86.7
187.435	96.72
187.654	142.35
187.873	145.53
188.092	165.05
188.311	165.54
188.53	125.25
188.748	82.61
188.967	95.66
189.186	90.29
189.405	77.31
189.623	62.98
189.842	57.86
190.061	29.97
190.28	9.02
190.498	-2.55
190.717	-0.41
190.936	-2.18
191.154	-21.33
191.373	-41.79
191.592	-91.52
191.81	603.86
192.029	61.15
192.248	420.06
192.466	80.2
192.685	94.95
192.904	173.42
193.122	126.84
193.341	197.57
193.559	127.55
193.778	113.31
193.996	93.49
194.215	71.49
194.433	49.45
194.652	49.5
194.87	48.96
195.089	58.29
195.307	40.87
195.526	49.71
195.744	41.84
195.963	39.48
196.181	41.11
196.399	28.44
196.618	56.19
196.836	72.85
197.055	81.52
197.273	67.62
197.491	64.06
197.71	69.77
197.928	84.1
198.146	90.43
198.365	110.25
198.583	70.99
198.801	71.68
199.019	48.09
199.238	43.27
199.456	24.6
199.674	25.24
199.892	17.29
200.111	-4.62
200.329	5.99
200.547	-14.94
200.765	-6.07
200.983	-16.61
201.202	-3.08
201.42	12.3
201.638	2.7
201.856	23.09
202.074	46.28
202.292	71.12
202.51	101.7
202.728	101.81
202.946	140.75
203.165	129.93
203.383	123.45
203.601	129.1
203.819	150.15
204.037	116.68
204.255	113.62
204.473	124.3
204.691	114.03
204.909	87.68
205.127	80.5
205.345	82.99
205.562	69.64
205.78	68.18
205.998	78.48
206.216	67.16
206.434	71.28
206.652	46.89
206.87	34.78
207.088	38.87
207.306	39.67
207.523	38.86
207.741	24.44
207.959	29.9
208.177	31.6
208.395	16.24
208.612	-0.48
208.83	20.03
209.048	37.53
209.266	2.39
209.483	-29.49
209.701	-34.22
209.919	-41.53
210.136	-19.46
210.354	5.77
210.572	30.48
210.79	32.58
211.007	42.42
211.225	39.71
211.442	43.37
211.66	55.29
211.878	52.11
212.095	73.36
212.313	78.87
212.53	80.4
212.748	79.99
212.966	78.01
213.183	89.05
213.401	81.7
213.618	83.5
213.836	79.73
214.053	78.45
214.271	83.15
214.488	63.15
214.705	51.46
214.923	57.13
215.14	50.02
215.358	58.71
215.575	53.29
215.793	82.07
216.01	75.34
216.227	77.3
216.445	58.8
216.662	46.61
216.879	35.88
217.097	43.36
217.314	38.87
217.531	46.35
217.749	26
217.966	25.95
218.183	14.96
218.4	11.04
218.618	4.52
218.835	15.45
219.052	20.76
219.269	27.74
219.487	29.41
219.704	28.12
219.921	23.69
220.138	30.74
220.355	24.92
220.572	28.8
220.79	30.14
221.007	39.57
221.224	40.34
221.441	40.71
221.658	33.66
221.875	32.78
222.092	30.69
222.309	26.73
222.526	17.86
222.743	16.01
222.96	5.75
223.177	8.39
223.394	4.87
223.611	7.81
223.828	8.36
224.045	12.29
224.262	11.93
224.479	12.46
224.696	13.57
224.913	16.18
225.13	17.94
225.347	19.99
225.564	17.36
225.781	15.15
225.997	13.01
226.214	12.52
226.431	11.27
226.648	10.75
226.865	9.76
227.082	10.88
227.298	10.46
227.515	9.94
227.732	8.87
227.949	8.62
228.165	8.26
228.382	7.56
228.599	6.74
228.816	7.02
229.032	6.46
229.249	7.07
229.466	5.87
229.682	5.49
229.899	6.53
230.116	7.99
230.332	8.73
230.549	10.37
230.765	11.32
230.982	12.7
231.199	12.76
231.415	13.37
231.632	12.01
231.848	13.69
232.065	14.86
232.281	13.2
232.498	11.42
232.714	11.08
232.931	9.78
233.147	10.36
233.364	9.83
233.58	9.98
233.797	9.64
234.013	9.71
234.23	9.7
234.446	8.37
234.662	9.03
234.879	11.25
235.095	11.02
235.312	11.26
235.528	11.02
235.744	10.63
235.961	10.48
236.177	10.57
236.393	11.76
236.61	11.68
236.826	12.42
237.042	13.3
237.258	12.08
237.475	11.86
237.691	11.99
237.907	11.41
238.123	12.17
238.339	12.07
238.556	12.51
238.772	11.6
238.988	11.39
239.204	10.45
239.42	9.43
239.636	8.84
239.853	8.74
240.069	8.51
240.285	8.2
240.501	8.04
240.717	7.61
240.933	7.7
241.149	7.81
241.365	8.31
241.581	8.44
241.797	8.3
242.013	8.14
242.229	8.64
242.445	8.58
242.661	8.68
242.877	8.83
243.093	9.03
243.309	8.74
243.525	8.25
243.741	7.24
243.957	7.53
244.173	7.75
244.388	7.34
244.604	6.8
244.82	7.2
245.036	7.02
245.252	6.89
245.468	6.98
245.683	7.1
245.899	7.72
246.115	7.56
246.331	7.43
246.547	7.19
246.762	7.41
246.978	7.57
247.194	7.47
247.409	7.69
247.625	7.58
247.841	7.55
248.057	7.59
248.272	7.21
248.488	7.42
248.703	7.24
248.919	7.66
249.135	7.5
249.35	7.16
249.566	6.78
249.782	6.31
249.997	6.31
250.213	6.15
250.428	6.29
250.644	5.95
250.859	5.73
251.075	5.87
251.29	5.51
251.506	5.69
251.721	5.52
251.937	5.66
252.152	6.03
252.368	6.01
252.583	6.08
252.798	5.9
253.014	6.34
253.229	6.75
253.445	7.02
253.66	6.81
253.875	6.33
254.091	6.19
254.306	6.48
254.521	6.25
254.737	6.42
254.952	5.88
255.167	5.54
255.383	5.83
255.598	5.89
255.813	5.41
256.028	5.69
256.244	5.97
256.459	5.76
256.674	5.6
256.889	5.49
257.104	5.47
257.32	5.47
257.535	5.52
257.75	5.3
257.965	5.14
258.18	5.18
258.395	5.15
258.61	4.95
258.826	5.08
259.041	4.94
259.256	4.82
259.471	4.79
259.686	5.01
259.901	4.87
260.116	4.96
260.331	4.89
260.546	5
260.761	5.1
260.976	5.5
261.191	5.46
261.406	5.33
261.621	5.61
261.836	5.31
262.05	4.97
262.265	4.82
262.48	4.62
262.695	4.73
262.91	4.63
263.125	4.21
263.34	4.15
263.555	4.47
263.769	4.73
263.984	5.03
264.199	5.65
264.414	5.86
264.629	6.08
264.843	5.91
265.058	5.75
265.273	5.57
265.488	5.62
265.702	5.36
265.917	5.5
266.132	5.77
266.346	5.63
266.561	5.52
266.776	5.54
266.99	5.72
267.205	5.71
267.42	5.57
267.634	5.73
267.849	6.03
268.063	6.22
268.278	5.87
268.492	5.55
268.707	5.63
268.922	5.74
269.136	5.75
269.351	5.84
269.565	5.95
269.78	5.86
269.994	5.73
270.209	5.45
270.423	5.57
270.637	5.66
270.852	5.65
271.066	5.48
271.281	5.31
271.495	5.31
271.709	5.12
271.924	4.98
272.138	5.06
272.353	5.03
272.567	4.95
272.781	4.73
272.996	4.7
273.21	4.89
273.424	4.8
273.638	4.78
273.853	4.8
274.067	4.82
274.281	5
274.495	5.03
274.71	5.09
274.924	5.13
275.138	5.33
275.352	5.33
275.566	5.09
275.781	5.35
275.995	5.26
276.209	5.17
276.423	5.13
276.637	4.91
276.851	4.96
277.065	5.17
277.279	5.26
277.493	5.22
277.707	4.99
277.921	5.19
278.135	5.03
278.349	4.96
278.563	4.72
278.777	4.46
278.991	4.56
279.205	4.64
279.419	4.7
279.633	4.73
279.847	4.39
280.061	4.73
280.275	4.51
280.489	4.49
280.703	4.46
280.917	4.55
281.131	4.82
281.344	4.69
281.558	4.57
281.772	4.4
281.986	4.34
282.2	4.48
282.414	4.58
282.627	4.66
282.841	4.71
283.055	4.68
283.269	4.7
283.482	4.49
283.696	4.6
283.91	4.8
284.123	4.67
284.337	4.47
284.551	4.58
284.764	4.34
284.978	4.68
285.192	4.54
285.405	4.73
285.619	4.84
285.833	4.92
286.046	4.87
286.26	4.91
286.473	4.82
286.687	5.06
286.9	4.95
287.114	4.82
287.327	4.44
287.541	4.63
287.754	4.53
287.968	4.35
288.181	4.3
288.395	4.26
288.608	4.03
288.822	4.25
289.035	4.32
289.248	4.31
289.462	4.59
289.675	4.71
289.889	4.69
290.102	4.8
290.315	4.79
290.529	4.81
290.742	4.91
290.955	5.09
291.169	4.97
291.382	4.89
291.595	5.06
291.808	5
292.022	5.28
292.235	5.3
292.448	5.3
292.661	5.51
292.875	5.73
293.088	5.62
293.301	5.65
293.514	5.77
293.727	5.84
293.94	5.7
294.153	5.68
294.367	5.28
294.58	5.22
294.793	5.21
295.006	5.18
295.219	5.11
295.432	5.21
295.645	5.24
295.858	4.95
296.071	4.94
296.284	5
296.497	4.98
296.71	5.12
296.923	5.17
297.136	5.27
297.349	5.31
297.562	5.3
297.775	5.31
297.988	5.3
298.201	5.7
298.414	5.7
298.626	5.71
298.839	5.67
299.052	5.77
299.265	5.7
299.478	5.64
299.691	5.43
299.903	5.39
300.116	5.52
300.329	5.47
300.542	5.29
300.755	5.32
300.967	5.38
301.18	5.48
301.393	5.4
301.605	5.34
301.818	5.29
302.031	5.49
302.243	5.51
302.456	5.72
302.669	5.57
302.881	5.75
303.094	5.88
303.307	6.02
303.519	6.16
303.732	6.29
303.944	6.51
304.157	6.4
304.37	6.61
304.582	6.81
304.795	6.62
305.007	6.93
305.22	7.08
305.432	6.96
305.645	6.73
305.857	6.8
306.069	6.89
306.282	6.82
306.494	7.04
306.707	7.04
306.919	7.05
307.132	7.06
307.344	6.85
307.556	6.59
307.769	6.67
307.981	6.83
308.193	6.78
308.406	6.44
308.618	6.39
308.83	6.26
309.043	6.18
309.255	6.14
309.467	6.08
309.679	6.27
309.892	6.34
310.104	6.35
310.316	6.34
310.528	6.4
310.74	6.85
310.953	7.18
311.165	7.29
311.377	7.06
311.589	6.94
311.801	6.88
312.013	6.81
312.225	6.87
312.437	7.09
312.649	7.18
312.862	7.06
313.074	6.65
313.286	6.43
313.498	6.32
313.71	6.95
313.922	6.94
314.134	7.23
314.346	7.3
314.558	7.22
314.77	7.1
314.982	6.74
315.193	6.93
315.405	6.87
315.617	6.65
315.829	6.86
316.041	6.58
316.253	6.51
316.465	6.22
316.677	6.14
316.888	6.32
317.1	6.14
317.312	6.68
317.524	6.72
317.736	6.87
317.947	7.24
318.159	7.22
318.371	7.21
318.583	7.5
318.794	7.66
319.006	7.72
319.218	7.58
319.43	7.47
319.641	7.23
319.853	7.19
320.064	7.27
320.276	7.44
320.488	7.32
320.699	7.56
320.911	7.63
321.123	7.98
321.334	8.15
321.546	8.16
321.757	8.37
321.969	8.35
322.18	8.22
322.392	7.99
322.603	7.85
322.815	7.72
323.026	7.6
323.238	7.5
323.449	7.29
323.661	7.03
323.872	7.15
324.083	7.14
324.295	7.14
324.506	7.16
324.718	7.27
324.929	7.25
325.14	7.61
325.352	7.68
325.563	7.86
325.774	7.82
325.986	7.91
326.197	7.86
326.408	7.86
326.62	7.99
326.831	8.12
327.042	8.23
327.253	8.23
327.464	8.06
327.676	7.86
327.887	7.59
328.098	7.51
328.309	7.52
328.52	7.61
328.732	7.87
328.943	8.02
329.154	8.2
329.365	8.24
329.576	8.23
329.787	8.17
329.998	8.39
330.209	8.57
330.42	8.75
330.631	8.72
330.842	8.93
331.053	8.77
331.264	8.77
331.475	8.49
331.686	8.5
331.897	8.59
332.108	8.59
332.319	8.45
332.53	8.51
332.741	8.49
332.952	8.6
333.163	8.5
333.374	8.61
333.585	8.4
333.795	8.41
334.006	8.4
334.217	8.16
334.428	8.38
334.639	8.57
334.849	8.51
335.06	8.5
335.271	8.36
335.482	8.1
335.692	8.05
335.903	8.04
336.114	8.06
336.325	8.13
336.535	8.26
336.746	7.98
336.957	7.89
337.167	7.89
337.378	7.82
337.589	7.96
337.799	8.21
338.01	8.18
338.22	8.31
338.431	8.27
338.642	8.22
338.852	7.99
339.063	8.09
339.273	7.95
339.484	8.12
339.694	8.19
339.905	8.18
340.115	8.03
340.326	7.94
340.536	7.97
340.746	8.07
340.957	7.97
341.167	8.2
341.378	7.99
341.588	8.08
341.799	7.85
342.009	7.57
342.219	7.53
342.43	7.54
342.64	7.53
342.85	7.37
343.061	7.25
343.271	7.18
343.481	7.18
343.691	7.37
343.902	7.32
344.112	7.34
344.322	7.64
344.532	7.75
344.743	7.75
344.953	7.61
345.163	7.8
345.373	7.77
345.583	7.93
345.793	7.91
346.004	7.94
346.214	7.99
346.424	8.11
346.634	8.17
346.844	8.2
347.054	8.27
347.264	8.52
347.474	8.39
347.684	8.3
347.894	8.22
348.104	8.09
348.314	8.13
348.524	8.2
348.734	8.06
348.944	8.02
349.154	7.87
349.364	7.73
349.574	7.52
349.784	7.5
349.994	7.79
350.204	7.74
350.413	7.82
350.623	7.74
350.833	7.6
351.043	7.61
351.253	7.58
351.463	7.58
351.672	7.46
351.882	7.56
352.092	7.45
352.302	7.27
352.511	7.23
352.721	7.13
352.931	7.2
353.141	7
353.35	6.99
353.56	6.85
353.77	6.87
353.979	7.15
354.189	7.13
354.399	7.22
354.608	7.21
354.818	7.23
355.027	7.23
355.237	7.15
355.447	7.28
355.656	7.32
355.866	7.38
356.075	7.38
356.285	7.27
356.494	7.11
356.704	6.99
356.913	7.04
357.123	6.91
357.332	6.97
357.542	7.01
357.751	7.08
357.96	6.97
358.17	6.89
358.379	6.9
358.589	6.85
358.798	7
359.007	7.07
359.217	6.9
359.426	7.09
359.635	7.02
359.845	6.9
360.054	6.78
360.263	6.85
360.472	6.84
360.682	6.88
360.891	6.96
361.1	6.99
361.309	7.03
361.519	7.06
361.728	7.01
361.937	7.05
362.146	7.08
362.355	7.16
362.564	7.13
362.774	7.11
362.983	6.85
363.192	6.73
363.401	6.7
363.61	6.57
363.819	6.67
364.028	6.67
364.237	6.52
364.446	6.68
364.655	6.58
364.864	6.59
365.073	6.69
365.282	6.82
365.491	6.82
365.7	6.85
365.909	6.85
366.118	6.78
366.327	6.64
366.536	6.65
366.745	6.5
366.954	6.6
367.162	6.53
367.371	6.37
367.58	6.32
367.789	6.21
367.998	6.06
368.207	6.15
368.415	6.14
368.624	6.13
368.833	6.2
369.042	6.21
369.25	6.11
369.459	6.22
369.668	6.18
369.877	6.17
370.085	6.29
370.294	6.34
370.503	6.25
370.711	6.1
370.92	6.09
371.129	6.16
371.337	6.11
371.546	6.07
371.754	5.95
371.963	6.06
372.171	6.03
372.38	5.92
372.589	5.88
372.797	5.96
373.006	5.93
373.214	6
373.423	5.88
373.631	5.93
373.84	5.87
374.048	5.94
374.256	5.89
374.465	5.86
374.673	5.85
374.882	5.75
375.09	5.63
375.298	5.69
375.507	5.66
375.715	5.61
375.923	5.53
376.132	5.54
376.34	5.39
376.548	5.4
376.757	5.5
376.965	5.46
377.173	5.53
377.381	5.57
377.59	5.57
377.798	5.63
378.006	5.66
378.214	5.65
378.423	5.57
378.631	5.62
378.839	5.55
379.047	5.5
379.255	5.57
379.463	5.54
379.671	5.36
379.879	5.38
380.088	5.32
380.296	5.32
380.504	5.33
380.712	5.47
380.92	5.58
381.128	5.65
381.336	5.57
381.544	5.54
381.752	5.46
381.96	5.45
382.168	5.4
382.376	5.41
382.584	5.35
382.791	5.36
382.999	5.29
383.207	5.19
383.415	5.1
383.623	5.15
383.831	5.11
384.039	5.15
384.247	5.28
384.454	5.5
384.662	5.52
384.87	5.54
385.078	5.47
385.285	5.54
385.493	5.47
385.701	5.45
385.909	5.47
386.116	5.46
386.324	5.59
386.532	5.49
386.739	5.38
386.947	5.27
387.155	5.28
387.362	5.27
387.57	5.28
387.778	5.35
387.985	5.37
388.193	5.27
388.4	5.35
388.608	5.23
388.816	5.28
389.023	5.22
389.231	5.24
389.438	5.19
389.646	5.08
389.853	4.99
390.061	4.84
390.268	4.88
390.475	4.91
390.683	4.82
390.89	4.81
391.098	4.77
391.305	4.69
391.512	4.62
391.72	4.62
391.927	4.64
392.135	4.65
392.342	4.74
392.549	4.71
392.756	4.66
392.964	4.7
393.171	4.69
393.378	4.74
393.586	4.76
393.793	4.81
394	4.74
394.207	4.82
394.414	4.89
394.622	4.87
394.829	4.89
395.036	4.89
395.243	4.86
395.45	4.86
395.657	4.77
395.864	4.73
396.072	4.86
396.279	4.93
396.486	4.88
396.693	4.76
396.9	4.81
397.107	4.72
397.314	4.68
397.521	4.64
397.728	4.73
397.935	4.74
398.142	4.75
398.349	4.62
398.556	4.61
398.763	4.59
398.97	4.6
399.177	4.55
399.383	4.57
399.59	4.66
399.797	4.64
400.004	4.48
400.211	4.5
400.418	4.46
400.625	4.46
400.831	4.44
401.038	4.44
401.245	4.34
401.452	4.28
401.658	4.34
401.865	4.35
402.072	4.33
402.279	4.41
402.485	4.36
402.692	4.36
402.899	4.33
403.105	4.42
403.312	4.44
403.519	4.49
403.725	4.53
403.932	4.44
404.138	4.33
404.345	4.33
404.552	4.27
404.758	4.28
404.965	4.25
405.171	4.21
405.378	4.03
405.584	4.05
405.791	4.11
405.997	4.07
406.204	4.08
406.41	4.11
406.617	4.14
406.823	4.15
407.029	4.15
407.236	4.24
407.442	4.23
407.649	4.47
407.855	4.43
408.061	4.34
408.268	4.32
408.474	4.27
408.68	4.33
408.887	4.27
409.093	4.27
409.299	4.28
409.505	4.19
409.712	4.24
409.918	4.09
410.124	4.06
410.33	4.02
410.537	4.08
410.743	4.15
410.949	4.02
411.155	4.14
411.361	4.1
411.567	4.04
411.773	3.99
411.98	3.98
412.186	3.99
412.392	3.95
412.598	3.96
412.804	3.93
413.01	3.91
413.216	3.91
413.422	3.82
413.628	3.88
413.834	3.88
414.04	3.89
414.246	3.84
414.452	3.83
414.658	3.86
414.864	3.87
415.07	3.83
415.275	3.75
415.481	3.73
415.687	3.62
415.893	3.55
416.099	3.57
416.305	3.61
416.511	3.63
416.716	3.58
416.922	3.58
417.128	3.6
417.334	3.6
417.539	3.66
417.745	3.65
417.951	3.69
418.157	3.73
418.362	3.71
418.568	3.7
418.774	3.67
418.979	3.67
419.185	3.64
419.391	3.61
419.596	3.59
419.802	3.57
420.008	3.54
420.213	3.89
420.419	3.84
420.624	3.84
420.83	3.83
421.035	3.85
421.241	3.85
421.446	3.9
421.652	3.91
421.857	3.89
422.063	3.88
422.268	3.89
422.474	3.56
422.679	3.57
422.885	3.57
423.09	3.59
423.295	3.54
423.501	3.54
423.706	3.49
423.911	3.49
424.117	3.51
424.322	3.5
424.527	3.54
424.733	3.51
424.938	3.49
425.143	3.47
425.349	3.45
425.554	3.47
425.759	3.46
425.964	3.48
426.169	3.47
426.375	3.46
426.58	3.42
426.785	3.41
426.99	3.44
427.195	3.44
427.4	3.45
427.605	3.42
427.811	3.43
428.016	3.47
428.221	3.53
428.426	3.49
428.631	3.43
428.836	3.48
429.041	3.45
429.246	3.48
429.451	3.51
429.656	3.53
429.861	3.57
430.066	3.58
430.271	3.55
430.476	3.46
430.681	3.49
430.886	3.52
431.09	3.56
431.295	3.54
431.5	3.48
431.705	3.46
431.91	3.38
432.115	3.35
432.32	3.36
432.524	3.33
432.729	3.31
432.934	3.26
433.139	3.29
433.343	3.33
433.548	3.34
433.753	3.37
433.958	3.36
434.162	3.4
434.367	3.38
434.572	3.39
434.776	3.45
434.981	3.45
435.186	3.46
435.39	3.44
435.595	3.4
435.799	3.45
436.004	3.41
436.209	3.37
436.413	3.38
436.618	3.38
436.822	3.31
437.027	3.24
437.231	3.23
437.436	3.2
437.64	3.19
437.845	3.13
438.049	3.12
438.253	3.11
438.458	3.16
438.662	3.17
438.867	3.21
439.071	3.26
439.275	3.31
439.48	3.34
439.684	3.38
439.888	3.38
440.093	3.37
440.297	3.36
440.501	3.37
440.706	3.35
440.91	3.36
441.114	3.31
441.318	3.3
441.523	3.29
441.727	3.34
441.931	3.36
442.135	3.32
442.339	3.34
442.543	3.3
442.748	3.24
442.952	3.25
443.156	3.2
443.36	3.25
443.564	3.24
443.768	3.21
443.972	3.13
444.176	3.08
444.38	3.1
444.584	3.05
444.788	3.08
444.992	3.12
445.196	3.1
445.4	3.11
445.604	3.08
445.808	3.04
446.012	3.05
446.216	3.05
446.42	3.02
446.624	3.05
446.828	3.06
447.032	3.06
447.235	3.04
447.439	3.09
447.643	3.13
447.847	3.17
448.051	3.17
448.254	3.17
448.458	3.19
448.662	3.27
448.866	3.2
449.069	3.22
449.273	3.26
449.477	3.29
449.681	3.26
449.884	3.22
450.088	3.19
450.292	3.27
450.495	3.29
450.699	3.32
450.902	3.25
451.106	3.31
451.31	3.33
451.513	3.31
451.717	3.24
451.92	3.22
452.124	3.18
452.327	3.17
452.531	3.11
452.734	3.1
452.938	3.08
453.141	3.1
453.345	3.07
453.548	3.05
453.752	3
453.955	3.06
454.158	3.06
454.362	3.06
454.565	3.02
454.769	3.01
454.972	3.02
455.175	2.98
455.379	2.92
455.582	2.87
455.785	2.9
455.988	2.89
456.192	2.83
456.395	2.81
456.598	2.84
456.801	2.85
457.005	2.87
457.208	2.85
457.411	2.86
457.614	2.92
457.817	2.96
458.021	2.94
458.224	2.99
458.427	3.03
458.63	3.08
458.833	3.06
459.036	3.07
459.239	3.03
459.442	3.01
459.645	3.04
459.848	3.02
460.051	3
460.254	3
460.457	2.96
460.66	2.96
460.863	2.9
461.066	2.9
461.269	2.93
461.472	2.96
461.675	2.98
461.878	2.97
462.081	2.98
462.284	3.04
462.486	3.06
462.689	3.08
462.892	3.07
463.095	3.09
463.298	3.09
463.5	3.09
463.703	3.12
463.906	3.13
464.109	3.16
464.311	3.2
464.514	3.18
464.717	3.18
464.92	3.19
465.122	3.17
465.325	3.23
465.528	3.24
465.73	3.2
465.933	3.16
466.135	3.16
466.338	3.14
466.541	3.09
466.743	3.1
466.946	3.07
467.148	3.07
467.351	3.09
467.553	3.07
467.756	3.08
467.958	3.13
468.161	3.18
468.363	3.15
468.566	3.17
468.768	3.17
468.971	3.16
469.173	3.15
469.375	3.13
469.578	3.29
469.78	3.24
469.983	3.22
470.185	3.21
470.387	3.19
470.59	3.17
470.792	3.13
470.994	3.17
471.196	3.13
471.399	3.13
471.601	3.15
471.803	3
