Data from JASIL_3333_Reflection_2.txt Node
Date: Tue Nov 17 20:18:16 EST 2015
User: Geneva
Spectrometer: USB4E03002
Autoset integration time: false
Trigger mode: 4
Integration Time (sec): 1.000000E-1
Scans to average: 10
Electric dark correction enabled: false
Nonlinearity correction enabled: false
Boxcar width: 5
Stray light correction enabled: false
XAxis mode: Wavelengths
Stop averaging: false
Number of Pixels in Spectrum: 3648
>>>>>Begin Spectral Data<<<<<
177.575	-445.54
177.794	-641.3
178.014	-712.36
178.233	-1369.81
178.452	-1341.67
178.672	-746.46
178.891	-1679.31
179.11	9970
179.33	2089.13
179.549	1798.04
179.768	-9381.82
179.987	831.82
180.207	451.23
180.426	780.82
180.645	961.6
180.864	7194.12
181.084	769.28
181.303	602.68
181.522	763.22
181.741	765.73
181.96	1517.17
182.179	8735.29
182.398	-1781.82
182.618	-585.07
182.837	-548.57
183.056	-656.83
183.275	-634.44
183.494	-255.53
183.713	-207.33
183.932	-147.05
184.151	-114.31
184.37	-96.39
184.589	-115.3
184.808	-102.64
185.027	-103.07
185.246	-162.84
185.465	-144.8
185.684	-181.9
185.903	-283.5
186.122	-352.92
186.341	-903.54
186.56	-578.57
186.779	-3285.19
186.998	-443.92
187.216	-421.11
187.435	-506.67
187.654	-475.15
187.873	-346.43
188.092	-459.62
188.311	-595
188.53	-424.46
188.748	-161.73
188.967	-206.06
189.186	-140.41
189.405	-305.34
189.623	-250.63
189.842	-265.08
190.061	-233.66
190.28	-129.95
190.498	-161.2
190.717	-119.96
190.936	-116.67
191.154	-379.67
191.373	-942.53
191.592	1944.19
191.81	777.67
192.029	954.74
192.248	446.08
192.466	419.89
192.685	184.84
192.904	427.72
193.122	295.6
193.341	400.42
193.559	547.46
193.778	528.73
193.996	431.28
194.215	1143.48
194.433	566.43
194.652	502.8
194.87	448.12
195.089	486.15
195.307	789.47
195.526	-447.96
195.744	-325.18
195.963	-367.33
196.181	-481.82
196.399	-780.46
196.618	921.05
196.836	551.77
197.055	641.89
197.273	805.22
197.491	1027.93
197.71	523.41
197.928	485.43
198.146	444.52
198.365	2702.38
198.583	1680.95
198.801	-762.9
199.019	-263.08
199.238	-167.69
199.456	-119.9
199.674	-151.48
199.892	-151.46
200.111	-136.62
200.329	-151.34
200.547	-258.65
200.765	1890.2
200.983	-837.61
201.202	1376.32
201.42	440
201.638	326.05
201.856	465.81
202.074	735.33
202.292	385.71
202.51	355.56
202.728	437.99
202.946	3289.29
203.165	1421.15
203.383	325.27
203.601	453.3
203.819	611.82
204.037	-2178.79
204.255	-3325.93
204.473	-503.5
204.691	-437.06
204.909	-355.75
205.127	-1504.17
205.345	498.79
205.562	-628.68
205.78	-159.34
205.998	-146.4
206.216	-150.53
206.434	-218.32
206.652	-247.4
206.87	-557.49
207.088	-442.86
207.306	-546.24
207.523	-443.89
207.741	-303.37
207.959	-481.53
208.177	-501.04
208.395	-496.57
208.612	-544.44
208.83	-351.08
209.048	-358.31
209.266	-304.7
209.483	-185.46
209.701	-215.91
209.919	-195.75
210.136	-249.88
210.354	-257.21
210.572	-322.67
210.79	-391.33
211.007	-873.94
211.225	-7593.33
211.442	1915.25
211.66	5116
211.878	460.47
212.095	1126.18
212.313	1894.07
212.53	1035.55
212.748	890.84
212.966	648.7
213.183	763.81
213.401	-9211.11
213.618	-660.71
213.836	-544.71
214.053	-705.96
214.271	-521.47
214.488	-372.32
214.705	-274.48
214.923	-197.92
215.14	-112.89
215.358	-95.76
215.575	-107.96
215.793	-213.04
216.01	-584.83
216.227	-1038.79
216.445	-869.44
216.662	-466.38
216.879	-472.17
217.097	-288.95
217.314	-349.42
217.531	13537.5
217.749	1103.96
217.966	593.96
218.183	302.42
218.4	452.26
218.618	455.92
218.835	303.21
219.052	275.74
219.269	223.91
219.487	138.99
219.704	156.28
219.921	170
220.138	254.71
220.355	221.38
220.572	226.63
220.79	195.95
221.007	286.97
221.224	363.5
221.441	365.15
221.658	417.52
221.875	-2048.57
222.092	-913.64
222.309	2766.67
222.526	484.24
222.743	466.67
222.96	592.09
223.177	2086.05
223.394	1150
223.611	733.57
223.828	416.8
224.045	311.73
224.262	235.32
224.479	254.73
224.696	416.83
224.913	714.05
225.13	625.47
225.347	491.72
225.564	228.66
225.781	128.51
225.997	101.65
226.214	102.77
226.431	95.63
226.648	96.41
226.865	63.44
227.082	54.2
227.298	58.16
227.515	56.09
227.732	54.66
227.949	53.79
228.165	49.27
228.382	49.86
228.599	52.34
228.816	55.51
229.032	56.05
229.249	64.3
229.466	69.34
229.682	64.27
229.899	70.7
230.116	79.75
230.332	83.99
230.549	96.21
230.765	82.37
230.982	78.43
231.199	80.74
231.415	80.27
231.632	78.75
231.848	69.55
232.065	76.73
232.281	63.67
232.498	57.52
232.714	53.18
232.931	54.55
233.147	61.35
233.364	70.15
233.58	75.4
233.797	70.24
234.013	74.41
234.23	91.26
234.446	101.64
234.662	135.54
234.879	214.41
235.095	193.21
235.312	167.61
235.528	177.88
235.744	204.63
235.961	255.3
236.177	252.13
236.393	351.14
236.61	282.37
236.826	223.92
237.042	154.61
237.258	130.05
237.475	134.67
237.691	176.54
237.907	138.22
238.123	113.82
238.339	106.12
238.556	91.93
238.772	63.15
238.988	55.45
239.204	45.68
239.42	56.83
239.636	59.05
239.853	52.83
240.069	49.29
240.285	44.51
240.501	40.67
240.717	38.04
240.933	40.49
241.149	42.47
241.365	42.91
241.581	42.02
241.797	43.29
242.013	41.74
242.229	39.33
242.445	40.67
242.661	39.18
242.877	43.15
243.093	44.94
243.309	42.74
243.525	40.9
243.741	42.41
243.957	40.95
244.173	31.86
244.388	33.57
244.604	35.05
244.82	32.66
245.036	33.82
245.252	29.52
245.468	27.53
245.683	25.13
245.899	22.44
246.115	21.6
246.331	20.28
246.547	23.13
246.762	22.1
246.978	22.25
247.194	23.06
247.409	21.44
247.625	22.92
247.841	25.38
248.057	30
248.272	33.89
248.488	31.86
248.703	37.23
248.919	41.37
249.135	44.61
249.35	46.87
249.566	44.46
249.782	44.68
249.997	43.02
250.213	39.41
250.428	34.05
250.644	32.05
250.859	32.07
251.075	27.56
251.29	21.51
251.506	19.44
251.721	19.37
251.937	22.37
252.152	22.99
252.368	22.79
252.583	20.95
252.798	24.7
253.014	24.47
253.229	27.98
253.445	38.1
253.66	40.03
253.875	40.06
254.091	36.26
254.306	34.77
254.521	31.41
254.737	31.54
254.952	28.44
255.167	28.36
255.383	27.31
255.598	30.3
255.813	22.73
256.028	22.94
256.244	24.05
256.459	27.7
256.674	28.32
256.889	30.4
257.104	27.57
257.32	25.27
257.535	20.61
257.75	23.46
257.965	19.41
258.18	18.46
258.395	16.53
258.61	14.31
258.826	12.14
259.041	10.13
259.256	7.65
259.471	7.34
259.686	8.25
259.901	10.34
260.116	8.36
260.331	9.25
260.546	11.45
260.761	14.11
260.976	18.05
261.191	18.96
261.406	21.25
261.621	24.92
261.836	27.3
262.05	25.36
262.265	24.61
262.48	28.19
262.695	31.18
262.91	30.94
263.125	29.48
263.34	27.81
263.555	26.6
263.769	26.57
263.984	24.52
264.199	25.17
264.414	30.71
264.629	28.08
264.843	27.57
265.058	22.27
265.273	17.37
265.488	17.73
265.702	18.17
265.917	20.79
266.132	20.94
266.346	22.14
266.561	22.95
266.776	23.92
266.99	26.25
267.205	24.87
267.42	24.52
267.634	27
267.849	24.87
268.063	22.2
268.278	19.18
268.492	18.47
268.707	18.55
268.922	16.65
269.136	17.63
269.351	15.9
269.565	18.04
269.78	20.18
269.994	19.89
270.209	20.65
270.423	21.93
270.637	23.13
270.852	22.91
271.066	21.69
271.281	23.24
271.495	22.19
271.709	22.81
271.924	21.99
272.138	22.28
272.353	22.34
272.567	22.96
272.781	22.52
272.996	23.06
273.21	22.55
273.424	23.52
273.638	23.16
273.853	22.34
274.067	23.66
274.281	21.56
274.495	23.4
274.71	25.89
274.924	26.99
275.138	30.37
275.352	31.38
275.566	33.15
275.781	32.32
275.995	31.72
276.209	32.99
276.423	27.82
276.637	29.6
276.851	27.7
277.065	23.13
277.279	20.12
277.493	16.25
277.707	15.11
277.921	13.98
278.135	17.01
278.349	15.94
278.563	14.9
278.777	15.59
278.991	15.69
279.205	17.89
279.419	16.82
279.633	17.42
279.847	19.43
280.061	17.48
280.275	16.27
280.489	12.07
280.703	10.8
280.917	11.81
281.131	12.38
281.344	12.71
281.558	9.54
281.772	12.5
281.986	13.93
282.2	11.48
282.414	14.11
282.627	14.85
282.841	15.33
283.055	14.48
283.269	13.48
283.482	15.17
283.696	14.74
283.91	15.87
284.123	15.89
284.337	16.63
284.551	17.52
284.764	15.66
284.978	14.17
285.192	16.23
285.405	17.44
285.619	18.51
285.833	17.31
286.046	17.83
286.26	17
286.473	17.61
286.687	15.63
286.9	16.22
287.114	17.41
287.327	18.41
287.541	16.1
287.754	16.88
287.968	15.78
288.181	16.44
288.395	15.46
288.608	16.22
288.822	14.17
289.035	16.09
289.248	15.68
289.462	14.73
289.675	15.13
289.889	16.83
290.102	15.98
290.315	16.32
290.529	16.71
290.742	17.24
290.955	18.97
291.169	20.87
291.382	19.64
291.595	20.29
291.808	21.51
292.022	22.2
292.235	20.84
292.448	20.41
292.661	21.18
292.875	21.14
293.088	20.87
293.301	18.73
293.514	16.94
293.727	17.45
293.94	15.75
294.153	15.17
294.367	15.49
294.58	14.7
294.793	14.5
295.006	13.24
295.219	12.23
295.432	10.49
295.645	11.79
295.858	12.4
296.071	11.95
296.284	13.12
296.497	13.17
296.71	13.95
296.923	14.6
297.136	15.15
297.349	15.21
297.562	15.85
297.775	16.98
297.988	15.13
298.201	14.16
298.414	14.66
298.626	13.1
298.839	12.39
299.052	12.2
299.265	14.37
299.478	15.26
299.691	16.55
299.903	15.4
300.116	15.41
300.329	14.94
300.542	17.39
300.755	17.02
300.967	17.3
301.18	17.72
301.393	16.99
301.605	14.94
301.818	15.07
302.031	14.77
302.243	14.09
302.456	14.36
302.669	15.2
302.881	14.8
303.094	14.42
303.307	14.91
303.519	14.98
303.732	15.27
303.944	16.67
304.157	17.59
304.37	18.92
304.582	21.14
304.795	21.75
305.007	21.13
305.22	19.07
305.432	19.99
305.645	21.41
305.857	21.8
306.069	19.41
306.282	18.16
306.494	16.04
306.707	15.62
306.919	13.99
307.132	13.3
307.344	15.52
307.556	16.1
307.769	15.4
307.981	15.29
308.193	15.18
308.406	16.84
308.618	14.76
308.83	14.24
309.043	12.54
309.255	13.78
309.467	14.29
309.679	12.87
309.892	13.04
310.104	13.97
310.316	14.18
310.528	14.49
310.74	13.85
310.953	15.36
311.165	16.01
311.377	17.94
311.589	18.07
311.801	17.76
312.013	16.85
312.225	17.44
312.437	16.43
312.649	14.9
312.862	15.58
313.074	14.66
313.286	15.71
313.498	15.59
313.71	13.82
313.922	13.61
314.134	12.43
314.346	15.03
314.558	14.77
314.77	15.18
314.982	17.39
315.193	16
315.405	17.97
315.617	15.84
315.829	15.88
316.041	17.55
316.253	15.81
316.465	18.46
316.677	16.84
316.888	18.11
317.1	17.19
317.312	16.77
317.524	18.05
317.736	17.25
317.947	19.68
318.159	21.67
318.371	20.29
318.583	22.61
318.794	21.73
319.006	23.05
319.218	22.13
319.43	22.74
319.641	22.03
319.853	22.03
320.064	20.94
320.276	20.57
320.488	18.01
320.699	18.67
320.911	16.29
321.123	15.76
321.334	15.84
321.546	16.21
321.757	17.91
321.969	18.51
322.18	17.34
322.392	18.93
322.603	19.32
322.815	20.84
323.026	19.58
323.238	21
323.449	20.39
323.661	18.73
323.872	17.65
324.083	17.75
324.295	15.87
324.506	17.3
324.718	16.15
324.929	15.81
325.14	17.47
325.352	17.17
325.563	18.07
325.774	17.52
325.986	18.78
326.197	19.52
326.408	19.3
326.62	20.07
326.831	18.51
327.042	20.42
327.253	20.28
327.464	18.17
327.676	18.55
327.887	16.85
328.098	18.25
328.309	18.37
328.52	18.36
328.732	18.1
328.943	19.23
329.154	19.99
329.365	18.08
329.576	18.13
329.787	20.55
329.998	21.09
330.209	22.54
330.42	22.52
330.631	22.84
330.842	23.08
331.053	22.58
331.264	23.73
331.475	24.55
331.686	27.29
331.897	26.32
332.108	25.06
332.319	24.85
332.53	24.62
332.741	24.3
332.952	23.56
333.163	24.4
333.374	25.57
333.585	23.25
333.795	23.99
334.006	22.16
334.217	23.81
334.428	22.21
334.639	21.91
334.849	23.47
335.06	25.49
335.271	27.01
335.482	26.3
335.692	26.21
335.903	26.38
336.114	25.98
336.325	25.56
336.535	25.48
336.746	26.8
336.957	26.96
337.167	24.88
337.378	24.57
337.589	23.44
337.799	23.41
338.01	22.92
338.22	23.21
338.431	21.92
338.642	22.64
338.852	21.59
339.063	20.65
339.273	21.86
339.484	22.39
339.694	21.32
339.905	20.76
340.115	20.62
340.326	19.45
340.536	19.48
340.746	19.76
340.957	18.73
341.167	19.67
341.378	20.28
341.588	20.19
341.799	20.24
342.009	19.18
342.219	20.26
342.43	20.6
342.64	20.66
342.85	20.5
343.061	20.25
343.271	22.42
343.481	21.04
343.691	21.07
343.902	21.03
344.112	21.78
344.322	22.27
344.532	22.62
344.743	23.28
344.953	23.86
345.163	23.25
345.373	23.77
345.583	22.85
345.793	23.65
346.004	24.23
346.214	23.71
346.424	22.88
346.634	23.58
346.844	22.47
347.054	21.08
347.264	21.15
347.474	21.11
347.684	20.69
347.894	20.29
348.104	19.25
348.314	18.54
348.524	17.93
348.734	19.03
348.944	17.74
349.154	18.06
349.364	18.58
349.574	18.14
349.784	18.6
349.994	18.12
350.204	17.66
350.413	17.72
350.623	17.1
350.833	18.37
351.043	17.3
351.253	18.68
351.463	17.59
351.672	18.45
351.882	17.58
352.092	18.4
352.302	19.58
352.511	20.23
352.721	21.07
352.931	20.87
353.141	20.19
353.35	20.45
353.56	19.15
353.77	20.56
353.979	19.59
354.189	21.06
354.399	19.76
354.608	18.21
354.818	17.66
355.027	17.62
355.237	16.92
355.447	17.54
355.656	16.57
355.866	17.14
356.075	18.18
356.285	18.09
356.494	17.3
356.704	18.59
356.913	19.45
357.123	19.34
357.332	18.85
357.542	20.34
357.751	19.88
357.96	19.91
358.17	20.03
358.379	18.18
358.589	18.22
358.798	18.95
359.007	18.55
359.217	18.81
359.426	18.36
359.635	18.03
359.845	17.57
360.054	16.42
360.263	16.68
360.472	16.49
360.682	17.01
360.891	17.16
361.1	17.2
361.309	17.77
361.519	17.11
361.728	17.93
361.937	18.65
362.146	18.45
362.355	18.93
362.564	18.77
362.774	19.58
362.983	19.37
363.192	19.87
363.401	19.79
363.61	19.12
363.819	20.13
364.028	20.3
364.237	19.36
364.446	18.63
364.655	17.91
364.864	18.59
365.073	18.45
365.282	17.08
365.491	16.59
365.7	17.27
365.909	16.44
366.118	16.78
366.327	16.12
366.536	16.37
366.745	16.77
366.954	17.64
367.162	17.14
367.371	17.29
367.58	19.21
367.789	18.85
367.998	18.06
368.207	16.99
368.415	15.91
368.624	15.61
368.833	16.07
369.042	16.81
369.25	17.19
369.459	17.2
369.668	15.97
369.877	16.16
370.085	16.54
370.294	16.31
370.503	17.92
370.711	17.22
370.92	17.64
371.129	16.85
371.337	16.85
371.546	16.21
371.754	16.16
371.963	16.51
372.171	14.98
372.38	14.5
372.589	14.09
372.797	12.74
373.006	13.73
373.214	12.98
373.423	12.95
373.631	12.9
373.84	12.53
374.048	13.1
374.256	13.48
374.465	14.66
374.673	15.09
374.882	14.49
375.09	15.26
375.298	15.45
375.507	15.45
375.715	16.16
375.923	16.7
376.132	17.56
376.34	16.5
376.548	16.35
376.757	16.14
376.965	15.92
377.173	16.8
377.381	17.4
377.59	16.45
377.798	16.67
378.006	16.34
378.214	16.12
378.423	15.55
378.631	15.7
378.839	15.29
379.047	16.25
379.255	16.84
379.463	15.94
379.671	15.62
379.879	16.37
380.088	16.75
380.296	17.53
380.504	17.27
380.712	17.68
380.92	17.64
381.128	18.4
381.336	16.79
381.544	15.95
381.752	15.79
381.96	14.99
382.168	13.65
382.376	13.57
382.584	13.29
382.791	13.29
382.999	12.59
383.207	13.34
383.415	13.11
383.623	13.64
383.831	14.07
384.039	14.91
384.247	15.42
384.454	16.64
384.662	16.55
384.87	16.46
385.078	16.42
385.285	16.8
385.493	16.87
385.701	16.13
385.909	16.16
386.116	16.43
386.324	15.99
386.532	15.46
386.739	14.88
386.947	14.98
387.155	14.72
387.362	14.24
387.57	14.1
387.778	12.49
387.985	11.7
388.193	12.23
388.4	11.67
388.608	12.04
388.816	12.71
389.023	13.35
389.231	13.46
389.438	13.63
389.646	13.88
389.853	14.75
390.061	15.36
390.268	15.59
390.475	14.73
390.683	14.51
390.89	14.13
391.098	14.49
391.305	14.23
391.512	14.04
391.72	13.62
391.927	14.03
392.135	12.98
392.342	12.93
392.549	13.12
392.756	13.49
392.964	13.33
393.171	14.04
393.378	13.51
393.586	13.36
393.793	13.18
394	13.36
394.207	12.29
394.414	13.15
394.622	13.67
394.829	14.29
395.036	14.17
395.243	14.49
395.45	14.38
395.657	14.43
395.864	14.68
396.072	15.29
396.279	15.67
396.486	15.99
396.693	15.64
396.9	15.46
397.107	15.68
397.314	15.23
397.521	15.26
397.728	14.32
397.935	14.1
398.142	14.12
398.349	13.25
398.556	12.56
398.763	13.07
398.97	13.19
399.177	13.09
399.383	12.46
399.59	13.14
399.797	12.99
400.004	14.6
400.211	14.71
400.418	14.18
400.625	14.3
400.831	14.91
401.038	14.29
401.245	14.75
401.452	14.97
401.658	15.71
401.865	15.28
402.072	15.3
402.279	14.34
402.485	14.72
402.692	15.01
402.899	14.7
403.105	14.37
403.312	14.75
403.519	14.47
403.725	13.87
403.932	13.58
404.138	14.17
404.345	14.27
404.552	14.82
404.758	14.76
404.965	14.95
405.171	15.37
405.378	15.78
405.584	16.08
405.791	15.86
405.997	16.43
406.204	16.79
406.41	16.45
406.617	16.4
406.823	15.62
407.029	15.19
407.236	15.22
407.442	14.84
407.649	15.19
407.855	14.75
408.061	14.58
408.268	14.99
408.474	15.11
408.68	14.97
408.887	15.27
409.093	15.96
409.299	16.41
409.505	16.26
409.712	17.42
409.918	16.89
410.124	16.69
410.33	16.97
410.537	16.54
410.743	15.77
410.949	16.19
411.155	15.53
411.361	15.01
411.567	14.18
411.773	14.64
411.98	14.03
412.186	14.53
412.392	15.04
412.598	15.03
412.804	15.07
413.01	15.59
413.216	15.25
413.422	15.08
413.628	16.08
413.834	16.85
414.04	16.11
414.246	15.74
414.452	14.85
414.658	14.22
414.864	14.59
415.07	14.73
415.275	14.34
415.481	14.57
415.687	15.08
415.893	14.59
416.099	14.47
416.305	14.45
416.511	14.37
416.716	14.64
416.922	15.28
417.128	14.82
417.334	14.89
417.539	15.09
417.745	15.28
417.951	15.07
418.157	15.48
418.362	15.54
418.568	15.53
418.774	15.37
418.979	15.34
419.185	14.98
419.391	14.99
419.596	14.69
419.802	14.73
420.008	14.2
420.213	14.44
420.419	14
420.624	13.94
420.83	14.22
421.035	14.42
421.241	14.46
421.446	14.68
421.652	14.9
421.857	15.41
422.063	15.07
422.268	15.36
422.474	14.92
422.679	14.85
422.885	14.65
423.09	14.46
423.295	14.42
423.501	14.2
423.706	14.01
423.911	13.74
424.117	13.33
424.322	13.49
424.527	13.45
424.733	14.12
424.938	13.94
425.143	14.16
425.349	14.05
425.554	14.16
425.759	14.7
425.964	14.7
426.169	14.69
426.375	14.81
426.58	15.11
426.785	15.17
426.99	14.76
427.195	15.29
427.4	15.39
427.605	15.78
427.811	16.04
428.016	15.63
428.221	15.92
428.426	16.54
428.631	16.56
428.836	16.18
429.041	15.94
429.246	15.82
429.451	15.48
429.656	15.36
429.861	15.03
430.066	14.89
430.271	15.44
430.476	15.14
430.681	14.51
430.886	14.49
431.09	14.52
431.295	14.49
431.5	14.96
431.705	14.97
431.91	14.83
432.115	14.92
432.32	14.76
432.524	14.07
432.729	14.11
432.934	14.33
433.139	14.29
433.343	14.26
433.548	14.51
433.753	13.84
433.958	13.78
434.162	14.37
434.367	14.39
434.572	14.19
434.776	14.48
434.981	14.75
435.186	14.76
435.39	14.83
435.595	14.57
435.799	14.32
436.004	14.41
436.209	15.02
436.413	14.23
436.618	14.01
436.822	14.72
437.027	14.91
437.231	14.66
437.436	14.5
437.64	14.59
437.845	14.65
438.049	14.46
438.253	14.38
438.458	13.87
438.662	14.22
438.867	14.36
439.071	14.08
439.275	14.03
439.48	14.19
439.684	14.52
439.888	14.67
440.093	14.49
440.297	14.72
440.501	15.34
440.706	15.47
440.91	15.55
441.114	15.61
441.318	15.66
441.523	15.56
441.727	15.21
441.931	15.21
442.135	15.07
442.339	15.22
442.543	15.28
442.748	14.83
442.952	14.71
443.156	14.27
443.36	14.09
443.564	13.9
443.768	13.96
443.972	14.67
444.176	14.53
444.38	14.03
444.584	14
444.788	13.55
444.992	13.39
445.196	13.32
445.4	13.29
445.604	13.22
445.808	13.27
446.012	12.9
446.216	12.24
446.42	12.15
446.624	12.57
446.828	12.86
447.032	13.11
447.235	13.22
447.439	13.12
447.643	13.46
447.847	13.58
448.051	13.46
448.254	13.81
448.458	14.11
448.662	14.07
448.866	13.87
449.069	13.62
449.273	13.54
449.477	13.63
449.681	13.8
449.884	13.76
450.088	13.57
450.292	13.47
450.495	13.39
450.699	13.58
450.902	13.58
451.106	13.29
451.31	13.58
451.513	13.92
