Data from JASIL_3234_Reflection_1.txt Node
Date: Mon Nov 16 20:04:16 EST 2015
User: Geneva
Spectrometer: USB4E03002
Autoset integration time: false
Trigger mode: 4
Integration Time (sec): 1.000000E-1
Scans to average: 10
Electric dark correction enabled: false
Nonlinearity correction enabled: false
Boxcar width: 5
Stray light correction enabled: false
XAxis mode: Wavelengths
Stop averaging: false
Number of Pixels in Spectrum: 3648
>>>>>Begin Spectral Data<<<<<
177.575	1166.67
177.794	1984.85
178.014	1095.45
178.233	1018.13
178.452	720
178.672	1277.5
178.891	1592.31
179.11	1242.68
179.33	1288.57
179.549	828.57
179.768	906.93
179.987	580.68
180.207	475.16
180.426	713.39
180.645	789.23
180.864	894.84
181.084	599.75
181.303	644.14
181.522	774.46
181.741	614.36
181.96	543.11
182.179	688.4
182.398	934.07
182.618	3598.53
182.837	2940.74
183.056	2642.7
183.275	1541.87
183.494	3052
183.713	1359.14
183.932	776.07
184.151	1116.04
184.37	1185.05
184.589	1052.05
184.808	1053.81
185.027	651.58
185.246	520.09
185.465	543.98
185.684	1030.88
185.903	753.87
186.122	862.95
186.341	3471.87
186.56	1547.33
186.779	-3022.08
186.998	-2393.94
187.216	-1404.65
187.435	-6009.76
187.654	-3277.33
187.873	-4275
188.092	-6225
188.311	-22770
188.53	-2163.27
188.748	3178.38
188.967	-3659.02
189.186	2596.05
189.405	1208.82
189.623	996.65
189.842	1853.33
190.061	2850.72
190.28	1219.88
190.498	1499.22
190.717	2822.06
190.936	2031.68
191.154	4802.33
191.373	2734.18
191.592	2521.11
191.81	2935.14
192.029	2276.09
192.248	-5061.54
192.466	-5876.47
192.685	-784.72
192.904	-1184.97
193.122	-808.37
193.341	-1973.33
193.559	-1098.7
193.778	-1473.68
193.996	3611.32
194.215	-3619.57
194.433	-813.02
194.652	-804.35
194.87	-758.91
195.089	-1350.45
195.307	-840
195.526	-1118.37
195.744	-744.75
195.963	-586.13
196.181	-455.06
196.399	-261.86
196.618	-236.2
196.836	-547.88
197.055	-550
197.273	-30050
197.491	-5690.91
197.71	1426.09
197.928	4602.5
198.146	2985.71
198.365	1327.92
198.583	719.64
198.801	519.52
199.019	346.38
199.238	479.28
199.456	429.45
199.674	652.98
199.892	600.86
200.111	653.61
200.329	516.28
200.547	643.96
200.765	971
200.983	6700
201.202	-1769.23
201.42	-1411.9
201.638	-3080.33
201.856	8023.08
202.074	1997.2
202.292	4641.3
202.51	-3477.59
202.728	3587.27
202.946	1998.13
203.165	1090.91
203.383	1028.37
203.601	833.09
203.819	1464.86
204.037	3075.34
204.255	6167.65
204.473	-3377.42
204.691	-9204.55
204.909	-12082.35
205.127	-1750.83
205.345	4960.47
205.562	1482.43
205.78	901.97
205.998	731.35
206.216	591.79
206.434	654.24
206.652	619
206.87	739.37
207.088	567.62
207.306	811.22
207.523	1321.86
207.741	3931.58
207.959	13875
208.177	-6369.44
208.395	-1313.94
208.612	-1744.26
208.83	1849.57
209.048	1909.57
209.266	214800
209.483	-2090.29
209.701	11295
209.919	1689.68
210.136	766.45
210.354	529.22
210.572	395.46
210.79	317.11
211.007	326.67
211.225	400
211.442	385.39
211.66	296.32
211.878	323.84
212.095	342.86
212.313	336.17
212.53	446.58
212.748	508.38
212.966	632.87
213.183	852.29
213.401	738.75
213.618	816.03
213.836	686.02
214.053	744.14
214.271	467.09
214.488	398.74
214.705	465.57
214.923	362.64
215.14	667.9
215.358	501.25
215.575	623.1
215.793	614.15
216.01	395.31
216.227	498.29
216.445	509.73
216.662	640.12
216.879	658.06
217.097	398.01
217.314	389.27
217.531	313.82
217.749	353.48
217.966	329.59
218.183	380.03
218.4	814.39
218.618	577.94
218.835	513.71
219.052	491.45
219.269	532.91
219.487	1411.49
219.704	1931.07
219.921	1013
220.138	884.16
220.355	534.37
220.572	922.22
220.79	586.49
221.007	694.16
221.224	688.33
221.441	1069.19
221.658	924.77
221.875	881.48
222.092	1374.84
222.309	35300
222.526	2220.2
222.743	4759.52
222.96	1085.87
223.177	383.78
223.394	376.98
223.611	369.19
223.828	381.72
224.045	324.57
224.262	243.67
224.479	237.6
224.696	211.53
224.913	203.37
225.13	207.06
225.347	162.07
225.564	186.64
225.781	170.28
225.997	153.94
226.214	126.28
226.431	113.24
226.648	105.44
226.865	100.46
227.082	91.89
227.298	83.65
227.515	75.65
227.732	69.32
227.949	62.43
228.165	57.1
228.382	53.8
228.599	49.7
228.816	50.83
229.032	52.82
229.249	48.06
229.466	43.77
229.682	44.45
229.899	44.85
230.116	52.53
230.332	55.2
230.549	53.72
230.765	57.57
230.982	60.04
231.199	58.72
231.415	64.11
231.632	76.38
231.848	85.33
232.065	87.05
232.281	92.88
232.498	90.59
232.714	106.1
232.931	105.92
233.147	107.76
233.364	110.15
233.58	105.12
233.797	96.82
234.013	87.43
234.23	85.22
234.446	86.4
234.662	86.29
234.879	92.05
235.095	78.67
235.312	75.73
235.528	75.21
235.744	76.96
235.961	84.54
236.177	91.07
236.393	92.97
236.61	94.08
236.826	96.31
237.042	97.21
237.258	94.2
237.475	104.88
237.691	106.23
237.907	103.92
238.123	98.26
238.339	88.61
238.556	79.23
238.772	82.45
238.988	80.5
239.204	70.55
239.42	70.44
239.636	67.98
239.853	60.51
240.069	58.21
240.285	54.58
240.501	55.17
240.717	53.97
240.933	55.71
241.149	50.29
241.365	48.4
241.581	46.77
241.797	42.76
242.013	40.05
242.229	39.96
242.445	40.63
242.661	39.02
242.877	38.62
243.093	39.05
243.309	37.76
243.525	40.61
243.741	40.94
243.957	43.46
244.173	42.83
244.388	43.59
244.604	43.31
244.82	41.77
245.036	40.09
245.252	37.17
245.468	35.93
245.683	33.99
245.899	30.46
246.115	28.55
246.331	26.62
246.547	26.29
246.762	25.88
246.978	25.82
247.194	25.76
247.409	26.19
247.625	26.06
247.841	24.81
248.057	24.71
248.272	27.14
248.488	28.04
248.703	29.01
248.919	31.05
249.135	31.35
249.35	34.03
249.566	35.63
249.782	38.06
249.997	39.2
250.213	40.7
250.428	42.32
250.644	39.86
250.859	41.43
251.075	44.5
251.29	42.99
251.506	42.01
251.721	41.22
251.937	40.11
252.152	39.31
252.368	39.1
252.583	40.92
252.798	40.24
253.014	42.33
253.229	42.16
253.445	40.95
253.66	42.09
253.875	45.01
254.091	45.7
254.306	49.68
254.521	52.19
254.737	54.22
254.952	50.8
255.167	53.45
255.383	53.04
255.598	52.24
255.813	53.36
256.028	53.99
256.244	52.95
256.459	49.38
256.674	45.61
256.889	44.16
257.104	41.34
257.32	40.49
257.535	36.3
257.75	34.44
257.965	33.64
258.18	30.49
258.395	28.19
258.61	27.44
258.826	26.27
259.041	24.99
259.256	22.39
259.471	21.27
259.686	20.45
259.901	20.6
260.116	19.98
260.331	19.15
260.546	20.28
260.761	20.92
260.976	21.19
261.191	22.93
261.406	23.24
261.621	26.41
261.836	27.07
262.05	29.7
262.265	32.1
262.48	32.05
262.695	34.54
262.91	34.57
263.125	33.61
263.34	32.09
263.555	31.32
263.769	30.78
263.984	31.11
264.199	34.15
264.414	32.3
264.629	31.54
264.843	31.62
265.058	31.66
265.273	29.64
265.488	27.37
265.702	27.17
265.917	26.51
266.132	27.36
266.346	26.95
266.561	25.99
266.776	25.34
266.99	24.95
267.205	25.1
267.42	23.9
267.634	23.21
267.849	25.31
268.063	24.44
268.278	23.68
268.492	22.48
268.707	21.66
268.922	22.41
269.136	22.1
269.351	23.82
269.565	25.59
269.78	24.34
269.994	25.78
270.209	26.07
270.423	26
270.637	24.93
270.852	25.63
271.066	23.62
271.281	23.06
271.495	23.8
271.709	21.06
271.924	19.22
272.138	20.67
272.353	20.15
272.567	20.13
272.781	20.98
272.996	22.8
273.21	23.6
273.424	25.38
273.638	27.14
273.853	27.82
274.067	29
274.281	29.22
274.495	28.61
274.71	27.96
274.924	27.68
275.138	27.18
275.352	29.07
275.566	27.74
275.781	28.1
275.995	25.6
276.209	24.49
276.423	25.01
276.637	26.46
276.851	25.63
277.065	25.9
277.279	26.68
277.493	27.1
277.707	23.75
277.921	24.15
278.135	23.93
278.349	24.02
278.563	25.18
278.777	23.78
278.991	25.32
279.205	25.85
279.419	26.56
279.633	26.79
279.847	26.85
280.061	25.77
280.275	23.83
280.489	23.4
280.703	23.13
280.917	21.77
281.131	21.52
281.344	20.88
281.558	20.69
281.772	21.17
281.986	21.46
282.2	21.16
282.414	21.96
282.627	23.24
282.841	24.84
283.055	25.11
283.269	24.51
283.482	25
283.696	23.08
283.91	23.39
284.123	22.24
284.337	20.96
284.551	21.12
284.764	20.45
284.978	20.56
285.192	18.5
285.405	19.38
285.619	20.51
285.833	20.91
286.046	21.83
286.26	21.34
286.473	21.82
286.687	21.98
286.9	21.39
287.114	23.32
287.327	23.08
287.541	23.96
287.754	23.64
287.968	23.49
288.181	23.39
288.395	22.81
288.608	23.27
288.822	22
289.035	21.78
289.248	22.18
289.462	21.53
289.675	20.82
289.889	20.7
290.102	20.54
290.315	20.43
290.529	20.55
290.742	21.71
290.955	21.88
291.169	22.33
291.382	24.5
291.595	25.2
291.808	26.16
292.022	25.43
292.235	26.28
292.448	26.24
292.661	26.08
292.875	25.75
293.088	25.72
293.301	26.12
293.514	26.09
293.727	25.05
293.94	24.2
294.153	22.85
294.367	23.62
294.58	22.56
294.793	21.06
295.006	21.28
295.219	20.68
295.432	19.64
295.645	18.77
295.858	19.47
296.071	18.74
296.284	18.3
296.497	18.54
296.71	19.2
296.923	19.19
297.136	20.36
297.349	20.4
297.562	20.45
297.775	20.53
297.988	20.59
298.201	20.09
298.414	20.37
298.626	20.81
298.839	21.18
299.052	21.13
299.265	21.64
299.478	20.98
299.691	21.5
299.903	21.67
300.116	21.99
300.329	22.27
300.542	22.27
300.755	23.23
300.967	23.94
301.18	22.57
301.393	22.81
301.605	23.01
301.818	23.39
302.031	22.2
302.243	22.51
302.456	22.65
302.669	23.88
302.881	23.76
303.094	22.4
303.307	21.62
303.519	23.11
303.732	24.01
303.944	23.79
304.157	25.27
304.37	26.02
304.582	27.38
304.795	27.37
305.007	26.55
305.22	26.38
305.432	27.38
305.645	28.83
305.857	29.47
306.069	26.68
306.282	25.82
306.494	22.46
306.707	22.19
306.919	20.78
307.132	20.34
307.344	20.59
307.556	20.83
307.769	19.79
307.981	18.85
308.193	18.7
308.406	19.12
308.618	20.54
308.83	21.57
309.043	20.96
309.255	21.33
309.467	22.94
309.679	22.9
309.892	22.26
310.104	22.42
310.316	21.76
310.528	21.1
310.74	21.92
310.953	21.61
311.165	21.58
311.377	21.99
311.589	21.79
311.801	20.99
312.013	21.57
312.225	22.56
312.437	23.5
312.649	24.71
312.862	24.44
313.074	25.76
313.286	26.81
313.498	28.6
313.71	28.29
313.922	29.04
314.134	28.23
314.346	28.53
314.558	28.32
314.77	27.93
314.982	27.65
315.193	29.56
315.405	28.74
315.617	27.67
315.829	27.23
316.041	28.57
316.253	27.95
316.465	28.58
316.677	28.22
316.888	28.86
317.1	28.89
317.312	28.62
317.524	28.84
317.736	27.58
317.947	28.29
318.159	28.85
318.371	28.73
318.583	30.33
318.794	30.26
319.006	30.53
319.218	30.72
319.43	30.86
319.641	30.4
319.853	28.85
320.064	31.2
320.276	31.1
320.488	30.23
320.699	29.83
320.911	28.35
321.123	29.18
321.334	28.25
321.546	28.84
321.757	28.4
321.969	29.89
322.18	28.15
322.392	27.04
322.603	26.45
322.815	27.05
323.026	27.74
323.238	26.69
323.449	26.17
323.661	27.17
323.872	26.4
324.083	26.61
324.295	25.63
324.506	26.61
324.718	26.62
324.929	26.63
325.14	25.45
325.352	25.79
325.563	27.18
325.774	26.37
325.986	25.7
326.197	25.64
326.408	26.54
326.62	26.69
326.831	27.14
327.042	27.14
327.253	27.01
327.464	27.97
327.676	26.94
327.887	26.88
328.098	28.33
328.309	28.3
328.52	27.07
328.732	25.81
328.943	25.82
329.154	24.55
329.365	26.17
329.576	27
329.787	27.82
329.998	27.96
330.209	27.64
330.42	27.69
330.631	28.68
330.842	29.91
331.053	29.66
331.264	29.4
331.475	30.66
331.686	30.15
331.897	29.01
332.108	28.29
332.319	29.85
332.53	30.09
332.741	29.5
332.952	28.99
333.163	29.4
333.374	30.19
333.585	30.14
333.795	29.9
334.006	30.76
334.217	31.61
334.428	31.98
334.639	32.13
334.849	31.86
335.06	30.84
335.271	31.03
335.482	31.8
335.692	31.93
335.903	32.57
336.114	32.15
336.325	31.69
336.535	31.76
336.746	32.36
336.957	32
337.167	31.78
337.378	33.47
337.589	34.28
337.799	33.87
338.01	34.18
338.22	35.08
338.431	34.78
338.642	34.33
338.852	35.18
339.063	33.4
339.273	31.83
339.484	33.08
339.694	31.65
339.905	31.19
340.115	30.94
340.326	30.56
340.536	29.89
340.746	29.92
340.957	28.71
341.167	28.39
341.378	29.91
341.588	30.61
341.799	30.9
342.009	30.74
342.219	29.68
342.43	29.66
342.64	29.96
342.85	28.83
343.061	29.15
343.271	30.53
343.481	29.63
343.691	28.46
343.902	28.64
344.112	26.73
344.322	26.94
344.532	27.41
344.743	27.47
344.953	26.04
345.163	27.22
345.373	28.28
345.583	27.99
345.793	27.49
346.004	27.63
346.214	26.94
346.424	27.35
346.634	27.18
346.844	28.14
347.054	28.87
347.264	29.95
347.474	29.19
347.684	29.05
347.894	29.32
348.104	28.63
348.314	28.84
348.524	28.54
348.734	29.13
348.944	30.57
349.154	29.35
349.364	28.18
349.574	27.45
349.784	28.27
349.994	28.23
350.204	27.42
350.413	28
350.623	28.47
350.833	29.45
351.043	28.85
351.253	27.42
351.463	27.23
351.672	28.38
351.882	28.8
352.092	28.19
352.302	28.32
352.511	27.71
352.721	27.76
352.931	27.4
353.141	27.54
353.35	27.1
353.56	27.06
353.77	26.64
353.979	26.13
354.189	25.8
354.399	25.94
354.608	24.12
354.818	24.88
355.027	24.7
355.237	25.22
355.447	24.42
355.656	24.42
355.866	24.5
356.075	24.34
356.285	23.02
356.494	23.05
356.704	23.06
356.913	23.57
357.123	23.14
357.332	23.24
357.542	22.54
357.751	22.75
357.96	22.93
358.17	23.13
358.379	23.65
358.589	23.91
358.798	23.48
359.007	22.29
359.217	22.97
359.426	22.11
359.635	21.9
359.845	21.13
360.054	21.04
360.263	21.03
360.472	20.99
360.682	20.35
360.891	20.72
361.1	20.78
361.309	21.4
361.519	20.22
361.728	20.97
361.937	21.32
362.146	21.62
362.355	21.07
362.564	20.98
362.774	21.1
362.983	21.87
363.192	20.77
363.401	20.54
363.61	20.26
363.819	20.64
364.028	19.66
364.237	19.72
364.446	20.88
364.655	21.49
364.864	21.1
365.073	20.65
365.282	19.84
365.491	20.88
365.7	21.41
365.909	21.62
366.118	21.83
366.327	22.6
366.536	21.99
366.745	21.43
366.954	21.15
367.162	21.38
367.371	20.98
367.58	21.74
367.789	21.34
367.998	21.89
368.207	22.19
368.415	22.52
368.624	22.18
368.833	22.36
369.042	21.94
369.25	21.8
369.459	22.13
369.668	24.18
369.877	23.27
370.085	23.71
370.294	22.82
370.503	23
370.711	22.37
370.92	22.46
371.129	22.69
371.337	22.58
371.546	22.24
371.754	22.65
371.963	21.38
372.171	21.59
372.38	21.41
372.589	21.93
372.797	21.2
373.006	21.46
373.214	22.02
373.423	22.31
373.631	22.64
373.84	23.67
374.048	24.09
374.256	23.9
374.465	24.24
374.673	23.67
374.882	22.74
375.09	22.58
375.298	22.26
375.507	22.51
375.715	22.07
375.923	21.37
376.132	21.14
376.34	20.2
376.548	19.72
376.757	19.85
376.965	20.53
377.173	20.94
377.381	21.36
377.59	22.38
377.798	21.97
378.006	21.71
378.214	22.34
378.423	22.26
378.631	22.07
378.839	22.54
379.047	22.74
379.255	22.34
379.463	22.32
379.671	22.45
379.879	21.59
380.088	21.27
380.296	21.13
380.504	21.17
380.712	21.71
380.92	21.89
381.128	21.73
381.336	21.27
381.544	21.71
381.752	22.18
381.96	22.51
382.168	22.96
382.376	23.1
382.584	23.71
382.791	22.9
382.999	22.22
383.207	22.15
383.415	22.65
383.623	22.95
383.831	22.85
384.039	23.56
384.247	22.85
384.454	23
384.662	23.36
384.87	23.16
385.078	23.65
385.285	23.31
385.493	23.37
385.701	22.32
385.909	22.08
386.116	22.37
386.324	21.53
386.532	22.15
386.739	21.41
386.947	21.31
387.155	21.75
387.362	22.5
387.57	23.51
387.778	24.05
387.985	24.6
388.193	25.01
388.4	24.29
388.608	23.73
388.816	23.07
389.023	23.58
389.231	23.57
389.438	23.51
389.646	22.43
389.853	21.28
390.061	20.72
390.268	19.54
390.475	18.66
390.683	18.97
390.89	19.49
391.098	19.75
391.305	19.47
391.512	19.28
391.72	18.67
391.927	18.64
392.135	19.18
392.342	19.14
392.549	20.26
392.756	20.31
392.964	20.25
393.171	20.55
393.378	20.2
393.586	20.01
393.793	19.84
394	19.78
394.207	19.47
394.414	19.35
394.622	19.23
394.829	19.47
395.036	19.71
395.243	20.17
395.45	19.93
395.657	20.23
395.864	20.96
396.072	21.01
396.279	20.86
396.486	21.13
396.693	20.87
396.9	21.16
397.107	20.71
397.314	20.5
397.521	20.27
397.728	19.86
397.935	19.52
398.142	19.31
398.349	18.96
398.556	19.37
398.763	20.04
398.97	20.23
399.177	20.38
399.383	20.68
399.59	20.77
399.797	20.89
400.004	20.72
400.211	20.97
400.418	20.57
400.625	21.07
400.831	20.73
401.038	20.28
401.245	20.54
401.452	20.79
401.658	20.51
401.865	20.55
402.072	20.18
402.279	20.45
402.485	20.32
402.692	20.22
402.899	20.15
403.105	20.46
403.312	20.31
403.519	19.95
403.725	18.99
403.932	19.09
404.138	19.14
404.345	19.08
404.552	19.14
404.758	19.27
404.965	19.8
405.171	19.71
405.378	19.56
405.584	20.01
405.791	20.6
405.997	21.06
406.204	21.52
406.41	21.75
406.617	22.01
406.823	22.19
407.029	21.98
407.236	21.74
407.442	21.63
407.649	22.08
407.855	21.43
408.061	21.1
408.268	21.5
408.474	20.73
408.68	20.37
408.887	20.25
409.093	20.03
409.299	20.12
409.505	19.48
409.712	19.54
409.918	19.57
410.124	19.54
410.33	19.26
410.537	19.11
410.743	19.32
410.949	19.36
411.155	19.59
411.361	19.56
411.567	19.54
411.773	20.29
411.98	20.3
412.186	20.21
412.392	20.2
412.598	20.48
412.804	19.94
413.01	20.11
413.216	20.32
413.422	20.19
413.628	20.14
413.834	20.47
414.04	20.31
414.246	20.41
414.452	19.81
414.658	19.9
414.864	20.1
415.07	20.21
415.275	20.82
415.481	20.54
415.687	20.31
415.893	20.3
416.099	19.88
416.305	19.7
416.511	19.29
416.716	19.28
416.922	19.22
417.128	18.91
417.334	18.78
417.539	18.22
417.745	17.85
417.951	17.98
418.157	17.93
418.362	17.83
418.568	17.87
418.774	18.12
418.979	17.95
419.185	17.94
419.391	17.92
419.596	18.12
419.802	17.91
420.008	18.06
420.213	19.64
420.419	19.72
420.624	19.56
420.83	19.32
421.035	18.99
421.241	19.11
421.446	19.13
421.652	19.08
421.857	18.83
422.063	18.84
422.268	18.74
422.474	16.88
422.679	16.73
422.885	16.93
423.09	16.97
423.295	17.07
423.501	16.88
423.706	17.03
423.911	17.17
424.117	17.27
424.322	17.26
424.527	17.53
424.733	17.61
424.938	17.61
425.143	17.31
425.349	17.36
425.554	17.31
425.759	17.45
425.964	17.24
426.169	17.19
426.375	17.34
426.58	17.48
426.785	17.47
426.99	17.56
427.195	17.68
427.4	18.62
427.605	18.89
427.811	19.14
428.016	19.23
428.221	19.94
428.426	19.91
428.631	19.89
428.836	19.86
429.041	19.87
429.246	19.94
429.451	19.99
429.656	19.7
429.861	19.59
430.066	19.8
430.271	19.71
430.476	19.13
430.681	18.68
430.886	18.55
431.09	18.59
431.295	18.24
431.5	18.33
431.705	18.02
431.91	17.81
432.115	18.02
432.32	17.99
432.524	17.96
432.729	17.82
432.934	18.23
433.139	18.3
433.343	18.06
433.548	18.1
433.753	17.97
433.958	18.13
434.162	18.24
434.367	18.13
434.572	18.05
434.776	18.13
434.981	18.22
435.186	18.09
435.39	18.06
435.595	18.36
435.799	18.4
436.004	18.06
436.209	17.81
436.413	17.75
436.618	17.64
436.822	17.62
437.027	17.39
437.231	17.39
437.436	17.06
437.64	16.92
437.845	16.82
438.049	16.81
438.253	17.03
438.458	16.99
438.662	16.83
438.867	16.71
439.071	16.87
439.275	17.26
439.48	17.44
439.684	17.53
439.888	17.71
440.093	17.66
440.297	17.71
440.501	17.79
440.706	18.06
440.91	18.15
441.114	17.95
441.318	17.84
441.523	17.85
441.727	17.69
441.931	17.79
442.135	17.76
442.339	17.99
442.543	17.94
442.748	18.04
442.952	18.01
443.156	17.86
443.36	18.03
443.564	18.03
443.768	17.76
443.972	17.85
444.176	17.79
444.38	17.76
444.584	17.66
444.788	17.76
444.992	17.31
445.196	17.39
445.4	17.25
445.604	17.23
445.808	17.3
446.012	17.33
446.216	17.14
446.42	17.2
446.624	17.16
446.828	16.88
447.032	16.73
447.235	17.06
447.439	16.98
447.643	17.15
447.847	17.31
448.051	17.19
448.254	17.45
448.458	17.67
448.662	17.6
448.866	17.67
449.069	17.88
449.273	18.19
449.477	18.07
449.681	17.91
449.884	18.05
450.088	18.05
450.292	17.98
450.495	17.67
450.699	17.57
450.902	17.5
451.106	17.62
451.31	17.71
451.513	17.39
451.717	17.34
451.92	17.61
452.124	17.5
