Data from JASIL_3140_Reflection_1.txt Node
Date: Thu Nov 12 20:56:02 EST 2015
User: Geneva
Spectrometer: USB4E03002
Autoset integration time: false
Trigger mode: 4
Integration Time (sec): 1.000000E-1
Scans to average: 10
Electric dark correction enabled: true
Nonlinearity correction enabled: false
Boxcar width: 5
Stray light correction enabled: false
XAxis mode: Wavelengths
Stop averaging: false
Number of Pixels in Spectrum: 3648
>>>>>Begin Spectral Data<<<<<
177.575	249.52
177.794	39.72
178.014	-12.34
178.233	-53.67
178.452	-18.87
178.672	-232.48
178.891	148.35
179.11	54.82
179.33	39.23
179.549	-84.41
179.768	-336.92
179.987	266.28
180.207	-14303.85
180.426	217.95
180.645	193.34
180.864	177.3
181.084	108.93
181.303	151.77
181.522	166.89
181.741	139.91
181.96	32.59
182.179	73.45
182.398	80.82
182.618	111.52
182.837	208.55
183.056	487.56
183.275	-1052.69
183.494	840.45
183.713	266.37
183.932	295.17
184.151	339.19
184.37	315.42
184.589	272.35
184.808	508.72
185.027	634.46
185.246	511.83
185.465	-637.25
185.684	383.88
185.903	-178.36
186.122	-136.05
186.341	-263.63
186.56	-205.62
186.779	-82.78
186.998	-36.27
187.216	-57.95
187.435	-126.61
187.654	-121.48
187.873	-27853.85
188.092	-543.06
188.311	846.44
188.53	-1442.66
188.748	-295.96
188.967	-93.15
189.186	-113.45
189.405	296.39
189.623	317.1
189.842	10.18
190.061	26.79
190.28	13.01
190.498	16.21
190.717	11.35
190.936	-40.06
191.154	-46.31
191.373	-99.37
191.592	-202.66
191.81	-121.83
192.029	-179.19
192.248	-576.92
192.466	1989.68
192.685	19026.92
192.904	4167.09
193.122	474.3
193.341	339.71
193.559	194.45
193.778	210.06
193.996	268.08
194.215	309.77
194.433	395.37
194.652	373.78
194.87	382.5
195.089	455.41
195.307	247.47
195.526	302.4
195.744	514.22
195.963	-3888.69
196.181	1049.46
196.399	725.49
196.618	472.82
196.836	301.04
197.055	207.78
197.273	159.76
197.491	139.98
197.71	174.17
197.928	141.99
198.146	151.14
198.365	127
198.583	123.37
198.801	123.56
199.019	99.76
199.238	100.46
199.456	103.21
199.674	116.11
199.892	119.92
200.111	114.79
200.329	150.56
200.547	145.5
200.765	151.27
200.983	115.44
201.202	112.91
201.42	120.75
201.638	139.06
201.856	96.98
202.074	109.34
202.292	112.22
202.51	43.15
202.728	68.19
202.946	51.22
203.165	44.57
203.383	65.64
203.601	79.32
203.819	40.52
204.037	21.49
204.255	-17.63
204.473	-126.63
204.691	-308.75
204.909	288.94
205.127	175.03
205.345	82.31
205.562	136.26
205.78	961.83
205.998	-1737.98
206.216	295.42
206.434	-62.92
206.652	67.22
206.87	121.1
207.088	109
207.306	142
207.523	312.09
207.741	-80.59
207.959	381.22
208.177	-9792.31
208.395	35.92
208.612	-18.67
208.83	45.89
209.048	74.54
209.266	80.66
209.483	87.09
209.701	61.83
209.919	36.06
210.136	48.4
210.354	76.45
210.572	90.03
210.79	98.59
211.007	139.48
211.225	99.77
211.442	183.86
211.66	565.75
211.878	-1446.92
212.095	-791.41
212.313	-706.44
212.53	-830.89
212.748	-1410.15
212.966	-1177.09
213.183	-747.19
213.401	-463.81
213.618	-443.33
213.836	-483.1
214.053	-726.89
214.271	-718.61
214.488	-277.66
214.705	-376.85
214.923	-4608.97
215.14	387.67
215.358	164.86
215.575	224.18
215.793	233.74
216.01	325.37
216.227	517.82
216.445	263.44
216.662	184.94
216.879	262.25
217.097	-520.4
217.314	-1766.99
217.531	-456.27
217.749	-100.02
217.966	-46.69
218.183	-137.65
218.4	-1337.82
218.618	142.36
218.835	136.93
219.052	119.5
219.269	105.83
219.487	109.62
219.704	134.89
219.921	161.99
220.138	135.41
220.355	154.37
220.572	147.26
220.79	141.98
221.007	220.18
221.224	200.01
221.441	202.99
221.658	214.83
221.875	160.4
222.092	129.75
222.309	103.4
222.526	126.43
222.743	80.98
222.96	141.27
223.177	153.31
223.394	153.63
223.611	215.38
223.828	34707.69
224.045	273.76
224.262	-2523.37
224.479	696.23
224.696	5523.67
224.913	-524.66
225.13	-464.48
225.347	-310.46
225.564	-669.44
225.781	-670.55
225.997	-440.47
226.214	-350.91
226.431	-103.59
226.648	-121.51
226.865	-110.45
227.082	-83.79
227.298	-88.84
227.515	-62.32
227.732	-55.09
227.949	-24.09
228.165	-29.5
228.382	-35.8
228.599	-27.67
228.816	-21.82
229.032	-23.62
229.249	-13.08
229.466	-18.3
229.682	-16.09
229.899	-35.36
230.116	-22.7
230.332	-30.12
230.549	-35.7
230.765	-18.98
230.982	-24.82
231.199	-43.55
231.415	-38.88
231.632	-19.19
231.848	-30.87
232.065	-29.38
232.281	-13.22
232.498	-18.08
232.714	-26.11
232.931	-1.53
233.147	-2.03
233.364	-3.41
233.58	3.15
233.797	4.3
234.013	-7.09
234.23	1.03
234.446	10.64
234.662	6.86
234.879	-19.47
235.095	-20.91
235.312	-26.8
235.528	-73.32
235.744	-68.03
235.961	-53.3
236.177	-63.05
236.393	-119.82
236.61	-111.79
236.826	-149.07
237.042	-128.69
237.258	-104.3
237.475	-104.53
237.691	-139.19
237.907	-70.39
238.123	-73.47
238.339	-71.55
238.556	-49.88
238.772	-47.27
238.988	-41.04
239.204	-31.83
239.42	-10.62
239.636	-30.15
239.853	-15.09
240.069	-10.59
240.285	-5.34
240.501	-20.43
240.717	-26.63
240.933	-28.08
241.149	-15.72
241.365	-8.27
241.581	-7.27
241.797	-14.57
242.013	0.03
242.229	-0.56
242.445	0.26
242.661	-8.26
242.877	6.99
243.093	12.76
243.309	14.23
243.525	16.09
243.741	11.06
243.957	9.41
244.173	6.64
244.388	5.2
244.604	5.69
244.82	5.24
245.036	9.12
245.252	5.38
245.468	0.47
245.683	1.89
245.899	0.37
246.115	-1.24
246.331	-0.54
246.547	0.78
246.762	-3.83
246.978	-6.4
247.194	-7.67
247.409	-11.19
247.625	-10.9
247.841	-9.3
248.057	-10.47
248.272	-12.93
248.488	-9.96
248.703	-9.62
248.919	-13.88
249.135	-12.69
249.35	-11.59
249.566	-12.36
249.782	-6.33
249.997	-3.53
250.213	-3.94
250.428	-7
250.644	0.16
250.859	1.86
251.075	2.22
251.29	6.06
251.506	6.31
251.721	6.64
251.937	5.33
252.152	7.17
252.368	0.97
252.583	-2.35
252.798	2.79
253.014	-5.13
253.229	-9.16
253.445	-8.07
253.66	-8.49
253.875	-10.41
254.091	-13.07
254.306	-10.3
254.521	-15.37
254.737	-15.14
254.952	-17.39
255.167	-25.92
255.383	-19.06
255.598	-18.55
255.813	-21.21
256.028	-22.45
256.244	-26.37
256.459	-18.28
256.674	-24.47
256.889	-23.41
257.104	-17.42
257.32	-10.86
257.535	-7.02
257.75	-4.77
257.965	-2.7
258.18	-0.55
258.395	-0.47
258.61	1.13
258.826	0.58
259.041	3.48
259.256	1.19
259.471	0.1
259.686	0.29
259.901	-0.11
260.116	-0.38
260.331	0.97
260.546	-0.21
260.761	0.54
260.976	-2.6
261.191	-5.84
261.406	-8.05
261.621	-5.71
261.836	-0.28
262.05	-1.97
262.265	-0.77
262.48	-1.81
262.695	-8.36
262.91	-2.59
263.125	-2.51
263.34	-0.47
263.555	11.93
263.769	10.24
263.984	11.59
264.199	4.93
264.414	5.69
264.629	1.66
264.843	4.58
265.058	10
265.273	4.2
265.488	5.78
265.702	8.78
265.917	5.28
266.132	9.88
266.346	7.15
266.561	6.67
266.776	6.97
266.99	8.96
267.205	1.7
267.42	-5.85
267.634	-3.04
267.849	-6.38
268.063	-8.31
268.278	-9.94
268.492	-10.54
268.707	-5.27
268.922	-2.38
269.136	-2.84
269.351	-8
269.565	-4.75
269.78	-2.27
269.994	-4.74
270.209	-5.42
270.423	-4.33
270.637	-2.45
270.852	-7.33
271.066	-10.74
271.281	-10.52
271.495	-9.6
271.709	-3.25
271.924	-2.15
272.138	-0.53
272.353	0.78
272.567	2.12
272.781	3.42
272.996	3.02
273.21	5.8
273.424	5.23
273.638	6.34
273.853	7.54
274.067	2.65
274.281	0.71
274.495	2.92
274.71	1.73
274.924	1.95
275.138	0.31
275.352	-2.89
275.566	-5.35
275.781	-6.32
275.995	-6.52
276.209	-13.19
276.423	-9.89
276.637	-5.51
276.851	-10.11
277.065	-6.43
277.279	-7.54
277.493	-5.4
277.707	-5.51
277.921	-9.52
278.135	-4.85
278.349	-7.61
278.563	-4.56
278.777	-3.64
278.991	-5.7
279.205	-8.92
279.419	-7.88
279.633	-8.68
279.847	-10.12
280.061	-8.95
280.275	-6.41
280.489	-8.59
280.703	-7.12
280.917	-7.49
281.131	-7.35
281.344	-8.07
281.558	-6.27
281.772	-12.06
281.986	-10.38
282.2	-10.1
282.414	-8.66
282.627	-6.34
282.841	-7.26
283.055	-9.49
283.269	-8.69
283.482	-11.57
283.696	-8.97
283.91	-8.43
284.123	-9.1
284.337	-8.92
284.551	-8.33
284.764	-7.74
284.978	-5.52
285.192	-4.93
285.405	-4.79
285.619	-4.91
285.833	-4.17
286.046	-4.15
286.26	0.54
286.473	2.04
286.687	1.47
286.9	0.19
287.114	0.34
287.327	-1.09
287.541	-1.16
287.754	1.09
287.968	2.03
288.181	2.25
288.395	1.78
288.608	-4.12
288.822	-3.3
289.035	-1.99
289.248	-1.57
289.462	-2.45
289.675	-2.74
289.889	-2.54
290.102	-2.69
290.315	-3
290.529	-3.8
290.742	-4.5
290.955	-4.68
291.169	-3.99
291.382	-7.24
291.595	-9.31
291.808	-7.36
292.022	-8.19
292.235	-3.91
292.448	-5.23
292.661	-6.34
292.875	-7.32
293.088	-10.17
293.301	-7.57
293.514	-8.29
293.727	-6.59
293.94	-2.73
294.153	-2.57
294.367	-2.78
294.58	-4.7
294.793	-4.45
295.006	-2.19
295.219	0.27
295.432	3.47
295.645	3.03
295.858	3.82
296.071	3.36
296.284	1.85
296.497	-0.51
296.71	-1.56
296.923	-0.7
297.136	-1.46
297.349	-1.49
297.562	-1.82
297.775	-3.17
297.988	-2.21
298.201	-5.13
298.414	-5.17
298.626	-3.74
298.839	-2.51
299.052	-1.41
299.265	-1.3
299.478	-0.81
299.691	-2.56
299.903	-2.67
300.116	-3.43
300.329	-3.99
300.542	-1.16
300.755	0.35
300.967	-1.31
301.18	-2.18
301.393	-2.74
301.605	-2.81
301.818	-3.72
302.031	-4.28
302.243	-5.01
302.456	-3.79
302.669	-4.66
302.881	-4.55
303.094	-4.39
303.307	-1.33
303.519	2.97
303.732	1.6
303.944	-3.03
304.157	-0.23
304.37	-2.19
304.582	0.28
304.795	-1.35
305.007	-0.59
305.22	-4.25
305.432	-6.19
305.645	-8.96
305.857	-15.89
306.069	-11.72
306.282	-8.96
306.494	-10.02
306.707	-6.56
306.919	-7.24
307.132	-4.38
307.344	-7.56
307.556	-5.08
307.769	-2.93
307.981	-3.24
308.193	-1.28
308.406	-1.15
308.618	-0.14
308.83	1.65
309.043	1.37
309.255	-0.03
309.467	-1.21
309.679	0.47
309.892	-1.32
310.104	0.1
310.316	2.14
310.528	2.38
310.74	0.36
310.953	-0.84
311.165	-2.52
311.377	-2.3
311.589	-1.42
311.801	-0.96
312.013	0.96
312.225	2.62
312.437	-0.06
312.649	-2.5
312.862	-1.03
313.074	0.87
313.286	2.04
313.498	0.87
313.71	0.5
313.922	1.16
314.134	1.23
314.346	-0.51
314.558	-0.71
314.77	-0.95
314.982	-2.39
315.193	-4.8
315.405	-6.25
315.617	-6.63
315.829	-2.89
316.041	-3.17
316.253	-5.11
316.465	-8.68
316.677	-6.1
316.888	-5.7
317.1	-2.75
317.312	-1.29
317.524	-0.72
317.736	2.7
317.947	4.78
318.159	2.85
318.371	4.44
318.583	3.96
318.794	4.76
319.006	0.66
319.218	1.56
319.43	0.44
319.641	2.93
319.853	1.37
320.064	-2.83
320.276	-6.42
320.488	-5.64
320.699	-8.12
320.911	-10.02
321.123	-10.02
321.334	-10.38
321.546	-10.3
321.757	-10.19
321.969	-11.01
322.18	-8.76
322.392	-6.2
322.603	-7.12
322.815	-6.52
323.026	-5
323.238	-2.33
323.449	-0.56
323.661	3.81
323.872	1.58
324.083	1.67
324.295	1.29
324.506	1.57
324.718	3.8
324.929	2.9
325.14	1.36
325.352	2.51
325.563	3.28
325.774	4.04
325.986	4.44
326.197	4.74
326.408	1.32
326.62	-1.34
326.831	-1.76
327.042	-5.82
327.253	-2.6
327.464	-4.94
327.676	-5.93
327.887	-6.91
328.098	-6.79
328.309	-8.73
328.52	-7.12
328.732	-6.73
328.943	-4.68
329.154	-6.22
329.365	-6.23
329.576	-4.73
329.787	-2.51
329.998	-2.87
330.209	-0.79
330.42	-3.3
330.631	-3.26
330.842	-3.51
331.053	-2.21
331.264	-1.29
331.475	0.23
331.686	2.12
331.897	-0.7
332.108	-1.68
332.319	-2.88
332.53	-3.62
332.741	-1.48
332.952	0.44
333.163	0.21
333.374	0.93
333.585	1.46
333.795	-0.09
334.006	2.1
334.217	2.84
334.428	4.84
334.639	5.07
334.849	3.49
335.06	2.46
335.271	0.01
335.482	-1.48
335.692	-2.89
335.903	-2
336.114	-0.99
336.325	-5.15
336.535	-0.72
336.746	-1.31
336.957	-1.62
337.167	-1.11
337.378	0.18
337.589	-0.74
337.799	-0.05
338.01	3.45
338.22	0.83
338.431	1.07
338.642	1.62
338.852	-4.85
339.063	-3.11
339.273	-1.88
339.484	-0.98
339.694	-2.76
339.905	-2.04
340.115	1.18
340.326	0.7
340.536	3.3
340.746	4.69
340.957	4.46
341.167	6.17
341.378	4.65
341.588	3.15
341.799	4.48
342.009	6.31
342.219	6.68
342.43	3.75
342.64	3.51
342.85	1
343.061	1.06
343.271	2.33
343.481	2.2
343.691	0.94
343.902	0.79
344.112	-0.71
344.322	-1.92
344.532	-0.68
344.743	-0.49
344.953	-3.04
345.163	-1.29
345.373	-3.77
345.583	-3.21
345.793	-2.41
346.004	-0.47
346.214	1.1
346.424	0.22
346.634	-0.73
346.844	-1.83
347.054	-0.5
347.264	0.84
347.474	-1.1
347.684	1.84
347.894	1.03
348.104	-1.03
348.314	-1.89
348.524	-2.73
348.734	-1.49
348.944	1.05
349.154	0.76
349.364	1.08
349.574	2.37
349.784	2.39
349.994	1.48
350.204	0.79
350.413	1.5
350.623	3.87
350.833	4.8
351.043	3.75
351.253	0.99
351.463	0.86
351.672	-0.11
351.882	-0.45
352.092	-0.52
352.302	-2.16
352.511	-1.73
352.721	0.07
352.931	-1.71
353.141	-2.04
353.35	-2.16
353.56	-1.38
353.77	-0.27
353.979	0.91
354.189	-0.41
354.399	-0.24
354.608	0.72
354.818	1.56
355.027	1.07
355.237	-1.19
355.447	-1.77
355.656	0.11
355.866	1.69
356.075	1.57
356.285	-0.49
356.494	-0.04
356.704	1.92
356.913	0.95
357.123	0.66
357.332	1.39
357.542	3.6
357.751	4.3
357.96	4.06
358.17	3.23
358.379	1.33
358.589	2.36
358.798	2.13
359.007	0.17
359.217	1.07
359.426	1.5
359.635	1.06
359.845	0.74
360.054	1
360.263	0.23
360.472	0.77
360.682	1.61
360.891	0.93
361.1	1.75
361.309	2.75
361.519	3.06
361.728	2.01
361.937	1.55
362.146	0.74
362.355	0.48
362.564	0.59
362.774	-1.25
362.983	-0.86
363.192	-0.65
363.401	-0.77
363.61	-2.28
363.819	-1.71
364.028	-1.11
364.237	-0.61
364.446	-0.81
364.655	-1.04
364.864	-0.21
365.073	1.47
365.282	-0.02
365.491	1.31
365.7	1.4
365.909	2.42
366.118	1.3
366.327	1.85
366.536	1.28
366.745	1.68
366.954	1.73
367.162	0.54
367.371	1.14
367.58	2
367.789	-0.19
367.998	-0.69
368.207	-0.14
368.415	1.26
368.624	0.26
368.833	0.97
369.042	1.34
369.25	1.58
369.459	1.31
369.668	1.34
369.877	1.54
370.085	2.85
370.294	3.14
370.503	3.15
370.711	2.5
370.92	3.13
371.129	3.11
371.337	3.65
371.546	4.19
371.754	4.24
371.963	3.21
372.171	4.17
372.38	4.02
372.589	4.31
372.797	3.55
373.006	2.88
373.214	1.76
373.423	0.93
373.631	0.5
373.84	-1.12
374.048	-0.41
374.256	-1.62
374.465	-1.63
374.673	-1.77
374.882	-2.9
375.09	-2.44
375.298	-2.68
375.507	-2.19
375.715	-1.05
375.923	-3.02
376.132	-3.38
376.34	-3.55
376.548	-2.58
376.757	-3.5
376.965	-4.7
377.173	-4.38
377.381	-4.07
377.59	-4.79
377.798	-4.26
378.006	-5.31
378.214	-2.8
378.423	-2.22
378.631	-1.95
378.839	-0.32
379.047	0.73
379.255	1.53
379.463	1.75
379.671	0.62
379.879	1.36
380.088	0.73
380.296	1.39
380.504	-0.47
380.712	-0.33
380.92	-1.26
381.128	-1.95
381.336	-2.39
381.544	-1.85
381.752	-2.23
381.96	-1.54
382.168	-0.3
382.376	0.99
382.584	-0.46
382.791	0.26
382.999	1.26
383.207	2.75
383.415	1.83
383.623	1.37
383.831	1.81
384.039	2.14
384.247	0.88
384.454	-0.77
384.662	-0.39
384.87	1.21
385.078	0.96
385.285	-1.14
385.493	-1.37
385.701	-1.35
385.909	-1.58
386.116	-0.65
386.324	0.04
386.532	1.58
386.739	2.03
386.947	0.47
387.155	0.87
387.362	2.39
387.57	2.83
387.778	2.7
387.985	1.91
388.193	2.68
388.4	-0.05
388.608	-2.48
388.816	-2.69
389.023	-2.99
389.231	-2.22
389.438	-3.69
389.646	-3.86
389.853	-2.41
390.061	-2.06
390.268	-1.31
390.475	-1.32
390.683	0.3
390.89	2.54
391.098	2.72
391.305	2.69
391.512	1.81
391.72	1.01
391.927	0.91
392.135	0.04
392.342	-0.86
392.549	0.6
392.756	-0.22
392.964	0.45
393.171	-0.82
393.378	-1.26
393.586	-0.08
393.793	1.18
394	1.68
394.207	1.83
394.414	1.97
394.622	1.2
394.829	0.69
395.036	0.04
395.243	-0.43
395.45	0.15
395.657	0.68
395.864	-0.13
396.072	-1.29
396.279	0.7
396.486	0.21
396.693	1.13
396.9	1.77
397.107	0.54
397.314	1.67
397.521	0.77
397.728	0.75
397.935	-0.31
398.142	0.1
398.349	0.8
398.556	-1.75
398.763	-2.22
398.97	-2.55
399.177	-1.11
399.383	-0.89
399.59	-1.98
399.797	-1.17
400.004	-0.8
400.211	-0.17
400.418	-0.05
400.625	-0.11
400.831	1.66
401.038	3.41
401.245	2.96
401.452	1.63
401.658	1.46
401.865	3.28
402.072	3.68
402.279	3.72
402.485	3.98
402.692	3.56
402.899	3.11
403.105	2.7
403.312	1.75
403.519	1.87
403.725	1.56
403.932	1.2
404.138	0.79
404.345	0.12
404.552	-0.38
404.758	0.3
404.965	-0.34
405.171	-0.09
405.378	-1.41
405.584	-1.7
405.791	-1.77
405.997	-1.2
406.204	0.97
406.41	0.24
406.617	-0.73
406.823	-0.59
407.029	-1.72
407.236	-0.98
407.442	-1.12
407.649	0.54
407.855	0.59
408.061	-0.44
408.268	-0.61
408.474	-1.32
408.68	-0.66
408.887	0.08
409.093	0.82
409.299	1.47
409.505	0.79
409.712	0.2
409.918	-0.28
410.124	-0.68
410.33	0.14
410.537	0.15
410.743	-1.28
410.949	-1.34
411.155	-1.55
411.361	-3.56
411.567	-3.95
411.773	-3.03
411.98	-2.36
412.186	-1.36
412.392	-0.77
412.598	-0.27
412.804	0.35
413.01	1.48
413.216	1.67
413.422	2.63
413.628	3.54
413.834	3.45
414.04	4
414.246	3.94
414.452	3.27
414.658	2.65
414.864	2.81
415.07	2.75
415.275	2.98
415.481	2.49
415.687	2.46
415.893	3.32
416.099	2.99
416.305	2.71
416.511	2.74
416.716	3.42
416.922	3.92
417.128	3.36
417.334	3.46
417.539	2.92
417.745	2.75
417.951	2.63
418.157	2.84
418.362	3.33
418.568	2.83
418.774	3.07
418.979	2.11
419.185	2.35
419.391	2.47
419.596	2.62
419.802	1.99
420.008	2.27
420.213	2.51
420.419	1.54
420.624	1.35
420.83	1.45
421.035	1.31
421.241	1.4
421.446	1.2
421.652	1.2
421.857	0.63
422.063	1.36
422.268	1.22
422.474	0.66
422.679	1.14
422.885	0.68
423.09	0.56
423.295	0.39
423.501	0.5
423.706	0.13
423.911	0.38
424.117	1.08
424.322	0.82
424.527	1.31
424.733	1.58
424.938	1.6
425.143	1.93
425.349	2.16
425.554	2.47
425.759	2.02
425.964	2.25
426.169	2.28
426.375	1.67
426.58	1.76
426.785	1.5
426.99	1.16
427.195	1.2
427.4	1.39
427.605	1.86
427.811	1.57
428.016	2.2
428.221	2.33
428.426	2.38
428.631	2.45
428.836	2.87
429.041	2.18
429.246	2.2
429.451	2.16
429.656	2.6
429.861	1.69
430.066	1.34
430.271	1.35
430.476	1.19
430.681	0.63
430.886	0.44
431.09	-0.14
431.295	-0.08
431.5	0.25
431.705	0.08
431.91	-0.14
432.115	0.19
432.32	0.38
432.524	0.41
432.729	0.24
432.934	0.88
433.139	1.28
433.343	1.63
433.548	1.61
433.753	1.21
433.958	1.4
434.162	1.64
434.367	1.74
434.572	2.12
434.776	2.25
434.981	2.47
435.186	2.25
435.39	2.11
435.595	2.31
435.799	2.83
436.004	3.08
436.209	3.12
436.413	2.36
436.618	2.53
436.822	2.07
437.027	2.73
437.231	2.67
437.436	2.1
437.64	1.91
437.845	1.35
438.049	1.1
438.253	1.12
438.458	1.35
438.662	1.48
438.867	1.3
439.071	1.26
439.275	0.86
439.48	0.77
439.684	0.74
439.888	0.83
440.093	0.81
440.297	1.1
440.501	1.25
440.706	0.88
440.91	0.74
441.114	0.73
441.318	1.12
441.523	1.47
441.727	1.65
441.931	1.41
442.135	1.31
442.339	1.63
442.543	1.47
442.748	1.11
442.952	0.88
443.156	1.32
443.36	1.43
443.564	1.48
443.768	0.98
443.972	0.92
444.176	1.45
444.38	1.52
444.584	1.49
444.788	1.33
444.992	1.64
445.196	2.24
445.4	2.11
445.604	2.38
445.808	1.67
446.012	1.39
446.216	1.35
446.42	1.33
446.624	1.88
446.828	1.6
447.032	1.52
447.235	1.32
447.439	1.08
447.643	1.15
447.847	0.75
448.051	1.02
448.254	1.17
448.458	1.28
448.662	1.67
448.866	0.73
449.069	1.35
449.273	1.18
449.477	1
449.681	0.46
449.884	0.42
450.088	0.56
450.292	0.55
450.495	0.74
450.699	1
450.902	1.48
451.106	1.66
451.31	1.41
451.513	1.86
451.717	1.89
451.92	2.21
452.124	2
452.327	2.52
452.531	2.83
452.734	2.54
452.938	2.18
453.141	1.17
453.345	1.05
453.548	0.73
453.752	1.19
453.955	1.48
454.158	1.27
454.362	1.28
454.565	0.98
454.769	0.67
454.972	0.68
455.175	0.87
455.379	1.44
455.582	2.06
455.785	1.7
455.988	0.8
456.192	0.86
456.395	0.96
456.598	1.02
456.801	0.22
457.005	0.37
457.208	0.77
457.411	0.5
457.614	-0.67
457.817	-1.3
458.021	-0.56
458.224	-0.38
458.427	-0.2
458.63	-0.16
458.833	0.05
459.036	-0.16
459.239	0.06
459.442	-0.15
