Data from JASIL_3101_Relative_1.txt Node
Date: Thu Nov 12 19:28:34 EST 2015
User: Geneva
Spectrometer: USB4E03002
Autoset integration time: false
Trigger mode: 4
Integration Time (sec): 1.000000E-1
Scans to average: 10
Electric dark correction enabled: true
Nonlinearity correction enabled: false
Boxcar width: 5
Stray light correction enabled: false
XAxis mode: Wavelengths
Stop averaging: false
Number of Pixels in Spectrum: 3648
>>>>>Begin Spectral Data<<<<<
177.575	213.42
177.794	480.91
178.014	173.84
178.233	155.95
178.452	145.96
178.672	90.93
178.891	494.37
179.11	197.64
179.33	3536.31
179.549	-347.37
179.768	-805.69
179.987	3106.32
180.207	-634.88
180.426	-2090.34
180.645	9273.33
180.864	-248.7
181.084	-352.81
181.303	-198.84
181.522	-281.44
181.741	-4170.83
181.96	325.89
182.179	1491.95
182.398	-159.11
182.618	-1303.99
182.837	-977.88
183.056	469.79
183.275	133.98
183.494	193.01
183.713	181.16
183.932	6.57
184.151	-7.85
184.37	-52.7
184.589	-8.92
184.808	16.27
185.027	-542.84
185.246	-157.43
185.465	-146.58
185.684	-157.58
185.903	1.31
186.122	5.33
186.341	-119.04
186.56	-23.44
186.779	160.08
186.998	87.27
187.216	77.07
187.435	78.61
187.654	40.08
187.873	54.42
188.092	24.18
188.311	25.98
188.53	47.24
188.748	24.13
188.967	40.65
189.186	18.12
189.405	-13.15
189.623	-124.91
189.842	733.08
190.061	-3307.59
190.28	280.24
190.498	62.83
190.717	78.59
190.936	50.26
191.154	74.16
191.373	98.84
191.592	92.47
191.81	94.47
192.029	125.48
192.248	118.91
192.466	130.38
192.685	187.84
192.904	151.32
193.122	131
193.341	236.01
193.559	-475.25
193.778	277.24
193.996	271.56
194.215	126.26
194.433	45.36
194.652	310.18
194.87	55.37
195.089	113.72
195.307	6.6
195.526	-3.75
195.744	-76.81
195.963	-431.06
196.181	2002.35
196.399	-111.85
196.618	-277.43
196.836	-217.25
197.055	-29.06
197.273	8.27
197.491	25.93
197.71	-1198.89
197.928	37.31
198.146	61.52
198.365	-14.39
198.583	-1535.34
198.801	32.01
199.019	-142.99
199.238	-59.78
199.456	9.96
199.674	30.51
199.892	52.19
200.111	80.89
200.329	-8.19
200.547	19.4
200.765	13.96
200.983	48.66
201.202	35.03
201.42	-42.8
201.638	-13.3
201.856	-17.27
202.074	6.45
202.292	45.75
202.51	143.66
202.728	96.84
202.946	74.8
203.165	78.29
203.383	90.05
203.601	97.63
203.819	104.51
204.037	163.5
204.255	103.57
204.473	76.21
204.691	94.13
204.909	167.56
205.127	166.6
205.345	416.16
205.562	-2244.81
205.78	-409.26
205.998	-333.42
206.216	-1646.67
206.434	395.29
206.652	-4175.29
206.87	-405.23
207.088	-210.75
207.306	-957.81
207.523	-174.68
207.741	-382.59
207.959	3764.48
208.177	35880
208.395	-550.06
208.612	-847.05
208.83	-202.87
209.048	-114.03
209.266	-389.61
209.483	-156.37
209.701	-7.41
209.919	-209.21
210.136	-154.9
210.354	-103.7
210.572	81.55
210.79	348.14
211.007	-93.25
211.225	113.28
211.442	145.47
211.66	969.77
211.878	9.74
212.095	-383.32
212.313	-763.82
212.53	-550.21
212.748	-543.34
212.966	-240.77
213.183	-148.62
213.401	-208.81
213.618	-317.58
213.836	-453.34
214.053	-458.34
214.271	-317.38
214.488	434.06
214.705	237.7
214.923	-2500.69
215.14	3079.61
215.358	-113.18
215.575	-60.87
215.793	-64.34
216.01	-42.14
216.227	-9774.07
216.445	-532.28
216.662	-88.84
216.879	-5224.53
217.097	-20.24
217.314	395.92
217.531	-968.14
217.749	221.22
217.966	308.62
218.183	1181.14
218.4	241.74
218.618	296.99
218.835	108.95
219.052	78.36
219.269	66.91
219.487	74.67
219.704	75.29
219.921	50.51
220.138	40.22
220.355	4.21
220.572	13.23
220.79	58.09
221.007	76.35
221.224	-21.2
221.441	30.18
221.658	31.64
221.875	33.82
222.092	81.66
222.309	83.35
222.526	48.83
222.743	53.26
222.96	77.83
223.177	112.59
223.394	110.21
223.611	186.36
223.828	161.58
224.045	131.73
224.262	71.45
224.479	49.99
224.696	38.73
224.913	74.73
225.13	60.26
225.347	28.73
225.564	27.25
225.781	-44.33
225.997	-18.06
226.214	-44.31
226.431	-86.05
226.648	-102.22
226.865	-92.45
227.082	-127.93
227.298	-196.88
227.515	-146.42
227.732	-72.19
227.949	-92.57
228.165	-80.73
228.382	-57.03
228.599	-70.04
228.816	-50.34
229.032	-39.45
229.249	-30.84
229.466	-22.7
229.682	-8.07
229.899	-7.56
230.116	-18.89
230.332	-8.85
230.549	-8
230.765	-4.76
230.982	-8.3
231.199	-26.96
231.415	-25.16
231.632	-15.68
231.848	-22.84
232.065	-40.71
232.281	-50.55
232.498	-47.32
232.714	-42.36
232.931	-83.45
233.147	-115.2
233.364	-80.41
233.58	-22.57
233.797	-19.47
234.013	-23.85
234.23	-26.78
234.446	-6.11
234.662	-13.68
234.879	22.37
235.095	9.82
235.312	34.16
235.528	18.67
235.744	-6.57
235.961	-15.77
236.177	-6.56
236.393	-16.52
236.61	30.95
236.826	18.8
237.042	23.69
237.258	7.39
237.475	11.3
237.691	11.52
237.907	17.76
238.123	13.76
238.339	21.36
238.556	18.16
238.772	5.94
238.988	-7.56
239.204	-16.68
239.42	-29.09
239.636	-42.2
239.853	-21.61
240.069	-18.48
240.285	-4.81
240.501	-0.41
240.717	-12.24
240.933	-20.65
241.149	-5.31
241.365	-8.01
241.581	-4.52
241.797	0.8
242.013	4.92
242.229	1.27
242.445	0.3
242.661	-0.68
242.877	5.18
243.093	9.48
243.309	15.73
243.525	11.68
243.741	12.77
243.957	12.65
244.173	11.49
244.388	9.38
244.604	10.65
244.82	8.69
245.036	8.74
245.252	8.45
245.468	6.51
245.683	5.91
245.899	7.33
246.115	8.03
246.331	7.71
246.547	7.19
246.762	9.21
246.978	6.23
247.194	5.95
247.409	2.2
247.625	0.33
247.841	-1.5
248.057	-1.13
248.272	-3.32
248.488	-6.21
248.703	-1.46
248.919	-4.21
249.135	-13.41
249.35	-7.04
249.566	-13.8
249.782	-9.09
249.997	-6.29
250.213	-10.43
250.428	-11.82
250.644	-6.75
250.859	-0.62
251.075	-5.96
251.29	-6.95
251.506	-0.71
251.721	-5.04
251.937	-0.25
252.152	-1.09
252.368	5.66
252.583	7.23
252.798	-0.16
253.014	-9.09
253.229	-13.57
253.445	-17.53
253.66	-11.5
253.875	-10.43
254.091	-20.52
254.306	-17.84
254.521	-7.23
254.737	-38.74
254.952	-24.98
255.167	-20.83
255.383	-5.6
255.598	-14.99
255.813	4.97
256.028	5.99
256.244	4.32
256.459	10.61
256.674	6.15
256.889	-4.14
257.104	4.09
257.32	8.34
257.535	9.51
257.75	7.28
257.965	12.55
258.18	7.87
258.395	4.58
258.61	3.95
258.826	3.19
259.041	3.43
259.256	3.69
259.471	0.38
259.686	-0.47
259.901	-0.52
260.116	-1.2
260.331	-4.19
260.546	-3.95
260.761	-3.99
260.976	-5.12
261.191	-6.38
261.406	-5.27
261.621	-7.94
261.836	-7.39
262.05	-6.36
262.265	-5.08
262.48	-4.53
262.695	-0.79
262.91	-3.87
263.125	-4.6
263.34	-5.55
263.555	-10.95
263.769	-12.05
263.984	-6.35
264.199	-9.27
264.414	-5.4
264.629	-7.97
264.843	-13.78
265.058	-8.81
265.273	-12.23
265.488	-4.4
265.702	-4.74
265.917	3.98
266.132	8.2
266.346	9.62
266.561	7.57
266.776	1.25
266.99	-0.39
267.205	3.3
267.42	-0.96
267.634	5.12
267.849	0.48
268.063	-2.59
268.278	-2.65
268.492	-7.67
268.707	-6.25
268.922	-3.69
269.136	-1.15
269.351	3.16
269.565	6.53
269.78	8.03
269.994	4.28
270.209	3.95
270.423	6.74
270.637	6.84
270.852	6.31
271.066	0.04
271.281	3.63
271.495	3.72
271.709	1.1
271.924	-2.52
272.138	-4.91
272.353	-3.93
272.567	0.43
272.781	3.02
272.996	1.29
273.21	2.66
273.424	7
273.638	3.16
273.853	1.8
274.067	2.64
274.281	5.38
274.495	7.27
274.71	9.24
274.924	7.41
275.138	6.94
275.352	7.41
275.566	7.11
275.781	9.18
275.995	8.6
276.209	5.62
276.423	6.17
276.637	4.89
276.851	0.45
277.065	-2.89
277.279	-5.78
277.493	-8.02
277.707	-9.69
277.921	-12.5
278.135	-13.14
278.349	-6.55
278.563	-1.43
278.777	-4.46
278.991	-4.84
279.205	-0.11
279.419	2.79
279.633	2.38
279.847	3.81
280.061	3.66
280.275	3.36
280.489	1.68
280.703	-0.91
280.917	-0.02
281.131	2.33
281.344	1.76
281.558	0.71
281.772	-0.67
281.986	-1.1
282.2	-2.91
282.414	-1.26
282.627	1.89
282.841	1.63
283.055	1.87
283.269	-0.2
283.482	0.71
283.696	0.35
283.91	3.32
284.123	3.6
284.337	5.34
284.551	5.77
284.764	5.14
284.978	4.71
285.192	4.15
285.405	3.91
285.619	5
285.833	2.57
286.046	4.67
286.26	1.37
286.473	1.87
286.687	1.14
286.9	3.07
287.114	3.28
287.327	0.48
287.541	1.57
287.754	2.36
287.968	1.34
288.181	1.51
288.395	0.74
288.608	2.31
288.822	0.71
289.035	2.39
289.248	-3.23
289.462	-0.1
289.675	1.23
289.889	1.91
290.102	3.81
290.315	2.6
290.529	1.91
290.742	3.16
290.955	1.67
291.169	-0.02
291.382	-3.11
291.595	-1.52
291.808	-4.27
292.022	-1.28
292.235	-4.29
292.448	-6.31
292.661	-5.63
292.875	-3.41
293.088	-8.7
293.301	-9.71
293.514	-8.94
293.727	-6.03
293.94	-5.17
294.153	-3.31
294.367	-6.82
294.58	-4.02
294.793	-2.85
295.006	0.2
295.219	-0.38
295.432	2.47
295.645	5.46
295.858	5.9
296.071	4.28
296.284	5.86
296.497	5.85
296.71	5.45
296.923	4.82
297.136	5.14
297.349	5.16
297.562	4.29
297.775	4.86
297.988	3.15
298.201	2.87
298.414	3.74
298.626	4.23
298.839	2.02
299.052	6.47
299.265	7.93
299.478	6.16
299.691	4.31
299.903	5.98
300.116	4.97
300.329	3.69
300.542	4.68
300.755	4.51
300.967	2.45
301.18	0.54
301.393	-0.81
301.605	-1.25
301.818	0.46
302.031	0.83
302.243	-1.09
302.456	-2.04
302.669	-0.28
302.881	-0.39
303.094	-1.35
303.307	-0.5
303.519	0.72
303.732	0.13
303.944	-3.55
304.157	-3.83
304.37	-4.69
304.582	-1.11
304.795	-1.94
305.007	-3.84
305.22	-0.37
305.432	1.74
305.645	2.51
305.857	3.21
306.069	1.03
306.282	0.73
306.494	1.34
306.707	4.48
306.919	3.5
307.132	3.92
307.344	4.33
307.556	3.44
307.769	4.09
307.981	1.67
308.193	4.56
308.406	7.86
308.618	9.59
308.83	8.76
309.043	8.73
309.255	9.03
309.467	9
309.679	10.1
309.892	7.76
310.104	6.38
310.316	8.27
310.528	6.54
310.74	5.95
310.953	4.96
311.165	4.49
311.377	1.21
311.589	1.95
311.801	1.86
312.013	3.45
312.225	4.37
312.437	2.47
312.649	2.95
312.862	1.07
313.074	0.74
313.286	3.12
313.498	5.29
313.71	6.03
313.922	5.39
314.134	8.45
314.346	5.77
314.558	5.33
314.77	7.36
314.982	6.17
315.193	7.65
315.405	7.53
315.617	6.09
315.829	3.54
316.041	5.19
316.253	4.29
316.465	3.27
316.677	2.33
316.888	2.56
317.1	0.54
317.312	-2.78
317.524	-1.19
317.736	-3.82
317.947	-4.47
318.159	-8.18
318.371	-9.88
318.583	-10.51
318.794	-10.88
319.006	-9.02
319.218	-6.91
319.43	-3.21
319.641	-0.81
319.853	-2.94
320.064	-0.36
320.276	-0.38
320.488	3.09
320.699	3.65
320.911	7.05
321.123	7.43
321.334	7.7
321.546	6.11
321.757	3.71
321.969	4.08
322.18	3.83
322.392	1.17
322.603	0.76
322.815	-0.3
323.026	-1.66
323.238	-3.34
323.449	-5.25
323.661	-6.67
323.872	-5.35
324.083	-6.99
324.295	-4.45
324.506	-2.32
324.718	-1.01
324.929	2.68
325.14	2.63
325.352	4.62
325.563	3.17
325.774	1.61
325.986	1.05
326.197	1.64
326.408	2.37
326.62	-0.84
326.831	-3.25
327.042	-2.49
327.253	-7.06
327.464	-5.29
327.676	-5.83
327.887	-5.72
328.098	-3.6
328.309	-3.49
328.52	-5.75
328.732	-3.29
328.943	0.82
329.154	4.3
329.365	1.55
329.576	3.91
329.787	4.75
329.998	5.2
330.209	5.64
330.42	6.36
330.631	7.28
330.842	9.39
331.053	9.2
331.264	7.82
331.475	7.34
331.686	11.26
331.897	12.14
332.108	9.84
332.319	9.85
332.53	10.79
332.741	10.15
332.952	9.38
333.163	8.29
333.374	8.25
333.585	4.75
333.795	3.34
334.006	1.29
334.217	-0.64
334.428	1.76
334.639	2.12
334.849	2.24
335.06	4.24
335.271	5.02
335.482	5.58
335.692	7.43
335.903	11.26
336.114	10.42
336.325	11.37
336.535	10.39
336.746	8.17
336.957	9.67
337.167	11.01
337.378	9.77
337.589	9.62
337.799	9.2
338.01	8.45
338.22	6.01
338.431	4.55
338.642	3.34
338.852	6.88
339.063	8.37
339.273	6.55
339.484	5.66
339.694	7.16
339.905	8.91
340.115	9.53
340.326	7.87
340.536	9.14
340.746	11.38
340.957	11.97
341.167	13.29
341.378	13.87
341.588	14.37
341.799	12.5
342.009	9.61
342.219	8.93
342.43	8.44
342.64	8.78
342.85	8.77
343.061	9.35
343.271	7.84
343.481	6.34
343.691	5.11
343.902	4.23
344.112	5.6
344.322	6.38
344.532	7.19
344.743	8.54
344.953	6.77
345.163	4.45
345.373	3.97
345.583	4.67
345.793	5.33
346.004	5.49
346.214	5.01
346.424	3.55
346.634	4.48
346.844	2.7
347.054	1.65
347.264	2.72
347.474	7.48
347.684	5.25
347.894	4.83
348.104	2.78
348.314	3.94
348.524	5.19
348.734	7.36
348.944	5.92
349.154	7.31
349.364	7.3
349.574	9.12
349.784	7.17
349.994	7.61
350.204	7.34
350.413	8.57
350.623	8.77
350.833	9.69
351.043	9.87
351.253	11.41
351.463	10.74
351.672	7.05
351.882	4.87
352.092	5.83
352.302	6.89
352.511	8.09
352.721	6.89
352.931	7.23
353.141	3.64
353.35	3.14
353.56	1.88
353.77	2.92
353.979	5.16
354.189	7.45
354.399	7.1
354.608	8.76
354.818	9.81
355.027	9.46
355.237	8.28
355.447	11.24
355.656	8.94
355.866	9.41
356.075	7.81
356.285	7.02
356.494	5.25
356.704	4.88
356.913	4.37
357.123	4.1
357.332	4.3
357.542	5.21
357.751	5.1
357.96	6.53
358.17	5.97
358.379	6.14
358.589	9.26
358.798	9.52
359.007	9.66
359.217	11.52
359.426	11.67
359.635	10.78
359.845	9.9
360.054	9.51
360.263	10.53
360.472	10.45
360.682	11.58
360.891	10.87
361.1	11.92
361.309	11.59
361.519	9.11
361.728	8.39
361.937	9.97
362.146	9.92
362.355	9.58
362.564	8.09
362.774	9.59
362.983	8.77
363.192	8.78
363.401	8.21
363.61	8.72
363.819	9.3
364.028	10.11
364.237	8.23
364.446	8.58
364.655	8.9
364.864	9.23
365.073	7.96
365.282	7.53
365.491	8.4
365.7	7.47
365.909	6.32
366.118	6.45
366.327	5.59
366.536	7.35
366.745	7.11
366.954	7.36
367.162	7.13
367.371	6.53
367.58	6.72
367.789	4.04
367.998	5.48
368.207	5
368.415	5.31
368.624	6.37
368.833	6.77
369.042	6.06
369.25	4.83
369.459	5.71
369.668	7.07
369.877	7.02
370.085	9.03
370.294	6.94
370.503	7.24
370.711	7.82
370.92	6.63
371.129	5.92
371.337	7.57
371.546	6.28
371.754	6.48
371.963	5.8
372.171	5.01
372.38	4.79
372.589	4.13
372.797	4.23
373.006	3.37
373.214	3.82
373.423	3
373.631	2.78
373.84	3.47
374.048	3.03
374.256	3.78
374.465	4.81
374.673	5.62
374.882	6.28
375.09	7.26
375.298	8.96
375.507	8.88
375.715	10.31
375.923	9.43
376.132	10.86
376.34	10.38
376.548	10.23
376.757	9.53
376.965	10.12
377.173	11.05
377.381	11.33
377.59	9.14
377.798	9.46
378.006	8.05
378.214	7.43
378.423	6.99
378.631	7.23
378.839	6.69
379.047	7.96
379.255	4.4
379.463	4.36
379.671	2.78
379.879	3.05
380.088	1.53
380.296	1.52
380.504	2.88
380.712	3.1
380.92	2.34
381.128	2.33
381.336	1.26
381.544	2.44
381.752	2.14
381.96	3.91
382.168	4.25
382.376	5.88
382.584	6.31
382.791	4.26
382.999	2.15
383.207	1.86
383.415	2.09
383.623	2.05
383.831	1.18
384.039	0.1
384.247	-0.15
384.454	-1.48
384.662	-1.89
384.87	-1.97
385.078	-0.23
385.285	0.29
385.493	1.54
385.701	1.16
385.909	2.05
386.116	3.22
386.324	4.49
386.532	3.87
386.739	4.9
386.947	4.83
387.155	4.96
387.362	4.49
387.57	5.01
387.778	4.9
387.985	5.16
388.193	3.88
388.4	3.98
388.608	3.21
388.816	3.53
389.023	4.55
389.231	4.51
389.438	5.64
389.646	5.84
389.853	6.47
390.061	7.06
390.268	6.76
390.475	6.88
390.683	5.59
390.89	6.05
391.098	6.17
391.305	4.78
391.512	4.44
391.72	2.7
391.927	1.32
392.135	1.46
392.342	0.97
392.549	1.36
392.756	1.41
392.964	2.04
393.171	1.96
393.378	2.06
393.586	2.37
393.793	1.93
394	2.61
394.207	3.7
394.414	3.69
394.622	2.97
394.829	2.9
395.036	3.82
395.243	3.17
395.45	3.1
395.657	1.66
395.864	2.06
396.072	3.43
396.279	3.35
396.486	3.85
396.693	3.62
396.9	3.44
397.107	3.34
397.314	2.29
397.521	2.49
397.728	2.05
397.935	2.91
398.142	2.19
398.349	1.63
398.556	1.58
398.763	3.03
398.97	3.19
399.177	4.22
399.383	3.2
399.59	3.46
399.797	3.82
400.004	4.07
400.211	3.7
400.418	3.89
400.625	3.5
400.831	4.16
401.038	2.53
401.245	1.6
401.452	1.16
401.658	1.68
401.865	1.59
402.072	2.76
402.279	2.2
402.485	3.94
402.692	4.41
402.899	4.19
403.105	3.89
403.312	4.01
403.519	4.99
403.725	5.03
403.932	4.76
404.138	5.63
404.345	4.85
404.552	5.39
404.758	5.01
404.965	4.93
405.171	4.86
405.378	4.2
405.584	4.24
405.791	3.93
405.997	2.87
406.204	4.53
406.41	3.47
406.617	3.43
406.823	3.16
407.029	2.21
407.236	2.15
407.442	2.87
407.649	3.38
407.855	3.5
408.061	3.55
408.268	4.14
408.474	3.27
408.68	3.6
408.887	4.89
409.093	5.01
409.299	4.76
409.505	4.86
409.712	4.51
409.918	4.68
410.124	3.98
410.33	4.21
410.537	3.88
410.743	2.94
410.949	2.94
411.155	2
411.361	2.68
411.567	1.79
411.773	1.99
411.98	1.83
412.186	1.35
412.392	1.42
412.598	0.28
412.804	1.85
413.01	3.07
413.216	3.05
413.422	2.7
413.628	2.09
413.834	3.1
414.04	2.13
414.246	2.65
414.452	3.3
414.658	3.29
414.864	3.48
415.07	3.11
415.275	3.08
415.481	3.82
415.687	4.41
415.893	5.16
416.099	4.75
416.305	4.81
416.511	4.76
416.716	4.92
416.922	5.09
417.128	4.72
417.334	4.64
417.539	4.89
417.745	4.08
417.951	4.02
418.157	3.5
418.362	4.03
418.568	3.79
418.774	3.94
418.979	3.61
419.185	3.96
419.391	4.89
419.596	4.12
419.802	3.87
420.008	3.94
420.213	3.7
420.419	3.62
420.624	3.67
420.83	4.21
421.035	4.08
421.241	4.11
421.446	3.8
421.652	3.6
421.857	4.73
422.063	4.65
422.268	4.51
422.474	4.25
422.679	4.28
422.885	4.4
423.09	3.93
423.295	4.43
423.501	4.76
423.706	4.78
423.911	5
424.117	4.21
424.322	4.38
424.527	4.51
424.733	4.84
424.938	5.03
425.143	5.26
425.349	5.7
425.554	5.2
425.759	4.7
425.964	4.58
426.169	4.02
426.375	4.37
426.58	3.95
426.785	4.63
426.99	4.48
427.195	4.33
427.4	3.98
427.605	3.42
427.811	3.07
428.016	3.66
428.221	4.34
428.426	4.69
428.631	4.06
428.836	4.19
429.041	3.13
429.246	3
429.451	3.08
429.656	2.8
429.861	3.64
430.066	3.65
430.271	3.64
430.476	3.55
430.681	3.45
430.886	4.46
431.09	4.72
431.295	5
431.5	5.05
431.705	5.13
431.91	5.2
432.115	5.5
432.32	6.03
432.524	6.11
432.729	5.4
432.934	5.6
433.139	5.02
433.343	5.04
433.548	5.56
433.753	5.52
433.958	5.54
434.162	5.45
434.367	5.56
434.572	5.37
434.776	5.73
434.981	6.36
435.186	6.36
435.39	6.53
435.595	6.5
435.799	5.33
436.004	5.96
436.209	5.65
436.413	5.29
436.618	4.61
436.822	4.7
437.027	4.65
437.231	4.39
437.436	4.26
437.64	4.67
437.845	4.92
438.049	6.09
438.253	5.87
438.458	6.04
438.662	6.85
438.867	6.55
439.071	6.35
439.275	6.12
439.48	5.95
439.684	5.76
439.888	5.49
440.093	5.54
440.297	5.06
440.501	4.73
440.706	4.67
440.91	3.77
441.114	4.32
441.318	4.4
441.523	3.67
441.727	3.9
441.931	3.83
442.135	3.91
442.339	3.74
442.543	3.99
442.748	3.66
442.952	3.26
443.156	3.83
443.36	2.99
443.564	2.95
443.768	3.22
443.972	3.65
444.176	4.1
444.38	4.26
444.584	4.12
444.788	4.03
444.992	4.49
445.196	4.86
445.4	4.65
445.604	4.83
445.808	4.89
446.012	5.1
446.216	4.82
446.42	5.13
446.624	5.04
446.828	4.82
447.032	4.76
447.235	5.23
447.439	5.31
447.643	5.65
447.847	6.11
448.051	5.87
448.254	5.56
448.458	5.2
448.662	4.72
448.866	4.68
449.069	5.28
449.273	4.89
449.477	4.26
449.681	3.56
449.884	2.6
450.088	2.21
450.292	2.22
450.495	2.5
450.699	2.69
450.902	2.54
451.106	2.95
451.31	2.44
451.513	2.93
451.717	2.44
451.92	2.84
452.124	3.5
452.327	3.24
452.531	2.91
452.734	2.59
452.938	2.15
453.141	2.41
453.345	1.94
453.548	2.09
453.752	1.26
453.955	1.89
454.158	2.27
454.362	2.83
454.565	2.86
454.769	3.03
454.972	2.69
455.175	3.29
455.379	2.77
455.582	2.28
455.785	2.36
455.988	3.43
456.192	3.21
456.395	3.18
456.598	2.61
456.801	2.54
457.005	3.08
457.208	3.7
457.411	3.63
457.614	3.85
457.817	3.86
458.021	3.72
458.224	3.94
458.427	3.83
458.63	3.62
458.833	3.47
459.036	3.67
459.239	4
459.442	4.22
459.645	4.34
459.848	4.16
460.051	4.35
460.254	4.58
460.457	4.36
460.66	4.45
460.863	4.16
461.066	4.62
461.269	4.79
461.472	4.27
461.675	3.92
461.878	4.07
462.081	4.13
462.284	4.11
462.486	4
462.689	4.11
462.892	4.3
463.095	4.71
463.298	4.39
463.5	4.58
463.703	4.84
463.906	4.67
464.109	4.6
464.311	4.54
464.514	4.72
464.717	5.3
