Data from JASIL_2967_Reflection_2.txt Node
Date: Sat Nov 07 21:33:40 EST 2015
User: Geneva
Spectrometer: USB4E03002
Autoset integration time: false
Trigger mode: 4
Integration Time (sec): 1.000000E-1
Scans to average: 10
Electric dark correction enabled: true
Nonlinearity correction enabled: false
Boxcar width: 5
Stray light correction enabled: false
XAxis mode: Wavelengths
Stop averaging: false
Number of Pixels in Spectrum: 3648
>>>>>Begin Spectral Data<<<<<
177.575	32.82
177.794	95.55
178.014	84.63
178.233	189.31
178.452	48.6
178.672	-30.44
178.891	43.72
179.11	70.72
179.33	84.87
179.549	37.62
179.768	35.38
179.987	12.67
180.207	27.86
180.426	163.37
180.645	115.25
180.864	116.07
181.084	82.22
181.303	93.37
181.522	86.61
181.741	96.34
181.96	107.85
182.179	100.71
182.398	90.49
182.618	85.21
182.837	84.2
183.056	76.62
183.275	102.25
183.494	150.45
183.713	162.18
183.932	262.16
184.151	436.31
184.37	129.32
184.589	82.62
184.808	65.23
185.027	62.73
185.246	61.53
185.465	56.48
185.684	57
185.903	40.25
186.122	24.29
186.341	12.22
186.56	21.59
186.779	21.62
186.998	29.51
187.216	46.9
187.435	55.19
187.654	54.57
187.873	50.05
188.092	54.36
188.311	45.7
188.53	46.18
188.748	59.59
188.967	39.56
189.186	54.5
189.405	53.64
189.623	24.6
189.842	31.3
190.061	27.6
190.28	14.46
190.498	-6.71
190.717	-35.19
190.936	3.38
191.154	-106.93
191.373	766.91
191.592	-182.38
191.81	-354.44
192.029	-98.13
192.248	-206.5
192.466	-90.07
192.685	-21.34
192.904	4.2
193.122	17.67
193.341	10.61
193.559	42.44
193.778	41.66
193.996	62.7
194.215	84.07
194.433	101.5
194.652	101.55
194.87	86.8
195.089	82.51
195.307	100.72
195.526	116.86
195.744	88.01
195.963	78.11
196.181	66.94
196.399	42.89
196.618	32.37
196.836	35.46
197.055	34.28
197.273	32.94
197.491	29.95
197.71	26.2
197.928	-4.97
198.146	6.76
198.365	3.06
198.583	0
198.801	19.15
199.019	16.41
199.238	17.77
199.456	13.45
199.674	23.3
199.892	19.04
200.111	-0.44
200.329	29.01
200.547	-3.25
200.765	-4.16
200.983	-6.45
201.202	11.41
201.42	19.94
201.638	13.77
201.856	7.9
202.074	7.83
202.292	16.57
202.51	23.05
202.728	15.37
202.946	33.56
203.165	33.28
203.383	36.88
203.601	14.35
203.819	14.55
204.037	18.95
204.255	43.99
204.473	41.7
204.691	45.95
204.909	58.38
205.127	59.63
205.345	61.92
205.562	63.47
205.78	57.29
205.998	63.43
206.216	61.61
206.434	54.38
206.652	29.51
206.87	25.92
207.088	16.35
207.306	12.93
207.523	2.42
207.741	-13.23
207.959	-10.04
208.177	0.43
208.395	-10.96
208.612	-22.48
208.83	-1.33
209.048	4.88
209.266	-2.56
209.483	-9.19
209.701	-23.9
209.919	-18.97
210.136	2.06
210.354	30.37
210.572	29.96
210.79	35.76
211.007	41.95
211.225	39.76
211.442	30.13
211.66	32.16
211.878	31.48
212.095	30.05
212.313	34.16
212.53	32.93
212.748	25.07
212.966	22.79
213.183	22.82
213.401	25.8
213.618	28.3
213.836	25.45
214.053	16.69
214.271	21.97
214.488	26.37
214.705	15.11
214.923	19.14
215.14	24.35
215.358	26.5
215.575	27.87
215.793	26.47
216.01	19.97
216.227	24.36
216.445	29.34
216.662	25.8
216.879	23.74
217.097	25.27
217.314	20.05
217.531	17.28
217.749	7.01
217.966	1.5
218.183	0.05
218.4	-0.76
218.618	1.44
218.835	10.93
219.052	11.35
219.269	15.46
219.487	21.79
219.704	20.85
219.921	18.21
220.138	26.03
220.355	25.25
220.572	25.89
220.79	24.74
221.007	27.2
221.224	24.05
221.441	26.22
221.658	25.66
221.875	22.1
222.092	19.27
222.309	21.85
222.526	20.27
222.743	19.39
222.96	17.8
223.177	16.38
223.394	14
223.611	13.72
223.828	10.81
224.045	8.98
224.262	10.63
224.479	11.92
224.696	10.05
224.913	8.61
225.13	11.16
225.347	12.38
225.564	14.11
225.781	12.77
225.997	12.2
226.214	12.37
226.431	12.53
226.648	11.49
226.865	11.53
227.082	11.86
227.298	11.85
227.515	11.23
227.732	9.83
227.949	9.73
228.165	9.58
228.382	9.43
228.599	9.3
228.816	9.82
229.032	9.72
229.249	9.69
229.466	9.24
229.682	9.24
229.899	10.25
230.116	11.06
230.332	12.11
230.549	13.46
230.765	14.56
230.982	15.83
231.199	16.07
231.415	16.45
231.632	16.93
231.848	16.92
232.065	17.16
232.281	16.33
232.498	16.73
232.714	14.76
232.931	12.77
233.147	12.13
233.364	11.73
233.58	10.67
233.797	11.01
234.013	11.1
234.23	11.19
234.446	10.8
234.662	11.11
234.879	11.12
235.095	10.67
235.312	11.52
235.528	10.96
235.744	10.16
235.961	10.13
236.177	10.06
236.393	10.45
236.61	10.28
236.826	10.16
237.042	9.18
237.258	9.54
237.475	11.83
237.691	11.78
237.907	11.91
238.123	11.4
238.339	11.29
238.556	11.09
238.772	11.06
238.988	11.58
239.204	11.56
239.42	11.5
239.636	11.02
239.853	10.71
240.069	10.5
240.285	10.76
240.501	10.9
240.717	10.62
240.933	10.89
241.149	10.42
241.365	10.2
241.581	10.19
241.797	10.05
242.013	9.8
242.229	9.71
242.445	9.76
242.661	9.56
242.877	9.83
243.093	10.12
243.309	9.93
243.525	9.81
243.741	9.62
243.957	9.94
244.173	10.27
244.388	10.11
244.604	9.2
244.82	9.39
245.036	9.07
245.252	8.85
245.468	8.54
245.683	8.37
245.899	8.77
246.115	8.79
246.331	8.6
246.547	8.33
246.762	8.23
246.978	8.49
247.194	8.25
247.409	8.43
247.625	8.11
247.841	8.06
248.057	8.14
248.272	7.61
248.488	7.67
248.703	7.33
248.919	7.54
249.135	7.99
249.35	7.73
249.566	7.77
249.782	7.24
249.997	7.78
250.213	8.02
250.428	7.71
250.644	7.82
250.859	7.35
251.075	7.72
251.29	7.3
251.506	6.86
251.721	6.93
251.937	6.9
252.152	7.25
252.368	7.4
252.583	7.17
252.798	6.93
253.014	7.29
253.229	7.86
253.445	7.45
253.66	7.95
253.875	8.13
254.091	7.38
254.306	7.64
254.521	6.81
254.737	6.12
254.952	6.13
255.167	6.41
255.383	6.11
255.598	5.79
255.813	5.99
256.028	5.64
256.244	6.07
256.459	6.18
256.674	6.11
256.889	6.45
257.104	6.89
257.32	6.89
257.535	6.78
257.75	6.67
257.965	6.71
258.18	6.57
258.395	6.52
258.61	6.34
258.826	6.43
259.041	6.24
259.256	6.21
259.471	5.88
259.686	5.84
259.901	5.82
260.116	5.71
260.331	5.52
260.546	5.55
260.761	5.52
260.976	5.57
261.191	5.32
261.406	5.47
261.621	5.44
261.836	5.65
262.05	5.59
262.265	5.64
262.48	5.82
262.695	5.94
262.91	6.21
263.125	6.09
263.34	6.31
263.555	6.74
263.769	6.55
263.984	6.67
264.199	7.04
264.414	7.12
264.629	6.78
264.843	6.68
265.058	6.33
265.273	6.2
265.488	6.14
265.702	5.84
265.917	6.15
266.132	6.2
266.346	6.05
266.561	5.84
266.776	5.89
266.99	6.3
267.205	6.2
267.42	6.39
267.634	6.22
267.849	6.52
268.063	6.44
268.278	5.96
268.492	6
268.707	5.9
268.922	5.8
269.136	5.76
269.351	5.66
269.565	5.71
269.78	5.44
269.994	5.34
270.209	5.2
270.423	5.52
270.637	5.62
270.852	5.59
271.066	5.57
271.281	5.68
271.495	5.67
271.709	5.6
271.924	5.48
272.138	5.53
272.353	5.85
272.567	5.77
272.781	5.5
272.996	5.57
273.21	5.32
273.424	5.15
273.638	4.89
273.853	4.9
274.067	4.57
274.281	4.92
274.495	4.96
274.71	4.52
274.924	4.47
275.138	4.67
275.352	4.68
275.566	4.81
275.781	5.16
275.995	5.5
276.209	5.4
276.423	5.61
276.637	5.3
276.851	5.3
277.065	5.41
277.279	5.53
277.493	5.42
277.707	5.18
277.921	5.23
278.135	5.41
278.349	5.14
278.563	5.02
278.777	5
278.991	5.16
279.205	5.39
279.419	5.64
279.633	5.61
279.847	5.6
280.061	5.65
280.275	5.66
280.489	5.53
280.703	5.19
280.917	5.14
281.131	5.16
281.344	4.89
281.558	4.72
281.772	4.63
281.986	4.57
282.2	4.54
282.414	4.63
282.627	4.62
282.841	4.51
283.055	4.74
283.269	4.81
283.482	4.69
283.696	4.86
283.91	5.18
284.123	4.88
284.337	4.73
284.551	4.66
284.764	4.64
284.978	4.72
285.192	4.67
285.405	4.82
285.619	5.07
285.833	5.03
286.046	5.05
286.26	4.83
286.473	4.89
286.687	5.11
286.9	5.21
287.114	5.13
287.327	5.21
287.541	5.22
287.754	5.05
287.968	4.6
288.181	4.88
288.395	4.91
288.608	4.75
288.822	4.96
289.035	5.1
289.248	4.9
289.462	5.07
289.675	5
289.889	5.1
290.102	5.33
290.315	5.39
290.529	5.21
290.742	5.16
290.955	5.34
291.169	5.28
291.382	5.1
291.595	5.22
291.808	5.06
292.022	5.16
292.235	5.11
292.448	5
292.661	5.22
292.875	5.35
293.088	5.23
293.301	5.35
293.514	5.33
293.727	5.3
293.94	5.46
294.153	5.59
294.367	5.38
294.58	5.25
294.793	5.17
295.006	5.07
295.219	5.17
295.432	5.37
295.645	5.45
295.858	5.31
296.071	5.36
296.284	5.22
296.497	5.19
296.71	5.37
296.923	5.59
297.136	5.68
297.349	5.77
297.562	5.66
297.775	5.65
297.988	5.51
298.201	5.73
298.414	5.78
298.626	5.91
298.839	6.08
299.052	6.08
299.265	5.92
299.478	5.77
299.691	5.67
299.903	5.64
300.116	5.47
300.329	5.51
300.542	5.4
300.755	5.46
300.967	5.55
301.18	5.41
301.393	5.18
301.605	5.12
301.818	5.16
302.031	5.4
302.243	5.49
302.456	5.7
302.669	5.58
302.881	5.91
303.094	5.83
303.307	6.06
303.519	6.18
303.732	6.39
303.944	6.53
304.157	6.62
304.37	6.58
304.582	6.77
304.795	6.6
305.007	6.7
305.22	6.48
305.432	6.47
305.645	6.05
305.857	6.01
306.069	6.1
306.282	6.15
306.494	6.26
306.707	6.1
306.919	6.07
307.132	6.19
307.344	6.08
307.556	6.2
307.769	6.28
307.981	6.45
308.193	6.4
308.406	6.22
308.618	6.29
308.83	6.19
309.043	6.4
309.255	6.41
309.467	6.47
309.679	6.59
309.892	6.52
310.104	6.37
310.316	6.21
310.528	6.24
310.74	6.52
310.953	6.48
311.165	6.52
311.377	6.35
311.589	6.34
311.801	6.32
312.013	6.43
312.225	6.36
312.437	6.71
312.649	6.97
312.862	7.04
313.074	6.75
313.286	6.79
313.498	6.79
313.71	7.12
313.922	7.11
314.134	7.18
314.346	7.05
314.558	7.1
314.77	6.91
314.982	6.7
315.193	6.6
315.405	6.47
315.617	6.51
315.829	6.43
316.041	6.19
316.253	5.97
316.465	5.97
316.677	6.08
316.888	6.28
317.1	6.39
317.312	6.85
317.524	6.8
317.736	7.03
317.947	7.22
318.159	7.51
318.371	7.54
318.583	7.73
318.794	7.61
319.006	7.72
319.218	7.59
319.43	7.33
319.641	6.99
319.853	7.16
320.064	7.45
320.276	7.47
320.488	7.55
320.699	7.72
320.911	7.97
321.123	8.19
321.334	8.26
321.546	8.27
321.757	8.57
321.969	8.67
322.18	8.71
322.392	8.26
322.603	7.99
322.815	7.81
323.026	7.79
323.238	7.43
323.449	7.37
323.661	7.08
323.872	7.2
324.083	7.09
324.295	6.95
324.506	6.85
324.718	6.75
324.929	7.01
325.14	6.95
325.352	6.91
325.563	7.21
325.774	7.05
325.986	7.15
326.197	6.88
326.408	6.76
326.62	6.89
326.831	7.01
327.042	7.31
327.253	7.1
327.464	7.22
327.676	7.15
327.887	6.98
328.098	6.95
328.309	6.98
328.52	7.07
328.732	7.37
328.943	7.48
329.154	7.66
329.365	7.35
329.576	7.59
329.787	7.38
329.998	7.61
330.209	7.66
330.42	7.74
330.631	7.78
330.842	7.92
331.053	7.82
331.264	7.51
331.475	7.21
331.686	7.45
331.897	7.18
332.108	7.13
332.319	6.95
332.53	6.94
332.741	6.9
332.952	6.78
333.163	6.86
333.374	6.87
333.585	6.89
333.795	6.74
334.006	6.85
334.217	6.89
334.428	7.03
334.639	7.03
334.849	6.92
335.06	7.13
335.271	7.2
335.482	7.06
335.692	7.03
335.903	7.1
336.114	7.22
336.325	7.16
336.535	6.99
336.746	6.81
336.957	6.81
337.167	6.88
337.378	6.66
337.589	6.61
337.799	6.62
338.01	6.69
338.22	6.77
338.431	6.73
338.642	6.45
338.852	6.46
339.063	6.5
339.273	6.4
339.484	6.34
339.694	6.46
339.905	6.43
340.115	6.36
340.326	6.07
340.536	6.04
340.746	6.1
340.957	6.15
341.167	6.27
341.378	6.29
341.588	6.42
341.799	6.28
342.009	6.08
342.219	6.07
342.43	6.09
342.64	6.15
342.85	5.99
343.061	5.94
343.271	5.89
343.481	5.83
343.691	5.91
343.902	5.71
344.112	5.76
344.322	5.87
344.532	5.95
344.743	6.07
344.953	6
345.163	6.13
345.373	6.06
345.583	6.22
345.793	6.17
346.004	6.16
346.214	6.41
346.424	6.55
346.634	6.55
346.844	6.47
347.054	6.37
347.264	6.54
347.474	6.5
347.684	6.43
347.894	6.36
348.104	6.42
348.314	6.38
348.524	6.3
348.734	6.32
348.944	6.28
349.154	6.26
349.364	6.24
349.574	6.08
349.784	6.08
349.994	6.36
350.204	6.28
350.413	6.27
350.623	6.34
350.833	6.08
351.043	6
351.253	6.19
351.463	6.13
351.672	6.02
351.882	6.1
352.092	5.98
352.302	5.72
352.511	5.77
352.721	5.79
352.931	5.72
353.141	5.6
353.35	5.47
353.56	5.25
353.77	5.42
353.979	5.56
354.189	5.5
354.399	5.7
354.608	5.76
354.818	5.79
355.027	5.66
355.237	5.6
355.447	5.91
355.656	5.96
355.866	5.99
356.075	5.76
356.285	5.66
356.494	5.73
356.704	5.64
356.913	5.61
357.123	5.53
357.332	5.51
357.542	5.61
357.751	5.53
357.96	5.55
358.17	5.58
358.379	5.69
358.589	5.62
358.798	5.64
359.007	5.64
359.217	5.57
359.426	5.6
359.635	5.69
359.845	5.58
360.054	5.54
360.263	5.49
360.472	5.41
360.682	5.47
360.891	5.56
361.1	5.46
361.309	5.41
361.519	5.44
361.728	5.44
361.937	5.4
362.146	5.43
362.355	5.45
362.564	5.45
362.774	5.51
362.983	5.33
363.192	5.28
363.401	5.23
363.61	5.26
363.819	5.33
364.028	5.36
364.237	5.31
364.446	5.45
364.655	5.38
364.864	5.45
365.073	5.42
365.282	5.53
365.491	5.56
365.7	5.75
365.909	5.7
366.118	5.77
366.327	5.72
366.536	5.77
366.745	5.57
366.954	5.54
367.162	5.44
367.371	5.26
367.58	5.16
367.789	5.02
367.998	4.93
368.207	5.05
368.415	4.86
368.624	4.85
368.833	4.91
369.042	5.01
369.25	5.14
369.459	5.29
369.668	5.35
369.877	5.29
370.085	5.45
370.294	5.42
370.503	5.29
370.711	5.31
370.92	5.26
371.129	5.19
371.337	5.1
371.546	5
371.754	4.81
371.963	4.89
372.171	4.92
372.38	4.76
372.589	4.78
372.797	4.68
373.006	4.67
373.214	4.69
373.423	4.62
373.631	4.63
373.84	4.62
374.048	4.63
374.256	4.56
374.465	4.48
374.673	4.41
374.882	4.28
375.09	4.32
375.298	4.33
375.507	4.34
375.715	4.39
375.923	4.3
376.132	4.33
376.34	4.3
376.548	4.27
376.757	4.36
376.965	4.46
377.173	4.56
377.381	4.65
377.59	4.54
377.798	4.55
378.006	4.52
378.214	4.58
378.423	4.57
378.631	4.58
378.839	4.54
379.047	4.52
379.255	4.45
379.463	4.29
379.671	4.01
379.879	4.06
380.088	4.02
380.296	4.05
380.504	4.16
380.712	4.18
380.92	4.19
381.128	4.18
381.336	4.19
381.544	4.29
381.752	4.35
381.96	4.44
382.168	4.42
382.376	4.39
382.584	4.3
382.791	4.16
382.999	4.01
383.207	4.01
383.415	3.98
383.623	4.03
383.831	3.88
384.039	3.92
384.247	3.94
384.454	3.98
384.662	4.07
384.87	4.03
385.078	4.06
385.285	4.16
385.493	4.04
385.701	4.09
385.909	3.98
386.116	4.05
386.324	4.04
386.532	4.02
386.739	3.95
386.947	3.83
387.155	3.83
387.362	3.79
387.57	3.87
387.778	3.94
387.985	4.02
388.193	4.06
388.4	4.2
388.608	4.07
388.816	4.13
389.023	4.11
389.231	4.04
389.438	4.04
389.646	3.97
389.853	3.85
390.061	3.78
390.268	3.74
390.475	3.73
390.683	3.61
390.89	3.63
391.098	3.55
391.305	3.53
391.512	3.56
391.72	3.54
391.927	3.51
392.135	3.54
392.342	3.57
392.549	3.57
392.756	3.5
392.964	3.42
393.171	3.44
393.378	3.41
393.586	3.41
393.793	3.47
394	3.38
394.207	3.44
394.414	3.42
394.622	3.46
394.829	3.41
395.036	3.35
395.243	3.38
395.45	3.31
395.657	3.37
395.864	3.36
396.072	3.41
396.279	3.54
396.486	3.47
396.693	3.49
396.9	3.49
397.107	3.46
397.314	3.5
397.521	3.53
397.728	3.61
397.935	3.56
398.142	3.51
398.349	3.41
398.556	3.41
398.763	3.37
398.97	3.31
399.177	3.27
399.383	3.33
399.59	3.36
399.797	3.38
400.004	3.33
400.211	3.33
400.418	3.35
400.625	3.37
400.831	3.29
401.038	3.36
401.245	3.3
401.452	3.29
401.658	3.24
401.865	3.31
402.072	3.19
402.279	3.23
402.485	3.25
402.692	3.26
402.899	3.21
403.105	3.27
403.312	3.23
403.519	3.22
403.725	3.24
403.932	3.23
404.138	3.11
404.345	3.13
404.552	3.14
404.758	3.17
404.965	3.13
405.171	3.1
405.378	3.04
405.584	3.13
405.791	3.13
405.997	3.13
406.204	3.15
406.41	3.12
406.617	3.16
406.823	3.17
407.029	3.12
407.236	3.22
407.442	3.21
407.649	3.37
407.855	3.37
408.061	3.38
408.268	3.32
408.474	3.29
408.68	3.32
408.887	3.2
409.093	3.15
409.299	3.14
409.505	3.06
409.712	3.06
409.918	2.92
410.124	2.83
410.33	2.81
410.537	2.8
410.743	2.75
410.949	2.8
411.155	2.91
411.361	2.9
411.567	2.84
411.773	2.77
411.98	2.86
412.186	2.83
412.392	2.79
412.598	2.87
412.804	2.88
413.01	2.95
413.216	2.89
413.422	2.88
413.628	2.97
413.834	2.98
414.04	3.04
414.246	2.96
414.452	2.95
414.658	2.96
414.864	2.91
415.07	2.91
415.275	2.87
415.481	2.85
415.687	2.79
415.893	2.71
416.099	2.71
416.305	2.73
416.511	2.76
416.716	2.76
416.922	2.76
417.128	2.76
417.334	2.78
417.539	2.8
417.745	2.8
417.951	2.78
418.157	2.78
418.362	2.82
418.568	2.79
418.774	2.78
418.979	2.77
419.185	2.76
419.391	2.73
419.596	2.7
419.802	2.65
420.008	2.64
420.213	3.04
420.419	3.03
420.624	3.03
420.83	3.03
421.035	3.05
421.241	3.05
421.446	3.08
421.652	3.08
421.857	3.05
422.063	3.06
422.268	3.05
422.474	2.68
422.679	2.7
422.885	2.7
423.09	2.7
423.295	2.66
423.501	2.67
423.706	2.66
423.911	2.67
424.117	2.68
424.322	2.69
424.527	2.69
424.733	2.72
424.938	2.67
425.143	2.62
425.349	2.62
425.554	2.6
425.759	2.6
425.964	2.57
426.169	2.56
426.375	2.56
426.58	2.54
426.785	2.55
426.99	2.55
427.195	2.54
427.4	2.58
427.605	2.58
427.811	2.62
428.016	2.63
428.221	2.65
428.426	2.64
428.631	2.59
428.836	2.62
429.041	2.61
429.246	2.65
429.451	2.68
429.656	2.64
429.861	2.63
430.066	2.63
430.271	2.58
430.476	2.54
430.681	2.54
430.886	2.61
431.09	2.67
431.295	2.64
431.5	2.58
431.705	2.56
431.91	2.56
432.115	2.56
432.32	2.54
432.524	2.52
432.729	2.54
432.934	2.57
433.139	2.55
433.343	2.54
433.548	2.57
433.753	2.62
433.958	2.61
434.162	2.6
434.367	2.63
434.572	2.6
434.776	2.62
434.981	2.62
435.186	2.55
435.39	2.55
435.595	2.52
435.799	2.53
436.004	2.48
436.209	2.54
436.413	2.57
436.618	2.51
436.822	2.54
437.027	2.56
437.231	2.52
437.436	2.52
437.64	2.55
437.845	2.51
438.049	2.48
438.253	2.45
438.458	2.38
438.662	2.39
438.867	2.41
439.071	2.42
439.275	2.46
439.48	2.5
439.684	2.52
439.888	2.47
440.093	2.48
440.297	2.48
440.501	2.49
440.706	2.5
440.91	2.52
441.114	2.51
441.318	2.49
441.523	2.43
441.727	2.43
441.931	2.45
442.135	2.43
442.339	2.43
442.543	2.43
442.748	2.43
442.952	2.41
443.156	2.37
443.36	2.4
443.564	2.39
443.768	2.37
443.972	2.34
444.176	2.29
444.38	2.32
444.584	2.29
444.788	2.3
444.992	2.29
445.196	2.31
445.4	2.33
445.604	2.3
445.808	2.3
446.012	2.3
446.216	2.28
446.42	2.26
446.624	2.26
446.828	2.26
447.032	2.26
447.235	2.28
447.439	2.27
447.643	2.25
447.847	2.22
448.051	2.21
448.254	2.24
448.458	2.25
448.662	2.31
448.866	2.29
449.069	2.31
449.273	2.33
449.477	2.31
449.681	2.32
449.884	2.37
450.088	2.35
450.292	2.4
450.495	2.4
450.699	2.45
450.902	2.42
451.106	2.42
451.31	2.41
451.513	2.4
451.717	2.35
451.92	2.3
452.124	2.25
452.327	2.31
452.531	2.24
452.734	2.24
452.938	2.19
453.141	2.2
453.345	2.23
453.548	2.21
453.752	2.19
453.955	2.23
454.158	2.26
454.362	2.28
454.565	2.24
454.769	2.27
454.972	2.23
455.175	2.21
455.379	2.21
455.582	2.13
455.785	2.12
455.988	2.09
456.192	2.06
456.395	2.04
456.598	1.99
456.801	1.99
457.005	2.07
457.208	2.08
457.411	2.09
457.614	2.09
457.817	2.15
458.021	2.12
458.224	2.17
458.427	2.22
458.63	2.26
458.833	2.27
459.036	2.31
459.239	2.24
459.442	2.23
459.645	2.27
459.848	2.3
460.051	2.28
460.254	2.3
460.457	2.24
460.66	2.2
460.863	2.19
461.066	2.21
461.269	2.2
461.472	2.24
461.675	2.26
461.878	2.26
462.081	2.2
462.284	2.25
462.486	2.28
462.689	2.32
462.892	2.38
463.095	2.37
463.298	2.36
463.5	2.33
463.703	2.32
463.906	2.35
464.109	2.31
464.311	2.39
464.514	2.36
464.717	2.39
464.92	2.41
465.122	2.39
465.325	2.45
465.528	2.46
465.73	2.46
465.933	2.42
466.135	2.4
466.338	2.43
466.541	2.39
466.743	2.37
466.946	2.35
467.148	2.36
467.351	2.36
467.553	2.31
467.756	2.34
467.958	2.37
468.161	2.41
468.363	2.37
468.566	2.34
468.768	2.31
468.971	2.31
469.173	2.29
469.375	2.24
469.578	2.33
469.78	2.27
469.983	2.24
470.185	2.25
470.387	2.3
470.59	2.29
470.792	2.28
470.994	2.31
471.196	2.35
471.399	2.34
471.601	2.36
471.803	2.24
472.005	2.33
