Data from JASIL_3170_Reflection_1.txt Node
Date: Thu Nov 12 22:55:56 EST 2015
User: Geneva
Spectrometer: USB4E03002
Autoset integration time: false
Trigger mode: 4
Integration Time (sec): 1.000000E-1
Scans to average: 10
Electric dark correction enabled: true
Nonlinearity correction enabled: false
Boxcar width: 5
Stray light correction enabled: false
XAxis mode: Wavelengths
Stop averaging: false
Number of Pixels in Spectrum: 3648
>>>>>Begin Spectral Data<<<<<
177.575	-169.57
177.794	-32.92
178.014	-15.73
178.233	-345.57
178.452	-18.48
178.672	-65.35
178.891	42.24
179.11	124.87
179.33	577.55
179.549	205.09
179.768	-1732.82
179.987	-489.07
180.207	-332.2
180.426	-716.34
180.645	916.84
180.864	654.36
181.084	480.91
181.303	2020.74
181.522	390.93
181.741	162.23
181.96	377.3
182.179	285.27
182.398	809.39
182.618	647.72
182.837	-253.17
183.056	-145.18
183.275	-42.39
183.494	-23.98
183.713	-26.13
183.932	-21.53
184.151	-22.09
184.37	3.11
184.589	-37.04
184.808	-18.22
185.027	-3.61
185.246	4.04
185.465	-3.1
185.684	-9.35
185.903	-43.47
186.122	-86.86
186.341	-127.75
186.56	-107.64
186.779	-1167.2
186.998	-484.95
187.216	-230.49
187.435	-528.82
187.654	-1362.25
187.873	-890.91
188.092	777.67
188.311	1287.04
188.53	3098.1
188.748	-3420
188.967	-144.21
189.186	-25.87
189.405	-54.54
189.623	-15.42
189.842	3.82
190.061	-26.29
190.28	-41.65
190.498	-10.21
190.717	-51.14
190.936	-105.57
191.154	-69.65
191.373	-371.5
191.592	-232.39
191.81	-230.88
192.029	-1479.21
192.248	-592.3
192.466	-472.83
192.685	-511.18
192.904	-567.76
193.122	-500.25
193.341	-339.12
193.559	-739
193.778	-273.42
193.996	-382.46
194.215	-194.93
194.433	-184.42
194.652	-391.41
194.87	-286.03
195.089	-517.28
195.307	-635.43
195.526	-1406.73
195.744	6515.15
195.963	634.86
196.181	282.48
196.399	252.68
196.618	161.53
196.836	211.3
197.055	355.79
197.273	340.22
197.491	333.34
197.71	260.59
197.928	248.98
198.146	438.82
198.365	1216.96
198.583	1434.75
198.801	1367.52
199.019	-527.34
199.238	-106.99
199.456	-250.39
199.674	-119.86
199.892	-360.26
200.111	-263.94
200.329	-246.46
200.547	-119.44
200.765	-254.43
200.983	-85.43
201.202	-51.19
201.42	-84.92
201.638	-58.85
201.856	-134.81
202.074	-213.18
202.292	-57.18
202.51	-80.58
202.728	-106.72
202.946	-143.17
203.165	-142.74
203.383	-267.33
203.601	-204.74
203.819	-162.58
204.037	-210.03
204.255	-121.07
204.473	-125.83
204.691	-152.37
204.909	-99.2
205.127	-60.46
205.345	-61.42
205.562	-67.4
205.78	-29.87
205.998	-32.16
206.216	-37.52
206.434	-42.21
206.652	-88.95
206.87	-61.16
207.088	-3468.75
207.306	-535.22
207.523	871.31
207.741	721.43
207.959	-1865.91
208.177	-409.08
208.395	-487.12
208.612	-187.64
208.83	-56.8
209.048	-57.07
209.266	-98.98
209.483	-32.09
209.701	-35.05
209.919	-24.93
210.136	-9.35
210.354	-27.07
210.572	-45.46
210.79	-33.45
211.007	-24.75
211.225	-48
211.442	-39.97
211.66	-52.63
211.878	-36.71
212.095	229.68
212.313	180.14
212.53	187.25
212.748	154.36
212.966	162.15
213.183	150.67
213.401	150.85
213.618	167.08
213.836	176.63
214.053	163.02
214.271	167.18
214.488	-4098.7
214.705	-972.94
214.923	-952.31
215.14	-466.88
215.358	-348.93
215.575	-181.71
215.793	-301.38
216.01	860.71
216.227	-56790.91
216.445	-308.28
216.662	-391.03
216.879	-397.76
217.097	-195.71
217.314	-153.76
217.531	-229.41
217.749	-177.26
217.966	-151.07
218.183	-146.9
218.4	-148.87
218.618	-99.64
218.835	-82.46
219.052	-61.51
219.269	-61.85
219.487	-52.43
219.704	-63.02
219.921	-96.06
220.138	-174.75
220.355	-256.19
220.572	-104.04
220.79	-25.01
221.007	-26.17
221.224	-94.79
221.441	-68.35
221.658	-55.77
221.875	-28.22
222.092	-52.06
222.309	-17.91
222.526	-0.46
222.743	11.2
222.96	6.41
223.177	-18.04
223.394	-69.46
223.611	-6.97
223.828	-41.57
224.045	-28.55
224.262	-59.36
224.479	-34.34
224.696	-7.14
224.913	-31.42
225.13	-55.23
225.347	-44.92
225.564	-31.53
225.781	-11.06
225.997	-12.36
226.214	-1.91
226.431	-15.58
226.648	-24.4
226.865	-22.64
227.082	-50.68
227.298	-34
227.515	-23.11
227.732	-31.64
227.949	-37.83
228.165	-31.6
228.382	-27.54
228.599	-28.37
228.816	-36.69
229.032	-35.29
229.249	-36.88
229.466	-19.71
229.682	-22.41
229.899	-22.42
230.116	-11.01
230.332	-22.37
230.549	-33.33
230.765	-24.96
230.982	-31.47
231.199	-20.39
231.415	-15.1
231.632	-6.91
231.848	-15.76
232.065	-9.25
232.281	0.13
232.498	-0.51
232.714	4.78
232.931	-3.17
233.147	-17.03
233.364	-1.17
233.58	1.74
233.797	-19.69
234.013	-21.5
234.23	-16.88
234.446	-36.84
234.662	-60.17
234.879	-56.49
235.095	-55.84
235.312	-74.19
235.528	-48.75
235.744	-57.51
235.961	-71.02
236.177	-76.32
236.393	-88.5
236.61	-74.5
236.826	-54
237.042	-43.53
237.258	-52.61
237.475	-59.69
237.691	-30.99
237.907	-35.09
238.123	-43.37
238.339	-37.31
238.556	-21.65
238.772	-20.69
238.988	-4.13
239.204	-1.2
239.42	-9.54
239.636	-3.68
239.853	4.01
240.069	-5.58
240.285	-2.2
240.501	4.1
240.717	15.87
240.933	15.95
241.149	14.46
241.365	6.72
241.581	3.39
241.797	7.3
242.013	8.65
242.229	5.75
242.445	11.63
242.661	7.73
242.877	7.34
243.093	7.65
243.309	3.76
243.525	1.29
243.741	-1.01
243.957	0.37
244.173	1.46
244.388	-4.07
244.604	1.67
244.82	-5.18
245.036	-6.59
245.252	-4.56
245.468	-4.63
245.683	-2.44
245.899	1.23
246.115	3.6
246.331	5.65
246.547	1.88
246.762	4.05
246.978	1.1
247.194	1.55
247.409	4.39
247.625	3.08
247.841	0.01
248.057	-1.01
248.272	0.54
248.488	5.13
248.703	4.42
248.919	6.06
249.135	6.53
249.35	8.03
249.566	11.45
249.782	2.7
249.997	-0.16
250.213	-1.94
250.428	-3.36
250.644	-15.27
250.859	-19.58
251.075	-22.44
251.29	-20.93
251.506	-28.1
251.721	-25.1
251.937	-32.54
252.152	-23.16
252.368	-27.05
252.583	-30.35
252.798	-29.19
253.014	-26.11
253.229	-30.03
253.445	-29.34
253.66	-28.26
253.875	-21.86
254.091	-27.4
254.306	-11.43
254.521	-18.22
254.737	-11.68
254.952	-7.65
255.167	-9.99
255.383	-1.47
255.598	-1.49
255.813	-3.4
256.028	-8.09
256.244	-9.74
256.459	-8.96
256.674	-11.47
256.889	-7.64
257.104	4.75
257.32	4.18
257.535	9.69
257.75	2.36
257.965	2.11
258.18	0.54
258.395	0.38
258.61	5.43
258.826	7.49
259.041	7.2
259.256	3.42
259.471	-0.94
259.686	-2.03
259.901	-2.9
260.116	0.54
260.331	0.67
260.546	3.51
260.761	6
260.976	4.82
261.191	2.51
261.406	5.11
261.621	5.56
261.836	6.58
262.05	8.47
262.265	4.28
262.48	8.16
262.695	8.52
262.91	7.21
263.125	7.05
263.34	8.51
263.555	9.96
263.769	2.8
263.984	9.63
264.199	4.79
264.414	7.12
264.629	11.87
264.843	7.31
265.058	1.24
265.273	1.37
265.488	-6.73
265.702	-11.11
265.917	-13.03
266.132	-13.67
266.346	-13.81
266.561	-14.15
266.776	-13.7
266.99	-16.89
267.205	-19.79
267.42	-17.68
267.634	-15.9
267.849	-13.23
268.063	-12.8
268.278	-13.52
268.492	-16.83
268.707	-17.63
268.922	-15.16
269.136	-14.3
269.351	-8.9
269.565	-3.38
269.78	-0.2
269.994	-1.9
270.209	-0.01
270.423	-1.2
270.637	0.36
270.852	6.24
271.066	3.51
271.281	1.58
271.495	-2.38
271.709	-4.63
271.924	-8.18
272.138	-12.33
272.353	-14.9
272.567	-17.25
272.781	-13.89
272.996	-10.89
273.21	-10.29
273.424	-6.55
273.638	-1.95
273.853	-0.28
274.067	1.93
274.281	4.3
274.495	6.5
274.71	10.78
274.924	13.09
275.138	12.97
275.352	8.51
275.566	3.61
275.781	1.42
275.995	0.98
276.209	0.38
276.423	-7.1
276.637	-10.44
276.851	-8.64
277.065	-14.2
277.279	-17.33
277.493	-17.88
277.707	-14.64
277.921	-14.21
278.135	-16.22
278.349	-12.16
278.563	-13.08
278.777	-12.54
278.991	-11.68
279.205	-12.45
279.419	-8.96
279.633	-9.42
279.847	-11.13
280.061	-12.91
280.275	-10.04
280.489	-9.2
280.703	-17.71
280.917	-11.98
281.131	-7.73
281.344	-10.31
281.558	-7.09
281.772	-8.42
281.986	-7.69
282.2	-5.86
282.414	-5.33
282.627	-6.42
282.841	-6.3
283.055	0.32
283.269	-0.67
283.482	-3.24
283.696	-1.2
283.91	-1.8
284.123	-5.41
284.337	-2.99
284.551	-6.02
284.764	-2.44
284.978	-3.21
285.192	-2.68
285.405	-3.45
285.619	-1.36
285.833	1.75
286.046	4.53
286.26	4.46
286.473	6.73
286.687	6.76
286.9	10.91
287.114	7.77
287.327	8.35
287.541	9.06
287.754	6.18
287.968	1.66
288.181	-0.67
288.395	-5.88
288.608	-2.79
288.822	-3.13
289.035	-7.24
289.248	-9.03
289.462	-7.91
289.675	-7.28
289.889	-7.41
290.102	-5.89
290.315	-5.71
290.529	-6.23
290.742	-1.9
290.955	-4.24
291.169	-2.12
291.382	1.42
291.595	2.73
291.808	2.84
292.022	1.73
292.235	2.42
292.448	0.75
292.661	2.98
292.875	3.16
293.088	1.4
293.301	-2.64
293.514	-5.62
293.727	-6.89
293.94	-8.4
294.153	-7.58
294.367	-7.82
294.58	-5.56
294.793	-3.92
295.006	-6.21
295.219	-5.22
295.432	-6.28
295.645	-3.18
295.858	-1.48
296.071	-3.34
296.284	-2.76
296.497	-1.7
296.71	0.41
296.923	-1.77
297.136	-2.33
297.349	-2.37
297.562	-0.84
297.775	1.48
297.988	0.15
298.201	-0.02
298.414	2.49
298.626	3.57
298.839	1.79
299.052	2.11
299.265	2.95
299.478	4.95
299.691	4.84
299.903	3.76
300.116	4.36
300.329	7.1
300.542	8.79
300.755	7.58
300.967	6.1
301.18	7.05
301.393	5.52
301.605	4.79
301.818	2.32
302.031	1.24
302.243	-0.15
302.456	-2.51
302.669	-1.91
302.881	-7.25
303.094	-6.23
303.307	-7.01
303.519	-6.57
303.732	-8.72
303.944	-7.95
304.157	-9.15
304.37	-6.77
304.582	-6.28
304.795	-7.95
305.007	-10.73
305.22	-7.81
305.432	-9.29
305.645	-9.8
305.857	-8.35
306.069	-4.45
306.282	-5.49
306.494	-2.56
306.707	-2.25
306.919	-3.21
307.132	-3.11
307.344	-4.07
307.556	-3.91
307.769	-2.54
307.981	-0.21
308.193	-3.89
308.406	-4.62
308.618	-2.91
308.83	-3.21
309.043	-1.39
309.255	-0.18
309.467	-0.65
309.679	1.03
309.892	1.21
310.104	1.88
310.316	0.2
310.528	0.22
310.74	0.41
310.953	-1.04
311.165	-1.56
311.377	-2.07
311.589	-2.62
311.801	-3.49
312.013	-6.09
312.225	-7.12
312.437	-10.01
312.649	-12.1
312.862	-10.62
313.074	-13.8
313.286	-11.7
313.498	-11.7
313.71	-17.37
313.922	-18.06
314.134	-16.79
314.346	-16.59
314.558	-15.79
314.77	-12.19
314.982	-8.76
315.193	-8.83
315.405	-10.14
315.617	-8.49
315.829	-9.98
316.041	-6.73
316.253	-4.47
316.465	-3.39
316.677	-1.19
316.888	0.75
317.1	1.71
317.312	0.23
317.524	0.52
317.736	-1.62
317.947	-7.09
318.159	-6.08
318.371	-2.96
318.583	-2.91
318.794	-3.58
319.006	-3.81
319.218	-5.7
319.43	-4.8
319.641	-2.54
319.853	-0.89
320.064	5.03
320.276	8
320.488	6.46
320.699	4.62
320.911	2.6
321.123	2.87
321.334	-1.68
321.546	-1.74
321.757	-2.97
321.969	-2.33
322.18	-5.82
322.392	-6.81
322.603	-5.82
322.815	-0.01
323.026	1.23
323.238	2.44
323.449	3.63
323.661	6.69
323.872	7.57
324.083	4.15
324.295	5.28
324.506	7.21
324.718	9.45
324.929	9.24
325.14	7.4
325.352	4.05
325.563	3.95
325.774	6.14
325.986	6.29
326.197	6.6
326.408	10.88
326.62	9.17
326.831	6.82
327.042	4.82
327.253	1.88
327.464	2.25
327.676	4.64
327.887	3.98
328.098	1.61
328.309	1.37
328.52	1.72
328.732	1.25
328.943	-0.62
329.154	3.49
329.365	3.28
329.576	7.44
329.787	7.38
329.998	7.18
330.209	8.25
330.42	9.4
330.631	8.74
330.842	8.08
331.053	7.41
331.264	10.69
331.475	10.44
331.686	9.91
331.897	9.68
332.108	8.91
332.319	12.56
332.53	11.03
332.741	12.05
332.952	14.72
333.163	14.05
333.374	12.22
333.585	10.44
333.795	7.33
334.006	7.87
334.217	9.82
334.428	11.41
334.639	8.3
334.849	9.98
335.06	9.29
335.271	6.22
335.482	7.82
335.692	6.61
335.903	6.69
336.114	9.54
336.325	11.16
336.535	10.3
336.746	7.46
336.957	7.04
337.167	7.07
337.378	6.05
337.589	10.08
337.799	11.18
338.01	13.09
338.22	12.77
338.431	13.72
338.642	11.49
338.852	11.66
339.063	13.22
339.273	15.37
339.484	16.18
339.694	16.35
339.905	14.12
340.115	9.16
340.326	9.19
340.536	10.87
340.746	11.26
340.957	13.59
341.167	11.65
341.378	11.36
341.588	11.42
341.799	10.88
342.009	12.39
342.219	12.55
342.43	16.72
342.64	17.25
342.85	16.63
343.061	13.97
343.271	13.02
343.481	12.24
343.691	9.87
343.902	9.66
344.112	9.64
344.322	9.19
344.532	9.41
344.743	8.9
344.953	8.56
345.163	8.19
345.373	9.06
345.583	9.58
345.793	11.1
346.004	13.63
346.214	11.95
346.424	14.42
346.634	15.36
346.844	14.16
347.054	14.61
347.264	14.87
347.474	15.83
347.684	15.48
347.894	14.52
348.104	14.12
348.314	14.1
348.524	15.44
348.734	14.02
348.944	13.07
349.154	15.18
349.364	14.5
349.574	14.32
349.784	12.73
349.994	14.14
350.204	14.71
350.413	14.96
350.623	15.33
350.833	15.55
351.043	16.25
351.253	14.18
351.463	13.18
351.672	14.27
351.882	14.17
352.092	15.03
352.302	13.01
352.511	12.39
352.721	10.61
352.931	11.09
353.141	9.66
353.35	7.22
353.56	8.85
353.77	9.66
353.979	8.23
354.189	8.48
354.399	9.3
354.608	8.41
354.818	9.34
355.027	11.24
355.237	11.02
355.447	11.33
355.656	12.28
355.866	10.75
356.075	10
356.285	11.34
356.494	11.14
356.704	9.85
356.913	12.13
357.123	12.65
357.332	12.56
357.542	12.72
357.751	13.54
357.96	13.39
358.17	14.07
358.379	15.36
358.589	15.43
358.798	16.6
359.007	17.18
359.217	17.37
359.426	17.55
359.635	17.56
359.845	16.15
360.054	16.12
360.263	16.23
360.472	17.09
360.682	15.98
360.891	14.89
361.1	14.01
361.309	15.25
361.519	14.49
361.728	13.01
361.937	12.54
362.146	13.93
362.355	14.41
362.564	15.34
362.774	14.74
362.983	14.1
363.192	14.23
363.401	13.64
363.61	12.09
363.819	11.1
364.028	12.4
364.237	12.73
364.446	12.74
364.655	11.6
364.864	9.37
365.073	10.42
365.282	11.29
365.491	11.7
365.7	12.68
365.909	13.14
366.118	14.03
366.327	14.21
366.536	12.75
366.745	12.36
366.954	11.76
367.162	12.6
367.371	12.37
367.58	12.07
367.789	12.38
367.998	11.56
368.207	11.2
368.415	11.28
368.624	10.87
368.833	12.12
369.042	12.43
369.25	14.3
369.459	14.48
369.668	13.26
369.877	14.58
370.085	15.14
370.294	15.99
370.503	16.95
370.711	16.51
370.92	16.41
371.129	15.81
371.337	15.51
371.546	16.39
371.754	15.88
371.963	15.6
372.171	14.75
372.38	13.61
372.589	10.85
372.797	10.31
373.006	11.84
373.214	10.95
373.423	10.98
373.631	9.95
373.84	8
374.048	8.46
374.256	10.08
374.465	10.4
374.673	10.01
374.882	11.95
375.09	11.75
375.298	11.16
375.507	13.57
375.715	14.14
375.923	15.57
376.132	15.39
376.34	15.47
376.548	15.19
376.757	13.99
376.965	15.29
377.173	15.51
377.381	15.46
377.59	13.28
377.798	11.1
378.006	11
378.214	9.63
378.423	10.52
378.631	11.17
378.839	9.83
379.047	12.07
379.255	10.91
379.463	11.63
379.671	10.93
379.879	12.24
380.088	12.29
380.296	13.14
380.504	13.33
380.712	12.99
380.92	11.7
381.128	12.36
381.336	11.43
381.544	10.95
381.752	9.42
381.96	10.02
382.168	11.32
382.376	11.41
382.584	10.52
382.791	9.44
382.999	9.22
383.207	8.77
383.415	10.33
383.623	9.05
383.831	10.1
384.039	10.07
384.247	9.66
384.454	9.84
384.662	9.69
384.87	10.95
385.078	12.89
385.285	12.98
385.493	14.69
385.701	13.92
385.909	14.05
386.116	13.32
386.324	14.3
386.532	15.08
386.739	13.93
386.947	12.98
387.155	11.95
387.362	10.43
387.57	10.29
387.778	8.99
387.985	8.55
388.193	8.86
388.4	9.53
388.608	8.83
388.816	8.61
389.023	9.41
389.231	11.84
389.438	11.26
389.646	11.43
389.853	11.58
390.061	11.78
390.268	10.93
390.475	11.48
390.683	11.41
390.89	12.28
391.098	12.14
391.305	12.01
391.512	10.45
391.72	10.08
391.927	11.22
392.135	11.05
392.342	10.75
392.549	10.63
392.756	10.53
392.964	10.5
393.171	8.62
393.378	8.11
393.586	7.26
393.793	7.57
394	8.99
394.207	8.12
394.414	7.34
394.622	7.79
394.829	7.99
395.036	7.84
395.243	7.7
395.45	9.43
395.657	9.17
395.864	9.54
396.072	9.64
396.279	9.44
396.486	8.9
396.693	9.1
396.9	9.17
397.107	8.65
397.314	9.24
397.521	9.39
397.728	8.73
397.935	8.63
398.142	8.29
398.349	8.46
398.556	7.22
398.763	8.76
398.97	8.96
399.177	8.39
399.383	9.52
399.59	8.68
399.797	8.55
400.004	8.68
400.211	8.4
400.418	8.85
400.625	8.03
400.831	8.13
401.038	7.56
401.245	7.03
401.452	7.31
401.658	6.8
401.865	6.51
402.072	6.22
402.279	5.9
402.485	6.22
402.692	5.22
402.899	5.1
403.105	6.01
403.312	5.9
403.519	5.55
403.725	5.23
403.932	4.96
404.138	4.61
404.345	4.77
404.552	4.61
404.758	5.02
404.965	5.36
405.171	5.99
405.378	5.33
405.584	5.81
405.791	6.95
405.997	6.12
406.204	6.81
406.41	7.12
406.617	6.72
406.823	7.14
407.029	7.7
407.236	7.3
407.442	6.39
407.649	6.03
407.855	5.41
408.061	4.59
408.268	7
408.474	6.83
408.68	7.27
408.887	7.96
409.093	8.43
409.299	7.68
409.505	8.93
409.712	9.48
409.918	10.61
410.124	9.84
410.33	10.39
410.537	9.44
410.743	9.71
410.949	10.08
411.155	9.73
411.361	10.08
411.567	10.18
411.773	10.41
411.98	10.65
412.186	9.91
412.392	10.82
412.598	10.86
412.804	10.74
413.01	10.45
413.216	9.76
413.422	9.57
413.628	7.71
413.834	7.15
414.04	6.29
414.246	6.94
414.452	7.63
414.658	7.35
414.864	6.65
415.07	7.11
415.275	7.05
415.481	7.25
415.687	6.99
415.893	7.95
416.099	9.37
416.305	9.76
416.511	9.69
416.716	8.85
416.922	8.44
417.128	8.92
417.334	8.76
417.539	8.72
417.745	9.31
417.951	9.76
418.157	9.66
418.362	9.27
418.568	9.38
418.774	9.17
418.979	8.93
419.185	9.22
419.391	9.1
419.596	8.71
419.802	8.59
420.008	8.1
420.213	8.59
420.419	8.39
420.624	8.36
420.83	8.28
421.035	8.38
421.241	9.15
421.446	8.85
421.652	9.33
421.857	9.16
422.063	9.46
422.268	9.5
422.474	8.37
422.679	8.8
422.885	8.62
423.09	8.5
423.295	8.52
423.501	7.73
423.706	7.93
423.911	7.78
424.117	7.6
424.322	7.64
424.527	7.87
424.733	8.32
424.938	8.18
425.143	7.67
425.349	7.72
425.554	7.1
425.759	7.64
425.964	7.6
426.169	7.38
426.375	7.75
426.58	7.41
426.785	7.01
426.99	7.13
427.195	6.46
427.4	6.91
427.605	6.41
427.811	7.35
428.016	7.49
428.221	7.43
428.426	7.28
428.631	7.58
428.836	7.44
429.041	7.59
429.246	7.18
429.451	7.6
429.656	7.8
429.861	7.62
430.066	7.49
430.271	7.54
430.476	7.62
430.681	7.31
430.886	7.68
431.09	7.76
431.295	7.95
431.5	7.97
431.705	7.6
431.91	7.42
432.115	8
432.32	7.41
432.524	7.25
432.729	7.22
432.934	7.06
433.139	6.94
433.343	7.11
433.548	6.69
433.753	6.39
433.958	6.99
434.162	6.99
434.367	7.4
434.572	7.11
434.776	7.22
434.981	7.33
435.186	7.83
435.39	7.04
435.595	6.78
435.799	6.96
436.004	7.25
436.209	7.22
436.413	7.52
436.618	7.25
436.822	8.44
437.027	7.9
437.231	7.99
437.436	8.06
437.64	7.94
437.845	8.25
438.049	8.29
438.253	8.56
438.458	8.47
438.662	8.63
438.867	8.11
439.071	7.68
439.275	7.59
439.48	7.32
439.684	6.74
439.888	7.42
440.093	7.06
440.297	7.16
440.501	7.21
440.706	6.42
440.91	6.1
441.114	6.05
441.318	6.02
441.523	5.8
441.727	5.68
441.931	6.49
442.135	6.54
442.339	6.51
442.543	6.79
442.748	6.43
442.952	7.46
443.156	7.12
443.36	7.24
443.564	6.76
443.768	7.25
443.972	6.96
444.176	7.12
444.38	7.03
444.584	7.27
444.788	6.79
444.992	6.95
445.196	6.69
445.4	7.06
445.604	7.14
445.808	7.2
446.012	7.26
446.216	7.96
446.42	7.6
446.624	7.17
446.828	7.04
447.032	7.3
447.235	7.56
447.439	7.7
447.643	7.54
447.847	6.9
448.051	6.74
448.254	6.23
448.458	6.33
448.662	6.38
448.866	6.65
449.069	6.36
449.273	6.14
449.477	5.61
449.681	4.97
449.884	4.29
450.088	5.03
450.292	6.17
450.495	6.92
450.699	6.1
450.902	6.23
451.106	6.63
451.31	7.41
451.513	6.38
451.717	6.57
451.92	7.19
452.124	7.55
452.327	7.36
452.531	6.37
452.734	6.52
452.938	6.97
453.141	6.82
453.345	6.51
453.548	6.61
453.752	7.17
453.955	7
454.158	7.33
454.362	7
454.565	7.24
454.769	7.57
454.972	6.75
455.175	6.37
455.379	6.46
455.582	5.96
455.785	5.35
455.988	5.65
456.192	5.01
456.395	4.62
456.598	5.62
456.801	6.15
457.005	5.9
457.208	6.82
457.411	7.07
457.614	6.99
457.817	7.1
458.021	7.08
458.224	7.33
458.427	8.36
458.63	7.83
