Data from JASIL_3335_Reflection_1.txt Node
Date: Tue Nov 17 20:20:32 EST 2015
User: Geneva
Spectrometer: USB4E03002
Autoset integration time: false
Trigger mode: 4
Integration Time (sec): 1.000000E-1
Scans to average: 10
Electric dark correction enabled: false
Nonlinearity correction enabled: false
Boxcar width: 5
Stray light correction enabled: false
XAxis mode: Wavelengths
Stop averaging: false
Number of Pixels in Spectrum: 3648
>>>>>Begin Spectral Data<<<<<
177.575	-328.71
177.794	-320.65
178.014	-235.96
178.233	-454.72
178.452	-500
178.672	-324.41
178.891	-850
179.11	5230
179.33	1319.57
179.549	1411.76
179.768	-6554.55
179.987	675.76
180.207	425.41
180.426	841.1
180.645	1080
180.864	7688.24
181.084	816.87
181.303	581.25
181.522	736.21
181.741	770.22
181.96	1192.93
182.179	6270.59
182.398	-1118.18
182.618	-388.56
182.837	-271.9
183.056	-236.07
183.275	-251.67
183.494	-65.55
183.713	-67.67
183.932	-55.28
184.151	-24.88
184.37	-29.29
184.589	-53.78
184.808	-30.43
185.027	-28.65
185.246	-98.64
185.465	-109.7
185.684	-153.66
185.903	-265.05
186.122	-347.08
186.341	-737.17
186.56	-470.83
186.779	-2781.48
186.998	-316.4
187.216	-406.67
187.435	-399.39
187.654	-354.55
187.873	-246.87
188.092	-275
188.311	-395.71
188.53	-232.61
188.748	-114.56
188.967	-130.64
189.186	-74.2
189.405	-227.48
189.623	-163.44
189.842	-153.35
190.061	-135.38
190.28	-77.01
190.498	-103.53
190.717	-80.04
190.936	-130.34
191.154	-457.14
191.373	-986.21
191.592	2283.72
191.81	892.23
192.029	877.89
192.248	480.39
192.466	525.41
192.685	211.58
192.904	498.51
193.122	342.86
193.341	403.36
193.559	470.06
193.778	523.2
193.996	425.12
194.215	1089.86
194.433	555
194.652	580.42
194.87	428.75
195.089	516.15
195.307	1173.68
195.526	-657.14
195.744	-445.32
195.963	-531.33
196.181	-722.31
196.399	-1098.85
196.618	1321.05
196.836	789.36
197.055	666.89
197.273	787.31
197.491	924.32
197.71	426.98
197.928	366.23
198.146	323.29
198.365	1335.71
198.583	852.38
198.801	-287.1
199.019	-53.49
199.238	-32.56
199.456	-33.33
199.674	-94.67
199.892	-79.51
200.111	-78.87
200.329	-85.22
200.547	-150
200.765	1325.49
200.983	-562.39
201.202	1057.89
201.42	389.29
201.638	298.26
201.856	480.34
202.074	616
202.292	357.5
202.51	269.67
202.728	377.06
202.946	2835.71
203.165	1765.38
203.383	355.96
203.601	522.34
203.819	780.91
204.037	-2354.55
204.255	-3125.93
204.473	-622.38
204.691	-554.12
204.909	-398.23
205.127	-1752.08
205.345	553.33
205.562	-502.33
205.78	-114.42
205.998	-76.13
206.216	-75.69
206.434	-98.95
206.652	-100.61
206.87	-200.6
207.088	-163.81
207.306	-309.83
207.523	-209.05
207.741	-165.95
207.959	-290.99
208.177	-324.87
208.395	-349.02
208.612	-362.5
208.83	-206.19
209.048	-255.1
209.266	-221.27
209.483	-105.7
209.701	-92.64
209.919	-97.45
210.136	-122.41
210.354	-131.59
210.572	-165.84
210.79	-217.67
211.007	-500.7
211.225	-5740
211.442	901.69
211.66	2524
211.878	308.31
212.095	992.15
212.313	1541.53
212.53	830.33
212.748	711.16
212.966	517.68
213.183	637.74
213.401	-7327.78
213.618	-470.24
213.836	-489.42
214.053	-613.76
214.271	-444.87
214.488	-182.14
214.705	-155.65
214.923	-116.62
215.14	-80.04
215.358	-62.2
215.575	-47.6
215.793	-128.6
216.01	-390.05
216.227	-604.31
216.445	-534.72
216.662	-229.31
216.879	-236.09
217.097	-116.28
217.314	-117.12
217.531	4800
217.749	418.81
217.966	296.15
218.183	190.66
218.4	249.68
218.618	316.45
218.835	195.18
219.052	196.69
219.269	225.59
219.487	154.24
219.704	170.08
219.921	183.7
220.138	237.93
220.355	227.09
220.572	222.36
220.79	203.35
221.007	233.65
221.224	325.86
221.441	328.03
221.658	367.09
221.875	-1694.29
222.092	-671.59
222.309	1681.82
222.526	348.48
222.743	329.95
222.96	366.19
223.177	1025.58
223.394	771.05
223.611	539.86
223.828	354.4
224.045	231.92
224.262	175
224.479	198.76
224.696	382.21
224.913	614.05
225.13	470.75
225.347	382.76
225.564	224.52
225.781	146.79
225.997	125.23
226.214	105.27
226.431	90.67
226.648	85.87
226.865	68.37
227.082	62.01
227.298	58.28
227.515	54.24
227.732	55.55
227.949	52.59
228.165	48.32
228.382	40.96
228.599	42.54
228.816	43.98
229.032	44.93
229.249	52.16
229.466	49.5
229.682	50.49
229.899	50.2
230.116	56.71
230.332	63.62
230.549	68.83
230.765	66.02
230.982	59.14
231.199	70.19
231.415	72
231.632	69.92
231.848	70.37
232.065	69.99
232.281	66.64
232.498	56.54
232.714	47.62
232.931	43.89
233.147	52.34
233.364	58.46
233.58	44.92
233.797	48.79
234.013	52.31
234.23	76.42
234.446	83.33
234.662	104.8
234.879	128.6
235.095	99.25
235.312	93.24
235.528	105.31
235.744	123.36
235.961	168.18
236.177	139.36
236.393	183.24
236.61	125.73
236.826	98.44
237.042	71.7
237.258	81.67
237.475	89.95
237.691	117.5
237.907	57.04
238.123	62.62
238.339	60.06
238.556	68.47
238.772	54.04
238.988	42.3
239.204	37.37
239.42	43.29
239.636	38.03
239.853	37.19
240.069	36.91
240.285	36.34
240.501	32.19
240.717	33.73
240.933	29.17
241.149	26.59
241.365	29.78
241.581	29.23
241.797	30.82
242.013	32.27
242.229	31.86
242.445	27.86
242.661	31.77
242.877	36.57
243.093	35.3
243.309	36.08
243.525	36.48
243.741	37.9
243.957	37.81
244.173	34.82
244.388	35.05
244.604	35.51
244.82	34.89
245.036	31.71
245.252	27.69
245.468	25.14
245.683	23.81
245.899	22.98
246.115	22.34
246.331	20.23
246.547	17.95
246.762	17.8
246.978	15.91
247.194	15.69
247.409	14.22
247.625	14.11
247.841	12.71
248.057	14.55
248.272	13.45
248.488	10.15
248.703	9.62
248.919	12.34
249.135	7.91
249.35	8.58
249.566	12.34
249.782	19.07
249.997	20.66
250.213	24.17
250.428	22.1
250.644	23.55
250.859	24.88
251.075	26.77
251.29	23.71
251.506	25.95
251.721	25.19
251.937	19.23
252.152	16.33
252.368	15.6
252.583	11.49
252.798	12.95
253.014	13
253.229	14.09
253.445	18.6
253.66	24.78
253.875	25.35
254.091	20.6
254.306	27.54
254.521	22.01
254.737	16.1
254.952	18.1
255.167	16.32
255.383	15.95
255.598	19.15
255.813	14.2
256.028	7.23
256.244	8.36
256.459	20.54
256.674	18.81
256.889	20.65
257.104	19.87
257.32	19.32
257.535	17.09
257.75	16.5
257.965	15.03
258.18	13.3
258.395	13.06
258.61	12.99
258.826	9.23
259.041	10.73
259.256	10.37
259.471	9.83
259.686	11.58
259.901	12.66
260.116	12.73
260.331	11.26
260.546	14.05
260.761	15.45
260.976	14.26
261.191	18.53
261.406	15.97
261.621	17.83
261.836	20.78
262.05	18.9
262.265	22.3
262.48	23.2
262.695	28.48
262.91	28.06
263.125	29.15
263.34	31.87
263.555	28.74
263.769	33.36
263.984	26.96
264.199	27.16
264.414	27.26
264.629	22.75
264.843	23.18
265.058	19.78
265.273	13.49
265.488	16.54
265.702	18.03
265.917	18.47
266.132	16.3
266.346	19.12
266.561	17.43
266.776	14.22
266.99	12.34
267.205	12.34
267.42	10.27
267.634	10.9
267.849	10.26
268.063	8.44
268.278	9.83
268.492	12.16
268.707	9.42
268.922	12.79
269.136	17.1
269.351	16.79
269.565	19.24
269.78	22.06
269.994	25.51
270.209	22.54
270.423	22.4
270.637	18.37
270.852	17.73
271.066	18.86
271.281	17.4
271.495	15.05
271.709	17.11
271.924	14.68
272.138	14.04
272.353	12.33
272.567	13.63
272.781	10.48
272.996	10.4
273.21	12.77
273.424	11.79
273.638	13.38
273.853	14.46
274.067	13.63
274.281	12.48
274.495	13.24
274.71	15.82
274.924	14.24
275.138	19.56
275.352	21.59
275.566	18.76
275.781	17.77
275.995	15.11
276.209	13.57
276.423	11.66
276.637	12.09
276.851	10.76
277.065	8.42
277.279	7.93
277.493	5.29
277.707	4.29
277.921	4.12
278.135	8.13
278.349	8.52
278.563	9.49
278.777	10.5
278.991	10.13
279.205	11.67
279.419	11.66
279.633	12.92
279.847	13.91
280.061	14.03
280.275	15.06
280.489	13.18
280.703	11.21
280.917	12.54
281.131	12.1
281.344	15.59
281.558	13.87
281.772	12.4
281.986	14.48
282.2	12.92
282.414	12.93
282.627	12.12
282.841	12.72
283.055	11.91
283.269	10.69
283.482	12.65
283.696	10.97
283.91	11.81
284.123	12.66
284.337	11.32
284.551	12.71
284.764	12.3
284.978	11.72
285.192	11.54
285.405	12.92
285.619	12.76
285.833	12.1
286.046	12.99
286.26	13.18
286.473	15.46
286.687	15.02
286.9	16.16
287.114	17.73
287.327	17.72
287.541	16.71
287.754	18.37
287.968	18.66
288.181	17.73
288.395	17.23
288.608	17.33
288.822	14.04
289.035	13.59
289.248	12.29
289.462	9.98
289.675	10.21
289.889	10.53
290.102	9.78
290.315	9.86
290.529	11.38
290.742	11.49
290.955	11.93
291.169	13.33
291.382	13.73
291.595	13.4
291.808	15.37
292.022	17.2
292.235	18.05
292.448	17.25
292.661	17.86
292.875	17.64
293.088	16.84
293.301	15.08
293.514	15.1
293.727	13.72
293.94	13.17
294.153	12.29
294.367	11.97
294.58	11.48
294.793	11.05
295.006	10.2
295.219	9.06
295.432	7.82
295.645	10.2
295.858	10.28
296.071	11.22
296.284	10.77
296.497	11.58
296.71	11.62
296.923	10.45
297.136	10.84
297.349	11.38
297.562	11.37
297.775	11.34
297.988	10.01
298.201	9.99
298.414	10.73
298.626	10.74
298.839	9.91
299.052	9.43
299.265	11.76
299.478	11.95
299.691	12.08
299.903	12.69
300.116	13.44
300.329	11.74
300.542	13.53
300.755	13.66
300.967	14.29
301.18	16.37
301.393	16.5
301.605	16.29
301.818	16.34
302.031	16.51
302.243	16.31
302.456	15.77
302.669	17.32
302.881	16.28
303.094	16.6
303.307	16.27
303.519	15.35
303.732	15.9
303.944	15.43
304.157	16.7
304.37	17.63
304.582	17.82
304.795	18.94
305.007	18.66
305.22	17.9
305.432	18.25
305.645	19.66
305.857	18.82
306.069	15.7
306.282	14.32
306.494	13.23
306.707	11.09
306.919	10.03
307.132	10.1
307.344	9.8
307.556	8.95
307.769	6.59
307.981	6.34
308.193	5.36
308.406	5.92
308.618	5.83
308.83	6.68
309.043	7.97
309.255	8.37
309.467	8.35
309.679	6.76
309.892	8.32
310.104	10.05
310.316	10.63
310.528	12.18
310.74	12.25
310.953	13.25
311.165	12.87
311.377	13.92
311.589	14.64
311.801	14.37
312.013	15.18
312.225	14.76
312.437	13.84
312.649	12
312.862	12.57
313.074	12.97
313.286	13.7
313.498	12.73
313.71	9.83
313.922	8.81
314.134	9.21
314.346	10.74
314.558	10.76
314.77	9.78
314.982	11.2
315.193	9.05
315.405	10.31
315.617	8.49
315.829	9.76
316.041	11.36
316.253	11.47
316.465	11.76
316.677	12.21
316.888	13.47
317.1	13.71
317.312	14.95
317.524	16.67
317.736	18.52
317.947	18.07
318.159	19.59
318.371	20.88
318.583	20.57
318.794	20.8
319.006	20.37
319.218	18.85
319.43	19.6
319.641	20.76
319.853	21.42
320.064	18.85
320.276	21.54
320.488	21.37
320.699	20.05
320.911	21.8
321.123	20.88
321.334	21.18
321.546	20.37
321.757	21.62
321.969	20.09
322.18	18.73
322.392	17.99
322.603	16.65
322.815	13.4
323.026	12.59
323.238	12.23
323.449	11.2
323.661	10.97
323.872	11.11
324.083	11.11
324.295	9.52
324.506	9.64
324.718	9.91
324.929	11.51
325.14	14.11
325.352	14.32
325.563	14.98
325.774	15.59
325.986	14.97
326.197	15.9
326.408	15.15
326.62	16.93
326.831	17.47
327.042	17.94
327.253	17.72
327.464	16.59
327.676	17.46
327.887	15.59
328.098	16.73
328.309	16.69
328.52	16.9
328.732	16.48
328.943	16
329.154	15.7
329.365	15.87
329.576	14.39
329.787	14.66
329.998	15.8
330.209	17.75
330.42	17.36
330.631	17.91
330.842	18.95
331.053	19.94
331.264	21.8
331.475	20.84
331.686	21.54
331.897	21.31
332.108	22.56
332.319	20.07
332.53	18.49
332.741	18.17
332.952	17.51
333.163	17.19
333.374	18.5
333.585	17.86
333.795	21.01
334.006	19.63
334.217	20.34
334.428	18.83
334.639	19.28
334.849	21.69
335.06	23.01
335.271	25.03
335.482	25.51
335.692	24.81
335.903	23.34
336.114	23
336.325	24.36
336.535	24.89
336.746	25.1
336.957	25.43
337.167	24.1
337.378	24.36
337.589	24.5
337.799	22.13
338.01	23.09
338.22	23.52
338.431	23.29
338.642	23.96
338.852	24.01
339.063	24.12
339.273	24.51
339.484	24.79
339.694	23.14
339.905	22.07
340.115	23.75
340.326	22.13
340.536	20.94
340.746	20.82
340.957	19.62
341.167	20.23
341.378	20.42
341.588	19.55
341.799	19.26
342.009	19.45
342.219	19.19
342.43	19.22
342.64	18.56
342.85	19.74
343.061	18.67
343.271	18.65
343.481	17.04
343.691	16.46
343.902	17
344.112	17.8
344.322	16.43
344.532	15.57
344.743	15.21
344.953	15.32
345.163	13.3
345.373	14.1
345.583	13.82
345.793	14.17
346.004	14.7
346.214	13.72
346.424	12.05
346.634	13.76
346.844	15.58
347.054	15.28
347.264	15.52
347.474	16.73
347.684	17.2
347.894	17.28
348.104	16.73
348.314	17.07
348.524	17.82
348.734	19.32
348.944	18.88
349.154	16.93
349.364	16.96
349.574	15.97
349.784	16.43
349.994	14.83
350.204	14.18
350.413	13.57
350.623	12.53
350.833	13.9
351.043	12.65
351.253	12.34
351.463	11.75
351.672	11.57
351.882	12.36
352.092	12.27
352.302	12.64
352.511	13.58
352.721	15.51
352.931	15.08
353.141	14.19
353.35	13.48
353.56	13.35
353.77	14.7
353.979	14.28
354.189	15.09
354.399	15.03
354.608	14.96
354.818	14.85
355.027	14.23
355.237	14.43
355.447	14.28
355.656	15.48
355.866	16.13
356.075	16.41
356.285	16.52
356.494	15.86
356.704	16.49
356.913	17.03
357.123	17.15
357.332	17.65
357.542	18.23
357.751	18.2
357.96	17.31
358.17	16.75
358.379	16.02
358.589	16.9
358.798	17.46
359.007	17.44
359.217	17.53
359.426	16.6
359.635	15.92
359.845	15.66
360.054	15.2
360.263	15.69
360.472	15.87
360.682	16.59
360.891	15.64
361.1	15.17
361.309	15.49
361.519	14.29
361.728	14.34
361.937	14.64
362.146	15.07
362.355	15.05
362.564	14.44
362.774	14.78
362.983	14.54
363.192	14.88
363.401	15.48
363.61	14.48
363.819	15.88
364.028	17.05
364.237	17.38
364.446	16.61
364.655	16.7
364.864	17.36
365.073	16.33
365.282	15.59
365.491	15.59
365.7	16.02
365.909	15.91
366.118	15.87
366.327	14.74
366.536	13.1
366.745	13.39
366.954	13.49
367.162	13.66
367.371	14.29
367.58	15.15
367.789	15.45
367.998	14.68
368.207	14.04
368.415	14.37
368.624	15.08
368.833	16.29
369.042	16.59
369.25	16.84
369.459	16.71
369.668	16.63
369.877	16.98
370.085	16.5
370.294	16.07
370.503	17.46
370.711	15.69
370.92	15.48
371.129	14.96
371.337	13.64
371.546	12.26
371.754	11.92
371.963	12.29
372.171	11.27
372.38	11.59
372.589	11.53
372.797	10.84
373.006	11.71
373.214	11.12
373.423	11.46
373.631	12.77
373.84	12.71
374.048	12.26
374.256	12.41
374.465	13.21
374.673	13.15
374.882	12.44
375.09	11.5
375.298	12.03
375.507	11.97
375.715	11.62
375.923	11.33
376.132	11.85
376.34	11.46
376.548	11.58
376.757	10.7
376.965	10.49
377.173	11.41
377.381	12.72
377.59	12.25
377.798	12.12
378.006	11.3
378.214	11.37
378.423	11.26
378.631	12.14
378.839	11.68
379.047	11.87
379.255	12.9
379.463	12.56
379.671	12.09
379.879	11.33
380.088	12.06
380.296	13.74
380.504	13.44
380.712	14.17
380.92	13.69
381.128	14.33
381.336	14.92
381.544	13.27
381.752	13.36
381.96	12.77
382.168	12.74
382.376	13.22
382.584	12.12
382.791	12.49
382.999	12.59
383.207	12.82
383.415	12.46
383.623	12.3
383.831	13.69
384.039	13.68
384.247	14.36
384.454	14.55
384.662	13.72
384.87	14.92
385.078	14.42
385.285	13.36
385.493	14.58
385.701	14.66
385.909	14.81
386.116	14.48
386.324	13.7
386.532	13.04
386.739	13.78
386.947	13.23
387.155	12.92
387.362	13.5
387.57	13.75
387.778	12.27
387.985	11.47
388.193	11.02
388.4	10.48
388.608	11.3
388.816	12.01
389.023	12.61
389.231	13.9
389.438	12.66
389.646	12.28
389.853	13.05
390.061	13.17
390.268	13.47
390.475	13.11
390.683	13.32
390.89	13.36
391.098	12.96
391.305	12.08
391.512	11.7
391.72	12.52
391.927	12.72
392.135	12.1
392.342	11.77
392.549	11.2
392.756	10.84
392.964	10.41
393.171	11.13
393.378	11.32
393.586	11.27
393.793	10.93
394	10.76
394.207	10.7
394.414	11.29
394.622	11.27
394.829	11.93
395.036	12.28
395.243	12.3
395.45	11.8
395.657	10.54
395.864	10.82
396.072	11.91
396.279	12.05
396.486	11.66
396.693	10.87
396.9	11.15
397.107	11.18
397.314	11.55
397.521	11.6
397.728	11.24
397.935	11.7
398.142	11.41
398.349	10.07
398.556	9.79
398.763	9.87
398.97	10.45
399.177	10.76
399.383	11.08
399.59	11.23
399.797	11.4
400.004	11.53
400.211	12.48
400.418	12.41
400.625	13.09
400.831	13.21
401.038	13.29
401.245	13.37
401.452	13.15
401.658	12.97
401.865	12.65
402.072	12.38
402.279	12.31
402.485	12.76
402.692	13.12
402.899	12.05
403.105	12.26
403.312	12.43
403.519	12.49
403.725	11.88
403.932	11.57
404.138	11.8
404.345	11.97
404.552	12.47
404.758	12.18
404.965	11.53
405.171	12.32
405.378	12.79
405.584	13.06
405.791	13.26
405.997	13.66
406.204	13.42
406.41	13.79
406.617	13.71
406.823	12.38
407.029	11.51
407.236	12.12
407.442	11.94
407.649	11.22
407.855	10.33
408.061	9.6
408.268	10.17
408.474	10.71
408.68	10.09
408.887	10.43
409.093	12.08
409.299	12.16
409.505	11.56
409.712	11.44
409.918	11.87
410.124	11.73
410.33	12.2
410.537	11.64
410.743	11.13
410.949	11.5
411.155	10.96
411.361	9.7
411.567	9.71
411.773	9.75
411.98	10.12
412.186	10.07
412.392	10.4
412.598	10.36
412.804	9.46
413.01	10.3
413.216	9.67
413.422	9.93
413.628	10.39
413.834	10.08
414.04	9.84
414.246	9.28
414.452	8.51
414.658	8.83
414.864	8.68
415.07	9.74
415.275	8.47
415.481	9.12
415.687	9.01
415.893	8.62
416.099	9.1
416.305	9.21
416.511	9.25
416.716	9.37
416.922	9.47
417.128	9.36
417.334	9.16
417.539	9.67
417.745	9.66
417.951	9.26
418.157	9.65
418.362	9.76
418.568	9.68
418.774	9.83
418.979	9.54
419.185	9.26
419.391	9.24
419.596	9.24
419.802	9.38
420.008	8.55
420.213	9.09
420.419	8.68
420.624	8.68
420.83	8.78
421.035	8.72
421.241	8.71
421.446	8.9
421.652	9.12
421.857	9.22
422.063	9.25
422.268	9.83
422.474	9.45
422.679	9.64
422.885	9.41
423.09	9.58
423.295	9.61
423.501	9.71
423.706	9.6
423.911	9.21
424.117	9.3
424.322	9.08
424.527	8.92
424.733	9.33
424.938	9.17
425.143	9.27
425.349	9.04
425.554	9.06
425.759	9.23
425.964	9.41
426.169	10
426.375	9.93
426.58	10.49
426.785	10.46
426.99	9.99
427.195	9.92
427.4	9.89
427.605	10.3
427.811	10.48
428.016	10.48
428.221	10.07
428.426	10.09
428.631	9.89
428.836	9.45
429.041	9.62
429.246	9.83
429.451	10.58
429.656	10.85
429.861	10.78
430.066	10.62
430.271	11.05
430.476	11.02
430.681	10.39
430.886	10.21
431.09	9.9
431.295	9.95
431.5	10.5
431.705	10.13
431.91	9.89
432.115	9.46
432.32	9.22
432.524	8.94
432.729	9.24
432.934	9.62
433.139	9.7
433.343	9.89
433.548	9.6
433.753	8.93
433.958	8.52
434.162	8.91
434.367	9.25
434.572	9.2
434.776	9.21
434.981	8.74
435.186	8.44
435.39	8.62
435.595	8.54
435.799	9.14
436.004	9.13
436.209	9.63
436.413	9.21
436.618	8.95
436.822	9.41
437.027	9.12
437.231	9.43
437.436	9.47
437.64	9.49
437.845	9.65
438.049	9.17
438.253	9.12
438.458	9.09
438.662	9.15
438.867	9.01
439.071	9.21
439.275	9.59
439.48	9.47
439.684	9.69
439.888	9.49
440.093	9.31
440.297	9.38
440.501	9.74
440.706	9.77
440.91	9.61
441.114	9.6
441.318	9.4
441.523	9.27
441.727	9.15
441.931	9.13
442.135	9.6
442.339	9.77
442.543	10.12
442.748	9.97
442.952	9.86
443.156	9.55
443.36	10.05
443.564	9.69
443.768	9.67
443.972	10.45
444.176	10.18
444.38	9.7
444.584	9.5
444.788	9.19
444.992	8.98
445.196	8.89
445.4	9.17
445.604	8.75
445.808	8.71
446.012	8.48
446.216	8.09
446.42	8.02
446.624	8.15
446.828	8.19
447.032	8.24
447.235	8.3
447.439	8.16
447.643	8.24
447.847	8.7
448.051	8.91
448.254	9.08
448.458	9.16
448.662	9.13
448.866	9.19
449.069	9.54
449.273	9.53
449.477	9.76
449.681	10.01
449.884	9.76
450.088	9.19
450.292	9.09
450.495	9.07
450.699	9.06
450.902	9.31
451.106	9.45
451.31	9.4
451.513	10.05
451.717	10.07
451.92	10.14
452.124	10.23
452.327	10.63
452.531	10.86
452.734	10.81
452.938	10.48
453.141	10.5
453.345	10.4
453.548	10.08
453.752	9.58
453.955	9.33
454.158	9.18
454.362	9.32
454.565	9.66
454.769	9.98
454.972	10.14
455.175	10.55
455.379	10.73
455.582	10.95
