Data from JASIL_3139_Reflection_1.txt Node
Date: Thu Nov 12 20:53:07 EST 2015
User: Geneva
Spectrometer: USB4E03002
Autoset integration time: false
Trigger mode: 4
Integration Time (sec): 1.000000E-1
Scans to average: 10
Electric dark correction enabled: true
Nonlinearity correction enabled: false
Boxcar width: 5
Stray light correction enabled: false
XAxis mode: Wavelengths
Stop averaging: false
Number of Pixels in Spectrum: 3648
>>>>>Begin Spectral Data<<<<<
177.575	241.67
177.794	249.18
178.014	425.58
178.233	35.61
178.452	39.13
178.672	133.33
178.891	200
179.11	38.83
179.33	31.05
179.549	-104.76
179.768	-776.67
179.987	208.44
180.207	-10850
180.426	242.28
180.645	339.02
180.864	271.07
181.084	166.02
181.303	232.38
181.522	252.28
181.741	252.42
181.96	228.37
182.179	256.07
182.398	330.13
182.618	208.02
182.837	311.11
183.056	611.72
183.275	-1592.5
183.494	1170.97
183.713	458.91
183.932	568.29
184.151	630.43
184.37	433.76
184.589	388.93
184.808	794.49
185.027	911.46
185.246	594.96
185.465	-818.57
185.684	560.29
185.903	-393.37
186.122	-252.12
186.341	-392.05
186.56	-254.88
186.779	-124.49
186.998	-56.91
187.216	-81.61
187.435	-93.64
187.654	-131.02
187.873	-29700
188.092	-407.48
188.311	400
188.53	-154.55
188.748	52.46
188.967	61.94
189.186	113.39
189.405	-80.25
189.623	-36.17
189.842	139.37
190.061	94.64
190.28	83.49
190.498	73.78
190.717	17.99
190.936	6.32
191.154	12.13
191.373	-51.79
191.592	-123.53
191.81	-75.94
192.029	-223.53
192.248	-517.36
192.466	1684.21
192.685	14800
192.904	2872.22
193.122	272.77
193.341	241.3
193.559	187.89
193.778	176.4
193.996	189.55
194.215	242.21
194.433	233.22
194.652	272.5
194.87	290.84
195.089	380.23
195.307	261.77
195.526	421.18
195.744	731.13
195.963	-4094.12
196.181	973.42
196.399	645.76
196.618	424.44
196.836	357.29
197.055	193.63
197.273	143.01
197.491	98.1
197.71	92.79
197.928	68.2
198.146	68.87
198.365	57.67
198.583	53.89
198.801	67.97
199.019	55.13
199.238	47.33
199.456	59.74
199.674	69.11
199.892	92.15
200.111	104.3
200.329	125.82
200.547	147.36
200.765	215.63
200.983	162.98
201.202	158.22
201.42	163.1
201.638	167.57
201.856	140.43
202.074	255
202.292	1723.53
202.51	-49.45
202.728	-2.03
202.946	33.71
203.165	50.27
203.383	45.01
203.601	71.02
203.819	76.64
204.037	43.6
204.255	5.99
204.473	-39.87
204.691	-224.14
204.909	188.89
205.127	111.79
205.345	123.63
205.562	184.86
205.78	984.62
205.998	-1437.5
206.216	709.52
206.434	-241.03
206.652	13.1
206.87	33.58
207.088	26.42
207.306	34.96
207.523	30.61
207.741	419.05
207.959	-111.63
208.177	22000
208.395	209.66
208.612	171.14
208.83	177.24
209.048	132.76
209.266	181.62
209.483	155.81
209.701	165.75
209.919	181.56
210.136	189.14
210.354	217.21
210.572	193.16
210.79	255.95
211.007	223.5
211.225	205.28
211.442	391.33
211.66	935.94
211.878	-1580
212.095	-170.05
212.313	-93.59
212.53	-78.72
212.748	-131.09
212.966	-142.22
213.183	-55.44
213.401	-38.14
213.618	-25.36
213.836	-15.99
214.053	14.35
214.271	-3.81
214.488	-78.4
214.705	-157.58
214.923	-2783.33
215.14	284.3
215.358	82.58
215.575	94.8
215.793	137.45
216.01	190.91
216.227	545.57
216.445	399.48
216.662	256.49
216.879	321.66
217.097	-786.96
217.314	-2533.33
217.531	-544.94
217.749	-172.78
217.966	-86.67
218.183	-139.91
218.4	-2020.83
218.618	255.81
218.835	131.94
219.052	100.24
219.269	77.67
219.487	56.77
219.704	46.78
219.921	65.21
220.138	43.8
220.355	60.35
220.572	59.42
220.79	48.99
221.007	70.09
221.224	71.12
221.441	93.21
221.658	115.8
221.875	108.16
222.092	114.76
222.309	109.56
222.526	120.51
222.743	107.47
222.96	91.36
223.177	102.19
223.394	83.06
223.611	100.47
223.828	8200
224.045	104.31
224.262	-896.15
224.479	395.19
224.696	2969.23
224.913	-309.52
225.13	-322.82
225.347	-254.69
225.564	-596.4
225.781	-747.62
225.997	-440.43
226.214	-313.07
226.431	-107.48
226.648	-127.82
226.865	-100.4
227.082	-102.78
227.298	-102.58
227.515	-90.27
227.732	-79.17
227.949	-38.68
228.165	-30.99
228.382	-40.54
228.599	-38.39
228.816	-30.03
229.032	-33.49
229.249	-30.2
229.466	-26.43
229.682	-26.54
229.899	-38.72
230.116	-31.18
230.332	-35.28
230.549	-41.98
230.765	-28.69
230.982	-33
231.199	-56.46
231.415	-54.95
231.632	-23.27
231.848	-18.39
232.065	-18.01
232.281	-9.59
232.498	-34.97
232.714	-61.25
232.931	-46.59
233.147	-44.96
233.364	-46.54
233.58	-43.85
233.797	-38.68
234.013	-27.63
234.23	-41.64
234.446	-48.99
234.662	-38.39
234.879	-26.81
235.095	-25.06
235.312	-26.91
235.528	-50.29
235.744	-38.23
235.961	-18.9
236.177	-31.32
236.393	-116.47
236.61	-96.19
236.826	-119.25
237.042	-99.08
237.258	-112.02
237.475	-100
237.691	-120.27
237.907	-80.96
238.123	-105.76
238.339	-100.54
238.556	-86.36
238.772	-56.74
238.988	-55.25
239.204	-39.7
239.42	-38.2
239.636	-49.07
239.853	-27.82
240.069	-19.96
240.285	-10.27
240.501	-16.98
240.717	-25.8
240.933	-19.13
241.149	-15.01
241.365	-10.68
241.581	-11.99
241.797	-1.56
242.013	-0.47
242.229	-5.74
242.445	-4.71
242.661	-10.93
242.877	0
243.093	5.22
243.309	5.4
243.525	8.89
243.741	6.02
243.957	5.41
244.173	-4.11
244.388	-2.62
244.604	0.8
244.82	1.11
245.036	0.33
245.252	-7.24
245.468	-11.08
245.683	-16.07
245.899	-19.31
246.115	-16.88
246.331	-14.45
246.547	-12.79
246.762	-13.22
246.978	-17.29
247.194	-20.83
247.409	-19.79
247.625	-15.74
247.841	-14.14
248.057	-9.73
248.272	-10.84
248.488	-11.98
248.703	-16.04
248.919	-21.89
249.135	-25.26
249.35	-21.51
249.566	-20.06
249.782	-23.44
249.997	-28.81
250.213	-23.28
250.428	-28.43
250.644	-24.64
250.859	-15.77
251.075	-4.85
251.29	-7.06
251.506	-4.04
251.721	-5.74
251.937	-5.52
252.152	-4.85
252.368	1.64
252.583	2.35
252.798	5.48
253.014	3.68
253.229	-4.7
253.445	-8.62
253.66	0.13
253.875	2.85
254.091	7.51
254.306	6.07
254.521	12.32
254.737	-1.21
254.952	-9.16
255.167	-12.43
255.383	-13.24
255.598	-11.21
255.813	-17.08
256.028	-25.17
256.244	-31.37
256.459	-31.21
256.674	-32.44
256.889	-36.65
257.104	-35.06
257.32	-29.39
257.535	-20.83
257.75	-12.4
257.965	-8.05
258.18	-3.41
258.395	-0.35
258.61	2.02
258.826	2.36
259.041	4.71
259.256	4.83
259.471	7.48
259.686	5.4
259.901	3.56
260.116	1.82
260.331	3.39
260.546	-1.25
260.761	-2.96
260.976	-5.55
261.191	-6.76
261.406	-12.82
261.621	-9.56
261.836	-10.39
262.05	-9.63
262.265	-6.92
262.48	-6.6
262.695	-13.82
262.91	-5.72
263.125	-5.46
263.34	-2.81
263.555	4.52
263.769	7.38
263.984	5.18
264.199	0.59
264.414	2.01
264.629	0.52
264.843	-1.4
265.058	-0.05
265.273	-3.42
265.488	-1.24
265.702	-0.05
265.917	-7.26
266.132	-7.55
266.346	-8.76
266.561	-9.56
266.776	-11.41
266.99	-8.54
267.205	-10.19
267.42	-13.73
267.634	-12.13
267.849	-12.64
268.063	-13.7
268.278	-13.09
268.492	-12.42
268.707	-12.32
268.922	-6.05
269.136	-2.32
269.351	-7.67
269.565	-7.67
269.78	-7.53
269.994	-10
270.209	-9.94
270.423	-12.91
270.637	-10.24
270.852	-14.96
271.066	-15.67
271.281	-12.3
271.495	-14.47
271.709	-12.5
271.924	-8.9
272.138	-6.89
272.353	-5.83
272.567	-7.72
272.781	-6.69
272.996	-6.62
273.21	-1.79
273.424	-0.79
273.638	-1.81
273.853	-0.88
274.067	-4.95
274.281	-6.68
274.495	-6.37
274.71	-6.52
274.924	-5.47
275.138	-3.92
275.352	-6.37
275.566	-7.99
275.781	-11.29
275.995	-15.57
276.209	-14.75
276.423	-7.54
276.637	-8.17
276.851	-10.65
277.065	-8.23
277.279	-4.62
277.493	0.79
277.707	2.22
277.921	0.49
278.135	0.21
278.349	-3.98
278.563	-5.49
278.777	-6.14
278.991	-7.58
279.205	-11.98
279.419	-11.42
279.633	-13.47
279.847	-19.91
280.061	-19.38
280.275	-18.68
280.489	-14.82
280.703	-9.97
280.917	-9.71
281.131	-8.03
281.344	-7.06
281.558	-5.08
281.772	-10.94
281.986	-11.72
282.2	-11.25
282.414	-12.94
282.627	-10.34
282.841	-10.11
283.055	-11.44
283.269	-12.34
283.482	-16.26
283.696	-14.11
283.91	-13.55
284.123	-12.15
284.337	-11.14
284.551	-12.16
284.764	-9.53
284.978	-10.01
285.192	-12.12
285.405	-12.84
285.619	-12.44
285.833	-11.14
286.046	-13.1
286.26	-9.09
286.473	-6.81
286.687	-8.6
286.9	-6.52
287.114	-6.16
287.327	-4.95
287.541	-5.67
287.754	-4.42
287.968	-2.79
288.181	-3.33
288.395	-0.69
288.608	-2.76
288.822	-2.66
289.035	-0.53
289.248	-1.31
289.462	-0.71
289.675	-4.03
289.889	-0.78
290.102	-0.92
290.315	0.97
290.529	2.55
290.742	0.68
290.955	-0.87
291.169	-2.39
291.382	-2.3
291.595	-5.26
291.808	-6.71
292.022	-1.97
292.235	-0.87
292.448	-1.67
292.661	-4.18
292.875	-7.74
293.088	-9.16
293.301	-10
293.514	-9.1
293.727	-7.89
293.94	-2.76
294.153	-2.93
294.367	-4.63
294.58	-5.54
294.793	-3.38
295.006	-2.82
295.219	-1.09
295.432	-0.57
295.645	1.01
295.858	2.29
296.071	0.99
296.284	-2.25
296.497	-3.04
296.71	-3.83
296.923	-3.55
297.136	-5.23
297.349	-6.79
297.562	-7.61
297.775	-8.08
297.988	-7.98
298.201	-10.43
298.414	-9.62
298.626	-7.61
298.839	-6.21
299.052	-5.49
299.265	-4.86
299.478	-6.34
299.691	-5.22
299.903	-5.3
300.116	-3.98
300.329	-3.66
300.542	-1.18
300.755	-4.28
300.967	-5.83
301.18	-6.57
301.393	-9.01
301.605	-12.1
301.818	-11.42
302.031	-12.82
302.243	-11.69
302.456	-14.94
302.669	-14.55
302.881	-12.69
303.094	-8.12
303.307	-6.36
303.519	-4.75
303.732	-3.74
303.944	-3.22
304.157	0.18
304.37	1.69
304.582	3.72
304.795	6.28
305.007	6.93
305.22	4.17
305.432	2.1
305.645	1.55
305.857	-2.19
306.069	-2.34
306.282	-2.78
306.494	-6.22
306.707	-6.14
306.919	-8.32
307.132	-8.54
307.344	-12.14
307.556	-12.69
307.769	-13.51
307.981	-12.56
308.193	-12.96
308.406	-10.47
308.618	-9.33
308.83	-7.28
309.043	-5.79
309.255	-4.12
309.467	-3.08
309.679	-0.27
309.892	-3.93
310.104	-2.09
310.316	-2.01
310.528	-0.64
310.74	-1.93
310.953	-0.64
311.165	-1.34
311.377	-3.68
311.589	-4.5
311.801	-4.66
312.013	-3.61
312.225	-0.82
312.437	-2.05
312.649	-2.04
312.862	-0.83
313.074	-0.28
313.286	-2.28
313.498	-1.73
313.71	0.53
313.922	2.13
314.134	2.51
314.346	0.13
314.558	0.71
314.77	0.81
314.982	0.97
315.193	1.07
315.405	-0.16
315.617	0.75
315.829	1.63
316.041	-1.11
316.253	-4
316.465	-6.88
316.677	-7.54
316.888	-7.05
317.1	-5.9
317.312	-6.32
317.524	-5.89
317.736	-3.21
317.947	-0.43
318.159	-2.41
318.371	-1.12
318.583	1.03
318.794	1.05
319.006	1.01
319.218	1.2
319.43	1.29
319.641	2.95
319.853	0.77
320.064	-1.28
320.276	-4.28
320.488	-3.44
320.699	-4
320.911	-4
321.123	-1.39
321.334	-2.29
321.546	-1.79
321.757	-3.86
321.969	-6.54
322.18	-3.77
322.392	-3.49
322.603	-1.03
322.815	-0.86
323.026	0.09
323.238	-1.46
323.449	-0.91
323.661	2.24
323.872	2.47
324.083	3.77
324.295	6.04
324.506	4.3
324.718	7.04
324.929	3.65
325.14	3.32
325.352	6.69
325.563	5.3
325.774	6.46
325.986	7.6
326.197	6.31
326.408	5.86
326.62	3.43
326.831	2.94
327.042	2.93
327.253	4.75
327.464	5.02
327.676	1.33
327.887	1.92
328.098	1.27
328.309	-1.02
328.52	1.35
328.732	0.03
328.943	-0.16
329.154	-0.32
329.365	-2.19
329.576	-4.16
329.787	-5.6
329.998	-4.81
330.209	-4.3
330.42	-6.55
330.631	-5.36
330.842	-4.89
331.053	-3.06
331.264	-1.3
331.475	-1.22
331.686	-1.71
331.897	-1.68
332.108	-1.01
332.319	-3.3
332.53	-1.69
332.741	0.91
332.952	0.32
333.163	0.29
333.374	0.48
333.585	1.79
333.795	2.39
334.006	3.42
334.217	2.31
334.428	2.54
334.639	2.71
334.849	3.33
335.06	-0.33
335.271	-0.36
335.482	-3
335.692	-4.12
335.903	-1.78
336.114	-2.21
336.325	-6.06
336.535	-3.43
336.746	-3.44
336.957	-2.44
337.167	-4.91
337.378	-1.55
337.589	-4.03
337.799	-1.8
338.01	-0.31
338.22	-3
338.431	-2.02
338.642	0.81
338.852	-1.45
339.063	0.13
339.273	-0.64
339.484	2.34
339.694	-0.47
339.905	1.46
340.115	0.2
340.326	-2.41
340.536	-0.71
340.746	-0.04
340.957	-0.39
341.167	2.66
341.378	2.13
341.588	2.37
341.799	1.12
342.009	1.38
342.219	1.61
342.43	-0.64
342.64	2.15
342.85	-0.22
343.061	-1.35
343.271	-2.04
343.481	-5.14
343.691	-4.22
343.902	-3.74
344.112	-5.5
344.322	-4.68
344.532	-4.42
344.743	-2.03
344.953	-3.79
345.163	-3.29
345.373	-3.62
345.583	-0.69
345.793	1.96
346.004	2.09
346.214	1.81
346.424	3.55
346.634	3.3
346.844	4.01
347.054	4.44
347.264	4.77
347.474	4.07
347.684	4.31
347.894	3.62
348.104	0.96
348.314	-0.19
348.524	0.04
348.734	-0.67
348.944	0.7
349.154	0.94
349.364	1.15
349.574	0.85
349.784	0.88
349.994	4.3
350.204	2.96
350.413	3.48
350.623	5.4
350.833	7.18
351.043	7.03
351.253	6.34
351.463	5.85
351.672	5.45
351.882	6.08
352.092	7.11
352.302	4.15
352.511	5.91
352.721	9.38
352.931	6.64
353.141	5.01
353.35	5.94
353.56	5.79
353.77	6.72
353.979	6.8
354.189	6.51
354.399	5.55
354.608	4.83
354.818	4.27
355.027	0.94
355.237	0.5
355.447	0.54
355.656	0.47
355.866	0.92
356.075	1.22
356.285	1.75
356.494	3.13
356.704	4.81
356.913	5.66
357.123	4.27
357.332	5.1
357.542	7.16
357.751	7.65
357.96	7.24
358.17	6.29
358.379	3.38
358.589	3.13
358.798	2.07
359.007	1.8
359.217	2.32
359.426	3.35
359.635	3.42
359.845	3.05
360.054	3.43
360.263	3.27
360.472	3.79
360.682	4.77
360.891	2.99
361.1	2.89
361.309	2.53
361.519	1.62
361.728	1.49
361.937	1.26
362.146	0.84
362.355	-0.05
362.564	0.47
362.774	0.22
362.983	0.23
363.192	0.43
363.401	1.87
363.61	-0.2
363.819	1.89
364.028	2.5
364.237	2.96
364.446	1.94
364.655	1.87
364.864	1.48
365.073	1.11
365.282	1.58
365.491	2.48
365.7	1
365.909	2.87
366.118	0.62
366.327	-0.86
366.536	-0.49
366.745	0.12
366.954	1.92
367.162	1.62
367.371	3.37
367.58	3.26
367.789	2.09
367.998	1.85
368.207	2.17
368.415	3.17
368.624	4.24
368.833	3.43
369.042	4.49
369.25	3.5
369.459	2.94
369.668	3.26
369.877	2.27
370.085	3.08
370.294	3.6
370.503	3.16
370.711	3.15
370.92	2.48
371.129	3.54
371.337	3.12
371.546	2.98
371.754	3.19
371.963	2.98
372.171	4.27
372.38	3.81
372.589	3.91
372.797	4.52
373.006	3.53
373.214	3.54
373.423	2.22
373.631	2.47
373.84	0.9
374.048	0.7
374.256	-1.58
374.465	-0.64
374.673	1.07
374.882	0.99
375.09	0.95
375.298	1.58
375.507	1.54
375.715	3.15
375.923	1.36
376.132	2.79
376.34	3.3
376.548	4.4
376.757	2.52
376.965	1.86
377.173	1.86
377.381	0.56
377.59	-0.15
377.798	0.5
378.006	-0.56
378.214	2.23
378.423	1.44
378.631	2.16
378.839	3.34
379.047	4.35
379.255	3.68
379.463	3.3
379.671	4.58
379.879	4.57
380.088	3.44
380.296	2.76
380.504	-0.08
380.712	0.29
380.92	0.45
381.128	-0.07
381.336	0.2
381.544	1.09
381.752	1.24
381.96	1
382.168	1.7
382.376	2.51
382.584	2.23
382.791	3.03
382.999	3.97
383.207	4.53
383.415	4.38
383.623	2.83
383.831	2.08
384.039	2.13
384.247	0.5
384.454	-0.47
384.662	-0.09
384.87	1.17
385.078	0.99
385.285	-1.34
385.493	-2.95
385.701	-3.52
385.909	-2.38
386.116	-1.29
386.324	-1.87
386.532	-0.54
386.739	-0.24
386.947	-1.28
387.155	-1.74
387.362	-0.66
387.57	0.61
387.778	2.08
387.985	0.82
388.193	1.29
388.4	-0.12
388.608	-0.16
388.816	0.27
389.023	-0.39
389.231	0.12
389.438	-0.41
389.646	0.25
389.853	0.9
390.061	0.01
390.268	1.21
390.475	1.05
390.683	2.96
390.89	4.15
391.098	4.8
391.305	5.55
391.512	5.03
391.72	4.92
391.927	4.64
392.135	3.7
392.342	2.88
392.549	3.91
392.756	3.92
392.964	3.66
393.171	3.11
393.378	2.25
393.586	2.9
393.793	3.47
394	3.28
394.207	3.29
394.414	3.34
394.622	4.02
394.829	2.51
395.036	0.98
395.243	0
395.45	-0.57
395.657	-0.97
395.864	-1.61
396.072	-2.38
396.279	-1.5
396.486	-2.02
396.693	-0.75
396.9	-1.68
397.107	-1.17
397.314	-0.17
397.521	-0.95
397.728	-0.21
397.935	-1.52
398.142	-1.52
398.349	0.65
398.556	-0.06
398.763	-0.15
398.97	-0.62
399.177	1.07
399.383	1.36
399.59	0.62
399.797	1.51
400.004	1.23
400.211	2.82
400.418	3.05
400.625	1.55
400.831	2.72
401.038	3.99
401.245	4.02
401.452	3.16
401.658	3.11
401.865	4.93
402.072	5.54
402.279	6.2
402.485	6.13
402.692	6.06
402.899	5.79
403.105	4.8
403.312	3.51
403.519	3.21
403.725	2.1
403.932	1.49
404.138	0.78
404.345	-0.16
404.552	-0.7
404.758	0.57
404.965	-0.07
405.171	-0.11
405.378	-0.47
405.584	-0.33
405.791	-0.18
405.997	0.98
406.204	1.93
406.41	1.68
406.617	2.63
406.823	1.61
407.029	-0.27
407.236	0.12
407.442	0.54
407.649	1.73
407.855	1.26
408.061	0.76
408.268	0.39
408.474	-0.62
408.68	0.58
408.887	-1.02
409.093	0.5
409.299	0.9
409.505	1.22
409.712	1.42
409.918	0.59
410.124	0.56
410.33	0.56
410.537	0.65
410.743	1.42
410.949	-0.11
411.155	0.66
411.361	-1.05
411.567	-0.31
411.773	-0.37
411.98	-1.12
412.186	-0.49
412.392	0.39
412.598	2.54
412.804	3.07
413.01	2.61
413.216	3.25
413.422	4.1
413.628	4.14
413.834	3.58
414.04	4.26
414.246	4.38
414.452	4.02
414.658	2.97
414.864	1.17
415.07	1.47
415.275	1.61
415.481	1.67
415.687	1.48
415.893	1.83
416.099	1.23
416.305	0.57
416.511	1.39
416.716	1.95
416.922	2.76
417.128	3
417.334	2.63
417.539	2.39
417.745	2.43
417.951	2.31
418.157	3
418.362	3.31
418.568	3.7
418.774	3.28
418.979	2.89
419.185	3.15
419.391	3.58
419.596	3.93
419.802	3.97
420.008	3.97
420.213	8.78
420.419	8.49
420.624	8.62
420.83	8.1
421.035	8.28
421.241	8.3
421.446	8.12
421.652	7.76
421.857	7.32
422.063	7.42
422.268	7.81
422.474	3.31
422.679	3.35
422.885	2.89
423.09	2.84
423.295	2.55
423.501	2.62
423.706	2.71
423.911	2.67
424.117	3.29
424.322	3.29
424.527	3.15
424.733	3.15
424.938	3.5
425.143	3.75
425.349	3.96
425.554	4.27
425.759	3.74
425.964	3.62
426.169	3.7
426.375	2.9
426.58	2.55
426.785	2.39
426.99	2.23
427.195	1.98
427.4	2.1
427.605	2.49
427.811	2.48
428.016	2.57
428.221	2.55
428.426	2.61
428.631	2.9
428.836	3.36
429.041	3.2
429.246	3.01
429.451	3.03
429.656	3.44
429.861	3.09
430.066	2.78
430.271	2.8
430.476	2.36
430.681	2.37
430.886	2.29
431.09	2.08
431.295	2.23
431.5	2.65
431.705	2.66
431.91	2.16
432.115	2.4
432.32	2.43
432.524	2.34
432.729	2.05
432.934	2.07
433.139	2.7
433.343	2.93
433.548	2.37
433.753	1.46
433.958	1.32
434.162	1.64
434.367	1.37
434.572	1.43
434.776	2.06
434.981	2.04
435.186	1.9
435.39	1
435.595	0.79
435.799	0.91
436.004	1.43
436.209	1.21
436.413	0.68
436.618	0.6
436.822	0.46
437.027	0.96
437.231	1.14
437.436	1.45
437.64	2.19
437.845	2.19
438.049	2.11
438.253	2.36
438.458	2.69
438.662	2.74
438.867	2.98
439.071	3.39
439.275	2.72
439.48	2.96
439.684	2.67
439.888	2.25
440.093	2.12
440.297	2.73
440.501	2.58
440.706	2.08
440.91	2.43
441.114	2.1
441.318	1.99
441.523	2.43
441.727	2.53
441.931	2.05
442.135	2.14
442.339	2.01
442.543	1.8
442.748	1.85
442.952	1.75
443.156	1.68
443.36	1.88
443.564	1.7
443.768	1.17
443.972	1.06
444.176	2.13
444.38	2.17
444.584	2.46
444.788	2.29
444.992	2.28
445.196	3.01
445.4	3.01
445.604	3.17
445.808	2.86
446.012	2.99
446.216	3.03
446.42	2.65
446.624	3.17
446.828	3.18
447.032	2.95
447.235	2.84
447.439	2.27
447.643	2.22
447.847	1.98
448.051	1.6
448.254	1.6
448.458	1.39
448.662	1.85
448.866	1.07
449.069	1.62
449.273	1.59
449.477	1.22
449.681	0.86
449.884	1.04
450.088	1.22
450.292	1.37
450.495	1.18
450.699	1.01
450.902	1.24
451.106	1.12
451.31	0.22
451.513	0.31
451.717	0.68
451.92	1.19
452.124	1.04
452.327	1.5
452.531	2.1
452.734	2.41
452.938	2.55
453.141	1.98
453.345	1.99
453.548	2.18
453.752	2.67
453.955	2.94
454.158	3.06
454.362	2.3
454.565	1.93
454.769	1.77
454.972	1.72
455.175	1.28
455.379	0.65
455.582	1.34
455.785	1.3
455.988	0.46
456.192	0.45
456.395	0.02
456.598	0.57
456.801	0.48
457.005	0.35
457.208	0.66
457.411	0.68
457.614	1.12
457.817	0.37
458.021	0.85
458.224	1.07
458.427	1.01
458.63	1.7
458.833	2.11
459.036	1.77
459.239	2.26
459.442	1.91
459.645	2.37
459.848	2.5
