Data from JASIL_2989_Reflection_03.txt Node
Date: Mon Nov 09 09:39:31 EST 2015
User: Geneva
Spectrometer: USB4E03002
Autoset integration time: false
Trigger mode: 4
Integration Time (sec): 1.000000E-1
Scans to average: 10
Electric dark correction enabled: false
Nonlinearity correction enabled: false
Boxcar width: 5
Stray light correction enabled: false
XAxis mode: Wavelengths
Stop averaging: false
Number of Pixels in Spectrum: 3648
>>>>>Begin Spectral Data<<<<<
177.575	-277.25
177.794	-263.27
178.014	-1257.69
178.233	-2074.07
178.452	918.59
178.672	3486.36
178.891	952.94
179.11	536.59
179.33	628.43
179.549	636.96
179.768	471.24
179.987	551.04
180.207	674.24
180.426	1105.56
180.645	1261.07
180.864	-1596.3
181.084	8257.89
181.303	-1104.1
181.522	-698.36
181.741	-1391.84
181.96	-589.66
182.179	-614.78
182.398	-2404.84
182.618	667.97
182.837	737.26
183.056	1334.92
183.275	1360
183.494	1219.74
183.713	928.23
183.932	871.43
184.151	730.92
184.37	357.04
184.589	629.84
184.808	638.69
185.027	1572.03
185.246	3538.33
185.465	993.33
185.684	1071.08
185.903	909.28
186.122	661.64
186.341	1243.82
186.56	970.9
186.779	-5895
186.998	1482.91
187.216	-15213.33
187.435	2821.95
187.654	1444
187.873	-2333.33
188.092	-12312.5
188.311	-2567.11
188.53	-1418.62
188.748	-1246.41
188.967	-990.66
189.186	-1101.32
189.405	-1895.35
189.623	-2489.06
189.842	-742.33
190.061	-494.46
190.28	-440.91
190.498	-586.17
190.717	-815.89
190.936	-622.39
191.154	-561.17
191.373	-488.57
191.592	-386.54
191.81	-365.27
192.029	-401.32
192.248	-583.5
192.466	-1134.36
192.685	1270.2
192.904	1564.1
193.122	1496.64
193.341	3842.5
193.559	4451.43
193.778	-1361.61
193.996	1362.96
194.215	1533.33
194.433	965.41
194.652	-3348.72
194.87	-5185.19
195.089	-1283.33
195.307	-698.73
195.526	-341.46
195.744	-677.41
195.963	-1535.11
196.181	-2440
196.399	-511.27
196.618	-656.54
196.836	15841.67
197.055	2802.9
197.273	-3824.44
197.491	3310.87
197.71	1332.35
197.928	460
198.146	611.16
198.365	461.22
198.583	472.67
198.801	313.47
199.019	371.59
199.238	566.11
199.456	488.85
199.674	685.96
199.892	658.96
200.111	823.11
200.329	980
200.547	1230.32
200.765	-14909.09
200.983	2931.15
201.202	-9405.56
201.42	1824.49
201.638	-1003.47
201.856	-1020.69
202.074	7565.38
202.292	-1978.41
202.51	6100
202.728	-3938.3
202.946	1573.53
203.165	1831.93
203.383	976.74
203.601	732.63
203.819	7476
204.037	1438.64
204.255	955.72
204.473	2083.53
204.691	4894.59
204.909	-5420.59
205.127	-2722.22
205.345	-4612.12
205.562	-4377.14
205.78	-566.94
205.998	-620.75
206.216	-1477.67
206.434	-1604.08
206.652	-636.63
206.87	-579.66
207.088	-486.3
207.306	-828.23
207.523	-1030.17
207.741	-694.34
207.959	-2461.54
208.177	-1737.17
208.395	-705.6
208.612	-511.78
208.83	-687.68
209.048	-2145.35
209.266	-5670.97
209.483	5005.71
209.701	-7871.43
209.919	1268.7
210.136	-27083.33
210.354	-1288.71
210.572	-4165.79
210.79	940.7
211.007	647.58
211.225	469.01
211.442	822.16
211.66	528.95
211.878	786.19
212.095	1183.33
212.313	2154.55
212.53	1316.41
212.748	2863.79
212.966	650.17
213.183	1447.15
213.401	2028.12
213.618	-2634.72
213.836	-1663.64
214.053	-555.63
214.271	-1047.47
214.488	-815.05
214.705	-492.05
214.923	-953.45
215.14	2236.49
215.358	-1034.84
215.575	-4364.1
215.793	-1717.98
216.01	3531.91
216.227	795.81
216.445	520.56
216.662	513.04
216.879	562.26
217.097	466.58
217.314	534.78
217.531	548.44
217.749	501.81
217.966	588.89
218.183	398.78
218.4	412.68
218.618	515.87
218.835	787.39
219.052	757.74
219.269	466.32
219.487	427.71
219.704	513.59
219.921	658.46
220.138	562.63
220.355	454.61
220.572	513.1
220.79	418.2
221.007	377.9
221.224	336.38
221.441	292.84
221.658	450.93
221.875	692.5
222.092	395.01
222.309	483.67
222.526	564.43
222.743	4278.95
222.96	5106.45
223.177	-2568.75
223.394	-779.5
223.611	-1123.68
223.828	-636.47
224.045	-1355.74
224.262	1570.37
224.479	-4931.25
224.696	-3310.42
224.913	-41050
225.13	964.53
225.347	815.24
225.564	650.96
225.781	409.85
225.997	265.3
226.214	228.91
226.431	201.94
226.648	194.99
226.865	160.68
227.082	126.89
227.298	112.88
227.515	113.04
227.732	106.86
227.949	106.8
228.165	104.34
228.382	116.14
228.599	113.17
228.816	106.85
229.032	118.68
229.249	130.25
229.466	137.17
229.682	153.24
229.899	141.48
230.116	168.13
230.332	205.04
230.549	270.83
230.765	327.43
230.982	241.47
231.199	381.6
231.415	235.74
231.632	241.05
231.848	285.06
232.065	254.19
232.281	239.37
232.498	194.98
232.714	166.77
232.931	175.45
233.147	168.71
233.364	172.95
233.58	150.86
233.797	173.32
234.013	181.24
234.23	167.55
234.446	156
234.662	182.08
234.879	226.81
235.095	212.39
235.312	182.35
235.528	165.16
235.744	176.69
235.961	165.54
236.177	149.34
236.393	146.87
236.61	158.67
236.826	168.9
237.042	155.67
237.258	148.6
237.475	156.67
237.691	152.27
237.907	169.45
238.123	166.71
238.339	181.42
238.556	201.98
238.772	189.84
238.988	163.07
239.204	147.74
239.42	146.03
239.636	138.6
239.853	129.56
240.069	115.31
240.285	100.62
240.501	94.33
240.717	82.08
240.933	73.59
241.149	69.92
241.365	69.06
241.581	71.59
241.797	65.02
242.013	61.88
242.229	63.86
242.445	61.93
242.661	64.43
242.877	71.58
243.093	80.14
243.309	77.68
243.525	77.83
243.741	79.05
243.957	77.52
244.173	78.62
244.388	73.45
244.604	63.89
244.82	63.54
245.036	59.48
245.252	51.97
245.468	46.27
245.683	46.57
245.899	47.18
246.115	44.26
246.331	41.18
246.547	38.54
246.762	40.07
246.978	40.16
247.194	41.63
247.409	42.57
247.625	45.85
247.841	53.13
248.057	57.94
248.272	63.06
248.488	70.76
248.703	80.28
248.919	91.1
249.135	92.93
249.35	102.11
249.566	102.69
249.782	98.57
249.997	95.95
250.213	79.44
250.428	80.04
250.644	78.6
250.859	73.95
251.075	74.47
251.29	74.74
251.506	83.74
251.721	85.19
251.937	84.62
252.152	86.66
252.368	89.55
252.583	104.58
252.798	112.91
253.014	123.67
253.229	135.92
253.445	125.26
253.66	118.27
253.875	110.63
254.091	102.16
254.306	99.64
254.521	99.85
254.737	106.48
254.952	108.72
255.167	104.88
255.383	93.52
255.598	90.15
255.813	82.91
256.028	79.48
256.244	69.92
256.459	66.53
256.674	64.76
256.889	55.85
257.104	47.32
257.32	44
257.535	38.1
257.75	35.24
257.965	32.18
258.18	33.46
258.395	32.6
258.61	32.19
258.826	31.44
259.041	30.64
259.256	32.24
259.471	30.63
259.686	29.12
259.901	33.77
260.116	36.51
260.331	38.52
260.546	41.77
260.761	45.13
260.976	49.83
261.191	54.03
261.406	55.08
261.621	57.77
261.836	66.3
262.05	69.24
262.265	67.22
262.48	66.3
262.695	67.5
262.91	65.18
263.125	62.72
263.34	63.22
263.555	61.24
263.769	57.27
263.984	55.01
264.199	51.86
264.414	53.31
264.629	53.14
264.843	52.34
265.058	49.93
265.273	53.59
265.488	51.71
265.702	51.11
265.917	51.62
266.132	55.79
266.346	56.68
266.561	56.57
266.776	59.23
266.99	58.36
267.205	58.09
267.42	60.29
267.634	60.61
267.849	59.39
268.063	59.08
268.278	55.53
268.492	59.32
268.707	54.91
268.922	53.51
269.136	51.45
269.351	50.47
269.565	49.38
269.78	50.2
269.994	46.47
270.209	50.91
270.423	50.03
270.637	50.55
270.852	46.54
271.066	50.44
271.281	50.65
271.495	50.12
271.709	48.29
271.924	49.93
272.138	50.18
272.353	50.69
272.567	47.73
272.781	47.77
272.996	46.02
273.21	44.25
273.424	40.96
273.638	41.85
273.853	42.88
274.067	41.81
274.281	41.32
274.495	39.74
274.71	40.12
274.924	43.24
275.138	41.31
275.352	40.67
275.566	43.09
275.781	44.47
275.995	43.86
276.209	41.87
276.423	48.07
276.637	50.49
276.851	52.27
277.065	54.75
277.279	49.71
277.493	50.52
277.707	53.44
277.921	50.08
278.135	52.08
278.349	52.63
278.563	53.87
278.777	49.99
278.991	48.44
279.205	46.21
279.419	44.38
279.633	44.66
279.847	44.9
280.061	42.72
280.275	45.38
280.489	43.31
280.703	43.15
280.917	41.05
281.131	40.75
281.344	38.73
281.558	38.06
281.772	36.69
281.986	37.77
282.2	38.95
282.414	39.21
282.627	37.42
282.841	36.46
283.055	36.55
283.269	37.05
283.482	35.82
283.696	36.12
283.91	35.45
284.123	33.34
284.337	32.63
284.551	31.47
284.764	32.06
284.978	33.34
285.192	34.24
285.405	34.41
285.619	34.93
285.833	36.85
286.046	37.73
286.26	38.73
286.473	39.47
286.687	39.03
286.9	39.33
287.114	39.29
287.327	36.23
287.541	35.86
287.754	36.14
287.968	34.52
288.181	33.92
288.395	34.16
288.608	34.87
288.822	36.5
289.035	36.9
289.248	37.74
289.462	38.45
289.675	40.73
289.889	39.81
290.102	38.55
290.315	40.18
290.529	39.93
290.742	38.2
290.955	40.12
291.169	40.37
291.382	42
291.595	40.37
291.808	41.03
292.022	40.76
292.235	39.91
292.448	40.23
292.661	41.08
292.875	39.88
293.088	40.04
293.301	35.33
293.514	33.79
293.727	31.93
293.94	29.85
294.153	28.88
294.367	28.64
294.58	30.28
294.793	28.97
295.006	29.07
295.219	28.77
295.432	29.75
295.645	31.49
295.858	29.69
296.071	26.96
296.284	28.92
296.497	29.16
296.71	29.01
296.923	28.16
297.136	28.01
297.349	28.37
297.562	28.59
297.775	28.14
297.988	27.97
298.201	31.48
298.414	36.86
298.626	36.9
298.839	35.03
299.052	36.32
299.265	38.74
299.478	37.74
299.691	37.48
299.903	37.6
300.116	36.37
300.329	37.8
300.542	37.67
300.755	37.76
300.967	38.89
301.18	42.91
301.393	44.33
301.605	43.52
301.818	45.89
302.031	44.01
302.243	45.26
302.456	47.46
302.669	48.27
302.881	48.64
303.094	49.3
303.307	47.46
303.519	43.56
303.732	41.44
303.944	43.13
304.157	42.53
304.37	43.61
304.582	41.66
304.795	43.94
305.007	43.28
305.22	40.86
305.432	40.51
305.645	41.86
305.857	48.01
306.069	47.31
306.282	47.21
306.494	45.88
306.707	46.82
306.919	46.6
307.132	43.34
307.344	42.53
307.556	44.08
307.769	41.72
307.981	41.15
308.193	36.42
308.406	36.09
308.618	32.79
308.83	33.18
309.043	31.48
309.255	31.35
309.467	28.65
309.679	26.77
309.892	27.02
310.104	25.77
310.316	27.3
310.528	28.18
310.74	29.14
310.953	32.46
311.165	33.11
311.377	36.27
311.589	37.39
311.801	41.61
312.013	43.54
312.225	44.92
312.437	47.95
312.649	47.5
312.862	47.92
313.074	47
313.286	43.02
313.498	40.99
313.71	38.3
313.922	38.25
314.134	36.93
314.346	35.59
314.558	34.26
314.77	31
314.982	32.72
315.193	34.6
315.405	35.77
315.617	37.23
315.829	38.34
316.041	39.59
316.253	39.64
316.465	41.92
316.677	45.53
316.888	46.41
317.1	45.71
317.312	43.67
317.524	42.07
317.736	38.73
317.947	39.74
318.159	41.31
318.371	43.5
318.583	44.2
318.794	43.94
319.006	42.96
319.218	40.69
319.43	43.26
319.641	43.9
319.853	41.35
320.064	47
320.276	51.46
320.488	52.44
320.699	50.75
320.911	51.55
321.123	54.11
321.334	55.84
321.546	58.41
321.757	57.53
321.969	58.4
322.18	59.07
322.392	56.16
322.603	52.39
322.815	50.55
323.026	46.77
323.238	45.99
323.449	42.58
323.661	41.03
323.872	37.9
324.083	38.19
324.295	37.79
324.506	36.39
324.718	37
324.929	35.76
325.14	37.41
325.352	40.82
325.563	39.82
325.774	39.01
325.986	41.3
326.197	41.32
326.408	39.83
326.62	40.75
326.831	41.8
327.042	41.24
327.253	42.96
327.464	42.85
327.676	40.11
327.887	40.18
328.098	39.16
328.309	33.45
328.52	32.99
328.732	36.1
328.943	36.1
329.154	38.55
329.365	38.92
329.576	38.06
329.787	39.45
329.998	43.31
330.209	44.6
330.42	47.77
330.631	48.03
330.842	47.29
331.053	44.53
331.264	42.8
331.475	43.58
331.686	42.33
331.897	41.91
332.108	41.15
332.319	42.09
332.53	41.14
332.741	41.03
332.952	43.83
333.163	47.12
333.374	47.31
333.585	49.18
333.795	48.22
334.006	48.7
334.217	47.62
334.428	47.03
334.639	45.16
334.849	47.26
335.06	46.97
335.271	43.31
335.482	42.3
335.692	41.45
335.903	40.89
336.114	40.08
336.325	41.83
336.535	41.54
336.746	42.02
336.957	41.19
337.167	39.39
337.378	40.31
337.589	42.49
337.799	43.45
338.01	48.41
338.22	48.4
338.431	50.36
338.642	48.89
338.852	51.21
339.063	49.52
339.273	50.6
339.484	51.8
339.694	47.3
339.905	46.28
340.115	45.31
340.326	39.05
340.536	40.48
340.746	39.72
340.957	41.52
341.167	42.22
341.378	42.17
341.588	39.09
341.799	38.98
342.009	40.18
342.219	41.82
342.43	42.56
342.64	45.18
342.85	43.96
343.061	42.11
343.271	41.55
343.481	40.57
343.691	41.83
343.902	42.84
344.112	43.14
344.322	44.84
344.532	43.34
344.743	43.08
344.953	44.08
345.163	41.58
345.373	41.34
345.583	40.3
345.793	40
346.004	40.48
346.214	40.61
346.424	38.2
346.634	37.27
346.844	38.33
347.054	34.68
347.264	33.5
347.474	38.06
347.684	39.73
347.894	39.41
348.104	39.82
348.314	38.04
348.524	37.01
348.734	38.86
348.944	38.85
349.154	37.55
349.364	40.27
349.574	40.97
349.784	39.66
349.994	40.3
350.204	41.75
350.413	41.55
350.623	41.98
350.833	41.22
351.043	41.65
351.253	42.83
351.463	43.86
351.672	44.89
351.882	42.95
352.092	42.41
352.302	41.66
352.511	40.52
352.721	38.43
352.931	37.33
353.141	39.15
353.35	36.85
353.56	36.02
353.77	34.97
353.979	33.79
354.189	34.44
354.399	34.21
354.608	31.93
354.818	31.58
355.027	30.17
355.237	30.56
355.447	30.46
355.656	30.67
355.866	28.61
356.075	30.32
356.285	30.91
356.494	32.06
356.704	32.37
356.913	35.89
357.123	35.42
357.332	38.11
357.542	38.06
357.751	37.89
357.96	39.42
358.17	39.25
358.379	38.53
358.589	37.58
358.798	37.34
359.007	36.84
359.217	34.26
359.426	34.68
359.635	32.74
359.845	31.66
360.054	29.39
360.263	27.37
360.472	28.6
360.682	28.68
360.891	28.37
361.1	26.73
361.309	26.46
361.519	27.58
361.728	27.02
361.937	28.41
362.146	28.42
362.355	29.02
362.564	30.12
362.774	28.47
362.983	27.65
363.192	27.28
363.401	28.76
363.61	26.77
363.819	25.39
364.028	25.58
364.237	23
364.446	22.26
364.655	22.96
364.864	22.77
365.073	23.67
365.282	23.66
365.491	23.96
365.7	23.98
365.909	26.77
366.118	27.74
366.327	26.14
366.536	27.17
366.745	28.11
366.954	28.95
367.162	30.23
367.371	30.39
367.58	30.67
367.789	30.98
367.998	30.5
368.207	28.2
368.415	28.28
368.624	30.1
368.833	30.86
369.042	31.95
369.25	32.02
369.459	29.94
369.668	30.33
369.877	30.07
370.085	30.48
370.294	29.74
370.503	32.17
370.711	32
370.92	30.7
371.129	31
371.337	30.09
371.546	29.62
371.754	29.93
371.963	29.42
372.171	29.62
372.38	29.5
372.589	30.29
372.797	29.25
373.006	28.87
373.214	29.76
373.423	28.84
373.631	28.84
373.84	29.03
374.048	29.47
374.256	28.61
374.465	28.82
374.673	27.45
374.882	26.45
375.09	26.34
375.298	26.95
375.507	28.02
375.715	27.61
375.923	26.97
376.132	26.41
376.34	26.8
376.548	27.41
376.757	26.38
376.965	26.3
377.173	28.46
377.381	28.23
377.59	28.22
377.798	27.97
378.006	28.3
378.214	28.63
378.423	29.49
378.631	29.23
378.839	28.53
379.047	27.86
379.255	27.63
379.463	26.07
379.671	25.39
379.879	24.6
380.088	23.54
380.296	23.13
380.504	24.16
380.712	23.44
380.92	22.87
381.128	23.51
381.336	25.52
381.544	26.64
381.752	26.27
381.96	24.23
382.168	23.84
382.376	24.13
382.584	26.01
382.791	25.43
382.999	24.82
383.207	24.82
383.415	24.42
383.623	25.17
383.831	25.26
384.039	25.47
384.247	26.69
384.454	27.34
384.662	26.33
384.87	23.94
385.078	23.85
385.285	22.98
385.493	23.5
385.701	23.72
385.909	21.86
386.116	21.55
386.324	20.9
386.532	21.57
386.739	21.47
386.947	22.44
387.155	23.83
387.362	23.54
387.57	24.46
387.778	24.39
387.985	24.33
388.193	24.01
388.4	24.1
388.608	25.82
388.816	26.46
389.023	25.97
389.231	24.54
389.438	24.21
389.646	24.4
389.853	24.23
390.061	23.16
390.268	22.18
390.475	22.27
390.683	22.21
390.89	21.05
391.098	20.45
391.305	20.97
391.512	21.63
391.72	21.87
391.927	21.15
392.135	20.77
392.342	21.36
392.549	22.59
392.756	24.22
392.964	24.12
393.171	24.54
393.378	25.34
393.586	24.44
393.793	24.97
394	24.71
394.207	24.39
394.414	25.95
394.622	26.73
394.829	25.9
395.036	24.39
395.243	23.88
395.45	23.7
395.657	23.64
395.864	24.3
396.072	23.4
396.279	22.29
396.486	23.64
396.693	23.17
396.9	22.51
397.107	23.58
397.314	23.13
397.521	23.15
397.728	23.4
397.935	22.57
398.142	22.6
398.349	22.8
398.556	23.08
398.763	22.34
398.97	21.23
399.177	21.42
399.383	21.96
399.59	22.07
399.797	21.95
400.004	21.11
400.211	22.18
400.418	22
400.625	21.92
400.831	22.11
401.038	22.22
401.245	22.77
401.452	23.04
401.658	21.29
401.865	21.16
402.072	21.73
402.279	22.56
402.485	22.28
402.692	21.11
402.899	21.24
403.105	21.79
403.312	22.9
403.519	23.53
403.725	22.67
403.932	23.02
404.138	23.12
404.345	23.28
404.552	22.35
404.758	22.15
404.965	23.13
405.171	23.21
405.378	23.23
405.584	22.38
405.791	22.14
405.997	22.4
406.204	22.47
406.41	22.78
406.617	23.45
406.823	23.96
407.029	23.09
407.236	22.45
407.442	22.34
407.649	22.28
407.855	21.98
408.061	21.08
408.268	20.98
408.474	21.24
408.68	21.01
408.887	19.79
409.093	19.89
409.299	21.05
409.505	21.42
409.712	21.26
409.918	21.51
410.124	21.88
410.33	22.72
410.537	22.21
410.743	21.67
410.949	21.87
411.155	22.03
411.361	21.58
411.567	21.86
411.773	21.74
411.98	21.44
412.186	20.81
412.392	21.77
412.598	22.06
412.804	22.29
413.01	23.28
413.216	23.48
413.422	23.63
413.628	24.24
413.834	23.33
414.04	22.74
414.246	22.6
414.452	22.91
414.658	21.28
414.864	20.74
415.07	20.96
415.275	19.67
415.481	18.36
415.687	18.23
415.893	17.95
416.099	17.65
416.305	18.02
416.511	17.82
416.716	16.93
416.922	17.41
417.128	17.97
417.334	17.61
417.539	17.66
417.745	17.55
417.951	17.06
418.157	17.4
418.362	16.84
418.568	16.43
418.774	15.95
418.979	16.26
419.185	15.55
419.391	14.78
419.596	14.85
419.802	15.2
420.008	15.89
420.213	20.36
420.419	19.99
420.624	20.46
420.83	21.33
421.035	22.07
421.241	22.28
421.446	22.61
421.652	23.02
421.857	22.79
422.063	22.36
422.268	22.32
422.474	18.19
422.679	17.71
422.885	17.69
423.09	17.13
423.295	16.41
423.501	16.3
423.706	16.69
423.911	16.44
424.117	16.81
424.322	17.05
424.527	16.99
424.733	16.4
424.938	16.69
425.143	16.9
425.349	17.18
425.554	18.64
425.759	19.32
425.964	19.33
426.169	19.22
426.375	19.09
426.58	19.39
426.785	19.61
426.99	19.86
427.195	20.22
427.4	20.2
427.605	19.69
427.811	18.49
428.016	17.33
428.221	16.89
428.426	17.68
428.631	17.6
428.836	17.08
429.041	17.06
429.246	17.83
429.451	17.63
429.656	17.51
429.861	18.02
430.066	18.16
430.271	18.24
430.476	17.8
430.681	17.4
430.886	17.92
431.09	18.7
431.295	17.77
431.5	17.33
431.705	16.81
431.91	16.89
432.115	16.57
432.32	16.98
432.524	16.81
432.729	17.59
432.934	17.19
433.139	17.26
433.343	16.83
433.548	17.3
433.753	17.37
433.958	17.11
434.162	16.79
434.367	16.98
434.572	16.82
434.776	16.83
434.981	16.91
435.186	17.1
435.39	16.26
435.595	16.06
435.799	16.38
436.004	16.42
436.209	17.46
436.413	17.27
436.618	17.7
436.822	18.01
437.027	18.25
437.231	17.8
437.436	18.14
437.64	18.27
437.845	18.02
438.049	17.35
438.253	17.77
438.458	17.68
438.662	18.06
438.867	17.54
439.071	17.62
439.275	17.4
439.48	17.47
439.684	17.23
439.888	17.37
440.093	17.48
440.297	17.64
440.501	17.21
440.706	16.51
440.91	15.97
441.114	15.97
441.318	15.33
441.523	15.65
441.727	16.03
441.931	16.21
442.135	16.51
442.339	16.28
442.543	16.61
442.748	16.43
442.952	16.75
443.156	17.28
443.36	17.61
443.564	17.46
443.768	17.11
443.972	16.78
444.176	16.08
444.38	15.52
444.584	15.95
444.788	16.17
444.992	16.37
445.196	16.44
445.4	16.03
445.604	15.63
445.808	15.96
446.012	15.69
446.216	15.22
446.42	15.27
446.624	15.82
446.828	15.55
447.032	15.12
447.235	15.13
447.439	15.19
447.643	15.68
447.847	16.41
448.051	16.07
448.254	16.79
448.458	17.45
448.662	17.57
448.866	17.42
449.069	17.46
449.273	18.24
449.477	18.37
449.681	18.38
449.884	18.63
450.088	17.95
