Data from JASIL_2934_Reflection_2.txt Node
Date: Sat Nov 07 20:57:52 EST 2015
User: Geneva
Spectrometer: USB4E03002
Autoset integration time: false
Trigger mode: 4
Integration Time (sec): 1.000000E-1
Scans to average: 10
Electric dark correction enabled: true
Nonlinearity correction enabled: false
Boxcar width: 5
Stray light correction enabled: false
XAxis mode: Wavelengths
Stop averaging: false
Number of Pixels in Spectrum: 3648
>>>>>Begin Spectral Data<<<<<
177.575	-447.12
177.794	-152.92
178.014	-186.63
178.233	88.9
178.452	85.37
178.672	88.79
178.891	61.84
179.11	0
179.33	919.38
179.549	-972.31
179.768	378.96
179.987	155.98
180.207	81.06
180.426	60.76
180.645	87.33
180.864	80.82
181.084	80.7
181.303	71.12
181.522	75.89
181.741	67.62
181.96	74.57
182.179	81.66
182.398	67.6
182.618	52.79
182.837	53.99
183.056	34.77
183.275	43.01
183.494	32.28
183.713	45.1
183.932	47.2
184.151	69.45
184.37	58.61
184.589	39.57
184.808	43.27
185.027	59.61
185.246	60.37
185.465	58.73
185.684	63.57
185.903	80.73
186.122	76.22
186.341	78.24
186.56	73.97
186.779	78.01
186.998	76.04
187.216	76.8
187.435	74.09
187.654	68.68
187.873	93.14
188.092	58.22
188.311	46.25
188.53	52.73
188.748	49.66
188.967	26.32
189.186	29.79
189.405	30.6
189.623	9.74
189.842	31.5
190.061	30.65
190.28	17.93
190.498	25.95
190.717	16.43
190.936	13.59
191.154	-9.89
191.373	13.03
191.592	-9.03
191.81	-25.1
192.029	-0.4
192.248	-1.73
192.466	28.72
192.685	45.73
192.904	48.85
193.122	33.83
193.341	30.55
193.559	37.63
193.778	28.82
193.996	42.92
194.215	58.78
194.433	59.46
194.652	66.04
194.87	56.36
195.089	48.41
195.307	46.79
195.526	59.07
195.744	65.49
195.963	77.79
196.181	89.52
196.399	87.16
196.618	99.15
196.836	88.94
197.055	68.75
197.273	76.96
197.491	86.78
197.71	86.96
197.928	87.18
198.146	64.75
198.365	60.37
198.583	65.52
198.801	58.71
199.019	39.28
199.238	39.79
199.456	40.99
199.674	50.56
199.892	40.71
200.111	17.58
200.329	29.09
200.547	24.05
200.765	32.13
200.983	31.42
201.202	35.23
201.42	43.89
201.638	30.33
201.856	19.93
202.074	12.77
202.292	23.06
202.51	34.37
202.728	19.54
202.946	3.96
203.165	-18.58
203.383	-25.38
203.601	-18.83
203.819	-27
204.037	-7.05
204.255	5.62
204.473	13.64
204.691	4.57
204.909	-8.54
205.127	11.77
205.345	35.68
205.562	45.04
205.78	46.96
205.998	42.17
206.216	37.41
206.434	31.14
206.652	32.18
206.87	32.78
207.088	44.05
207.306	53.61
207.523	54.75
207.741	46.19
207.959	44.12
208.177	43.84
208.395	37.54
208.612	33.08
208.83	26.97
209.048	25.35
209.266	6.32
209.483	1.11
209.701	-5.71
209.919	-16.18
210.136	-26.34
210.354	9.35
210.572	19.96
210.79	23.72
211.007	25.94
211.225	32.86
211.442	28.17
211.66	31.71
211.878	28.48
212.095	73.65
212.313	70.97
212.53	67.89
212.748	62.27
212.966	52.72
213.183	48.52
213.401	52.17
213.618	62.19
213.836	67.9
214.053	66.83
214.271	69.5
214.488	25.48
214.705	28.39
214.923	39.79
215.14	29.77
215.358	34.11
215.575	34.89
215.793	39.08
216.01	30.73
216.227	30.26
216.445	30.02
216.662	25.16
216.879	26.3
217.097	25.85
217.314	23.77
217.531	25.77
217.749	21.37
217.966	27.35
218.183	24.9
218.4	24.64
218.618	22.17
218.835	25.6
219.052	26.42
219.269	19.87
219.487	18.01
219.704	12.42
219.921	15.95
220.138	22.5
220.355	18.08
220.572	18.21
220.79	14.25
221.007	19.8
221.224	18.94
221.441	17.09
221.658	16.94
221.875	15.76
222.092	15.63
222.309	13.67
222.526	10.21
222.743	10.81
222.96	7.07
223.177	7.11
223.394	3.97
223.611	3.36
223.828	2.3
224.045	4.2
224.262	5.58
224.479	6.21
224.696	7.75
224.913	7.29
225.13	8.59
225.347	10.49
225.564	10.58
225.781	9.75
225.997	9.39
226.214	10.4
226.431	10.56
226.648	11.28
226.865	11.44
227.082	11.08
227.298	11.52
227.515	10.89
227.732	10.32
227.949	9.98
228.165	9.35
228.382	9.07
228.599	8.94
228.816	8.45
229.032	7.61
229.249	7.54
229.466	6.66
229.682	6.12
229.899	6.84
230.116	7.2
230.332	7.71
230.549	9.55
230.765	10.71
230.982	11.4
231.199	11.9
231.415	12.13
231.632	12.29
231.848	14.09
232.065	15.46
232.281	14.97
232.498	14.44
232.714	14.42
232.931	13.26
233.147	13.41
233.364	12.85
233.58	13.88
233.797	13.9
234.013	13.16
234.23	12.33
234.446	11.54
234.662	11.56
234.879	13.22
235.095	12.88
235.312	13.27
235.528	13.2
235.744	12.87
235.961	11.81
236.177	11.61
236.393	12.36
236.61	13.21
236.826	12.23
237.042	13.37
237.258	12.03
237.475	12.79
237.691	12.76
237.907	12.86
238.123	13.15
238.339	12.74
238.556	13.07
238.772	13.63
238.988	13.45
239.204	14.15
239.42	13.25
239.636	13.44
239.853	13.12
240.069	12.85
240.285	12.73
240.501	12.46
240.717	12.35
240.933	12.3
241.149	11.82
241.365	11.8
241.581	11.7
241.797	11.79
242.013	11.65
242.229	11.78
242.445	11.69
242.661	11.32
242.877	11.3
243.093	11.63
243.309	11.68
243.525	11.67
243.741	11.3
243.957	11.29
244.173	11.01
244.388	10.55
244.604	10.33
244.82	10.25
245.036	10.25
245.252	9.95
245.468	9.72
245.683	9.66
245.899	9.77
246.115	9.76
246.331	9.63
246.547	9.52
246.762	9.47
246.978	9.36
247.194	9.23
247.409	9.13
247.625	8.99
247.841	8.81
248.057	8.77
248.272	8.58
248.488	8.56
248.703	8.45
248.919	8.42
249.135	8.22
249.35	8.03
249.566	8.12
249.782	7.63
249.997	8.42
250.213	8.91
250.428	8.92
250.644	9.02
250.859	8.6
251.075	8.66
251.29	8.53
251.506	8.54
251.721	8.43
251.937	8.33
252.152	9.11
252.368	8.79
252.583	8.45
252.798	8.17
253.014	7.64
253.229	8.03
253.445	7.45
253.66	7.59
253.875	7.68
254.091	7.61
254.306	7.92
254.521	7.21
254.737	7.42
254.952	7.05
255.167	7.01
255.383	7.58
255.598	7.9
255.813	8.02
256.028	7.71
256.244	7.93
256.459	7.78
256.674	7.4
256.889	7.35
257.104	7.16
257.32	7.31
257.535	7.29
257.75	6.91
257.965	6.61
258.18	6.69
258.395	6.6
258.61	6.53
258.826	6.54
259.041	6.63
259.256	6.7
259.471	6.69
259.686	6.84
259.901	6.83
260.116	6.98
260.331	7.11
260.546	7.18
260.761	7.33
260.976	7.48
261.191	7.57
261.406	7.48
261.621	7.28
261.836	7.19
262.05	6.91
262.265	7.06
262.48	7.01
262.695	6.7
262.91	6.71
263.125	6.45
263.34	6.35
263.555	6.48
263.769	6.43
263.984	6.49
264.199	6.51
264.414	6.58
264.629	6.02
264.843	5.84
265.058	5.84
265.273	6.03
265.488	6.25
265.702	5.91
265.917	6.09
266.132	6.19
266.346	6.25
266.561	6.18
266.776	6.13
266.99	6.44
267.205	6.52
267.42	6.44
267.634	6.32
267.849	6.27
268.063	6.45
268.278	6.18
268.492	6.04
268.707	6.12
268.922	6.14
269.136	6.28
269.351	6.34
269.565	6.19
269.78	6.33
269.994	6.13
270.209	6.01
270.423	6.28
270.637	6.25
270.852	6.23
271.066	6.08
271.281	6.2
271.495	6.14
271.709	5.94
271.924	6.05
272.138	5.91
272.353	5.95
272.567	5.87
272.781	5.68
272.996	5.64
273.21	5.66
273.424	5.66
273.638	5.52
273.853	5.45
274.067	5.45
274.281	5.41
274.495	5.6
274.71	5.64
274.924	5.77
275.138	5.64
275.352	5.74
275.566	5.73
275.781	5.87
275.995	6.13
276.209	6.24
276.423	6.17
276.637	6.06
276.851	6.15
277.065	6.04
277.279	6.02
277.493	6.44
277.707	6.34
277.921	6.53
278.135	6.48
278.349	6.15
278.563	5.96
278.777	5.84
278.991	6.03
279.205	5.89
279.419	6.12
279.633	6.13
279.847	5.74
280.061	5.97
280.275	5.89
280.489	5.89
280.703	5.91
280.917	5.85
281.131	6.18
281.344	6.01
281.558	5.88
281.772	5.64
281.986	5.67
282.2	5.72
282.414	5.61
282.627	5.57
282.841	5.54
283.055	5.44
283.269	5.28
283.482	5.12
283.696	5.31
283.91	5.51
284.123	5.55
284.337	5.43
284.551	5.44
284.764	5.33
284.978	5.44
285.192	5.43
285.405	5.52
285.619	5.83
285.833	5.68
286.046	5.39
286.26	5.33
286.473	5.25
286.687	5.44
286.9	5.58
287.114	5.53
287.327	5.63
287.541	5.81
287.754	5.93
287.968	5.7
288.181	5.85
288.395	6.1
288.608	6.04
288.822	6.08
289.035	6.02
289.248	5.99
289.462	6.29
289.675	6.08
289.889	6
290.102	6.04
290.315	6.1
290.529	6.11
290.742	6.02
290.955	6.01
291.169	5.97
291.382	5.66
291.595	5.46
291.808	5.2
292.022	5.36
292.235	5.31
292.448	5.39
292.661	5.5
292.875	5.57
293.088	5.46
293.301	5.44
293.514	5.5
293.727	5.7
293.94	5.84
294.153	5.91
294.367	5.84
294.58	5.68
294.793	5.34
295.006	5.18
295.219	5.23
295.432	5.2
295.645	5.39
295.858	5.3
296.071	5.4
296.284	5.18
296.497	5.17
296.71	5.19
296.923	5.23
297.136	5.39
297.349	5.39
297.562	5.27
297.775	5.35
297.988	5.33
298.201	5.42
298.414	5.42
298.626	5.65
298.839	5.74
299.052	5.73
299.265	5.64
299.478	5.52
299.691	5.48
299.903	5.57
300.116	5.63
300.329	5.56
300.542	5.57
300.755	5.43
300.967	5.48
301.18	5.54
301.393	5.45
301.605	5.39
301.818	5.52
302.031	5.79
302.243	5.7
302.456	5.77
302.669	5.68
302.881	5.83
303.094	6.02
303.307	6.01
303.519	5.93
303.732	6.06
303.944	6.49
304.157	6.34
304.37	6.21
304.582	6.38
304.795	6.36
305.007	6.44
305.22	6.54
305.432	6.45
305.645	6.46
305.857	6.49
306.069	6.54
306.282	6.26
306.494	6.5
306.707	6.37
306.919	6.5
307.132	6.4
307.344	6.27
307.556	6.13
307.769	6.03
307.981	5.98
308.193	6.07
308.406	5.82
308.618	5.92
308.83	5.8
309.043	6
309.255	5.93
309.467	5.99
309.679	6.25
309.892	6.2
310.104	6.26
310.316	6.36
310.528	6.26
310.74	6.56
310.953	6.66
311.165	6.79
311.377	6.67
311.589	6.76
311.801	6.78
312.013	6.71
312.225	6.8
312.437	6.99
312.649	6.91
312.862	6.98
313.074	6.95
313.286	6.7
313.498	6.55
313.71	7.08
313.922	6.89
314.134	6.95
314.346	6.99
314.558	7.13
314.77	6.91
314.982	6.85
315.193	6.89
315.405	6.76
315.617	7.01
315.829	7.15
316.041	6.86
316.253	6.97
316.465	6.98
316.677	6.95
316.888	6.82
317.1	6.99
317.312	7.41
317.524	7.66
317.736	7.75
317.947	8.11
318.159	8.37
318.371	8.56
318.583	8.84
318.794	9.15
319.006	9.65
319.218	9.83
319.43	9.82
319.641	9.75
319.853	9.81
320.064	9.99
320.276	9.89
320.488	9.86
320.699	9.8
320.911	9.78
321.123	9.79
321.334	9.56
321.546	9.48
321.757	9.6
321.969	9.63
322.18	9.56
322.392	9.54
322.603	9.62
322.815	9.78
323.026	9.95
323.238	10.08
323.449	10.29
323.661	10.32
323.872	10.78
324.083	10.99
324.295	11.12
324.506	11.31
324.718	11.58
324.929	11.89
325.14	12.19
325.352	12.48
325.563	12.83
325.774	12.96
325.986	13.24
326.197	13.26
326.408	13.43
326.62	13.79
326.831	14.1
327.042	14.38
327.253	14.56
327.464	14.7
327.676	14.84
327.887	15.05
328.098	15.25
328.309	15.56
328.52	15.99
328.732	16.64
328.943	17.05
329.154	17.53
329.365	17.8
329.576	18.17
329.787	18.6
329.998	18.95
330.209	19.39
330.42	19.8
330.631	20.24
330.842	20.65
331.053	20.83
331.264	20.95
331.475	21.06
331.686	21.45
331.897	21.67
332.108	21.79
332.319	22.11
332.53	22.33
332.741	22.48
332.952	22.48
333.163	22.53
333.374	22.93
333.585	22.95
333.795	23.12
334.006	23.26
334.217	23.29
334.428	23.62
334.639	23.71
334.849	23.71
335.06	23.92
335.271	24.12
335.482	24.31
335.692	24.17
335.903	24.29
336.114	24.34
336.325	24.51
336.535	24.68
336.746	24.53
336.957	24.59
337.167	24.73
337.378	24.76
337.589	25
337.799	25.06
338.01	25.21
338.22	25.47
338.431	25.55
338.642	25.59
338.852	25.57
339.063	25.71
339.273	25.68
339.484	25.76
339.694	25.73
339.905	25.38
340.115	25.39
340.326	25.28
340.536	25.3
340.746	25.46
340.957	25.42
341.167	25.47
341.378	25.51
341.588	25.74
341.799	25.7
342.009	25.64
342.219	25.92
342.43	25.82
342.64	25.9
342.85	25.82
343.061	25.67
343.271	25.74
343.481	25.92
343.691	25.88
343.902	25.84
344.112	25.81
344.322	25.89
344.532	25.73
344.743	25.91
344.953	25.69
345.163	25.78
345.373	25.89
345.583	25.61
345.793	25.42
346.004	25.35
346.214	25.3
346.424	25.3
346.634	25.47
346.844	25.55
347.054	25.39
347.264	25.75
347.474	25.59
347.684	25.62
347.894	25.64
348.104	25.59
348.314	25.58
348.524	25.6
348.734	25.63
348.944	25.46
349.154	25.34
349.364	25.38
349.574	25.23
349.784	25.3
349.994	25.11
350.204	25.27
350.413	25.31
350.623	25.42
350.833	25.15
351.043	25
351.253	24.99
351.463	24.95
351.672	24.75
351.882	24.58
352.092	24.52
352.302	24.54
352.511	24.29
352.721	24.33
352.931	24.29
353.141	24.39
353.35	24.35
353.56	24.35
353.77	24.44
353.979	24.65
354.189	24.68
354.399	24.8
354.608	24.77
354.818	24.79
355.027	24.82
355.237	24.68
355.447	24.68
355.656	24.69
355.866	24.69
356.075	24.7
356.285	24.51
356.494	24.6
356.704	24.5
356.913	24.44
357.123	24.37
357.332	24.34
357.542	24.5
357.751	24.46
357.96	24.41
358.17	24.43
358.379	24.43
358.589	24.43
358.798	24.27
359.007	24.2
359.217	24.14
359.426	24.26
359.635	24.07
359.845	23.93
360.054	23.77
360.263	23.73
360.472	23.55
360.682	23.46
360.891	23.49
361.1	23.55
361.309	23.56
361.519	23.69
361.728	23.7
361.937	23.79
362.146	23.82
362.355	23.94
362.564	24
362.774	24.06
362.983	24
363.192	23.95
363.401	23.87
363.61	23.77
363.819	23.7
364.028	23.67
364.237	23.51
364.446	23.46
364.655	23.41
364.864	23.33
365.073	23.29
365.282	23.31
365.491	23.25
365.7	23.24
365.909	23.19
366.118	23.1
366.327	22.96
366.536	22.98
366.745	22.9
366.954	22.86
367.162	22.75
367.371	22.79
367.58	22.79
367.789	22.61
367.998	22.55
368.207	22.59
368.415	22.5
368.624	22.49
368.833	22.48
369.042	22.53
369.25	22.51
369.459	22.53
369.668	22.48
369.877	22.44
370.085	22.48
370.294	22.47
370.503	22.45
370.711	22.51
370.92	22.38
371.129	22.36
371.337	22.31
371.546	22.14
371.754	22.13
371.963	22.03
372.171	21.98
372.38	21.89
372.589	21.83
372.797	21.72
373.006	21.57
373.214	21.5
373.423	21.41
373.631	21.2
373.84	21.35
374.048	21.18
374.256	21.14
374.465	21.04
374.673	21.01
374.882	20.94
375.09	20.87
375.298	20.82
375.507	20.86
375.715	20.88
375.923	20.89
376.132	20.68
376.34	20.6
376.548	20.52
376.757	20.57
376.965	20.64
377.173	20.64
377.381	20.63
377.59	20.57
377.798	20.53
378.006	20.4
378.214	20.35
378.423	20.44
378.631	20.5
378.839	20.48
379.047	20.38
379.255	20.27
379.463	20.14
379.671	20.03
379.879	20.05
380.088	20.01
380.296	20.03
380.504	20.08
380.712	19.99
380.92	20.01
381.128	19.91
381.336	20.01
381.544	20.04
381.752	20.03
381.96	20.03
382.168	20.06
382.376	19.88
382.584	19.85
382.791	19.73
382.999	19.59
383.207	19.42
383.415	19.39
383.623	19.2
383.831	19.07
384.039	18.99
384.247	19.04
384.454	19.02
384.662	19.09
384.87	19.02
385.078	18.97
385.285	19.04
385.493	19.06
385.701	19.12
385.909	19.09
386.116	19.01
386.324	19.05
386.532	18.94
386.739	18.74
386.947	18.7
387.155	18.63
387.362	18.64
387.57	18.67
387.778	18.58
387.985	18.52
388.193	18.55
388.4	18.69
388.608	18.55
388.816	18.42
389.023	18.44
389.231	18.41
389.438	18.38
389.646	18.24
389.853	18.03
390.061	17.97
390.268	17.81
390.475	17.59
390.683	17.37
390.89	17.4
391.098	17.4
391.305	17.34
391.512	17.22
391.72	17.19
391.927	17.14
392.135	17.14
392.342	17.14
392.549	17.1
392.756	17.11
392.964	17.14
393.171	17.16
393.378	17.1
393.586	17.08
393.793	17.12
394	17.01
394.207	17.06
394.414	17.07
394.622	17.09
394.829	17.01
395.036	16.89
395.243	16.85
395.45	16.68
395.657	16.64
395.864	16.53
396.072	16.5
396.279	16.49
396.486	16.39
396.693	16.36
396.9	16.32
397.107	16.34
397.314	16.44
397.521	16.31
397.728	16.26
397.935	16.25
398.142	16.22
398.349	16.14
398.556	16.16
398.763	16.12
398.97	15.96
399.177	15.89
399.383	15.86
399.59	15.79
399.797	15.77
400.004	15.76
400.211	15.61
400.418	15.6
400.625	15.48
400.831	15.33
401.038	15.22
401.245	15.21
401.452	15.08
401.658	14.96
401.865	14.94
402.072	14.95
402.279	14.91
402.485	14.92
402.692	14.86
402.899	14.88
403.105	14.9
403.312	14.92
403.519	14.91
403.725	14.96
403.932	15.03
404.138	14.99
404.345	14.93
404.552	14.91
404.758	14.99
404.965	14.91
405.171	14.84
405.378	14.78
405.584	14.78
405.791	14.69
405.997	14.64
406.204	14.55
406.41	14.54
406.617	14.58
406.823	14.54
407.029	14.45
407.236	14.52
407.442	14.57
407.649	14.69
407.855	14.65
408.061	14.7
408.268	14.64
408.474	14.64
408.68	14.58
408.887	14.46
409.093	14.42
409.299	14.41
409.505	14.32
409.712	14.31
409.918	14.14
410.124	14.14
410.33	13.99
410.537	13.96
410.743	14.02
410.949	14.03
411.155	14.14
411.361	14.11
411.567	14
411.773	13.9
411.98	13.81
412.186	13.8
412.392	13.69
412.598	13.79
412.804	13.73
413.01	13.56
413.216	13.44
413.422	13.38
413.628	13.4
413.834	13.38
414.04	13.39
414.246	13.34
414.452	13.25
414.658	13.24
414.864	13.21
415.07	13.2
415.275	13.19
415.481	13.18
415.687	13.02
415.893	12.96
416.099	12.97
416.305	13
416.511	13
416.716	12.94
416.922	12.9
417.128	12.82
417.334	12.79
417.539	12.72
417.745	12.72
417.951	12.74
418.157	12.74
418.362	12.72
418.568	12.68
418.774	12.6
418.979	12.59
419.185	12.55
419.391	12.55
419.596	12.54
419.802	12.55
420.008	12.47
420.213	12.79
420.419	12.73
420.624	12.69
420.83	12.67
421.035	12.73
421.241	12.75
421.446	12.76
421.652	12.71
421.857	12.67
422.063	12.61
422.268	12.59
422.474	12.24
422.679	12.2
422.885	12.15
423.09	12.12
423.295	12.06
423.501	12.04
423.706	11.99
423.911	12.02
424.117	12
424.322	12.05
424.527	12.09
424.733	12.05
424.938	12.06
425.143	12.09
425.349	12.06
425.554	12.07
425.759	12.08
425.964	12.09
426.169	12.06
426.375	12.05
426.58	11.97
426.785	11.9
426.99	11.94
427.195	11.94
427.4	11.89
427.605	11.88
427.811	11.85
428.016	11.8
428.221	11.78
428.426	11.74
428.631	11.73
428.836	11.69
429.041	11.71
429.246	11.71
429.451	11.72
429.656	11.75
429.861	11.77
430.066	11.78
430.271	11.75
430.476	11.73
430.681	11.71
430.886	11.7
431.09	11.75
431.295	11.7
431.5	11.67
431.705	11.66
431.91	11.64
432.115	11.62
432.32	11.62
432.524	11.6
432.729	11.58
432.934	11.6
433.139	11.66
433.343	11.69
433.548	11.72
433.753	11.73
433.958	11.71
434.162	11.7
434.367	11.75
434.572	11.73
434.776	11.77
434.981	11.79
435.186	11.73
435.39	11.69
435.595	11.69
435.799	11.67
436.004	11.61
436.209	11.63
436.413	11.61
436.618	11.52
436.822	11.47
437.027	11.43
437.231	11.41
437.436	11.45
437.64	11.42
437.845	11.39
438.049	11.36
438.253	11.36
438.458	11.34
438.662	11.35
438.867	11.37
439.071	11.42
439.275	11.43
439.48	11.44
439.684	11.43
439.888	11.4
440.093	11.37
440.297	11.41
440.501	11.42
440.706	11.38
440.91	11.42
441.114	11.4
441.318	11.39
441.523	11.38
441.727	11.4
441.931	11.44
442.135	11.47
442.339	11.48
442.543	11.45
442.748	11.47
442.952	11.49
443.156	11.42
443.36	11.4
443.564	11.39
443.768	11.39
443.972	11.31
444.176	11.25
444.38	11.24
444.584	11.25
444.788	11.2
444.992	11.15
445.196	11.11
445.4	11.12
445.604	11.12
445.808	11.07
446.012	11.05
446.216	11.05
446.42	11.01
446.624	10.97
446.828	10.93
447.032	10.96
447.235	10.94
447.439	10.99
447.643	10.96
447.847	10.99
448.051	10.97
448.254	10.99
448.458	10.99
448.662	11.04
448.866	11
449.069	11.04
449.273	11.06
449.477	11.09
449.681	11.05
449.884	11.05
450.088	10.98
450.292	11.04
450.495	11.02
450.699	11.08
450.902	11.07
451.106	11.1
451.31	11.07
451.513	11.01
451.717	10.94
451.92	10.91
452.124	10.9
452.327	10.92
452.531	10.87
452.734	10.85
452.938	10.76
453.141	10.72
453.345	10.75
453.548	10.73
453.752	10.73
453.955	10.8
454.158	10.75
454.362	10.74
454.565	10.7
454.769	10.69
454.972	10.68
455.175	10.67
455.379	10.65
455.582	10.57
455.785	10.59
455.988	10.56
456.192	10.51
456.395	10.51
456.598	10.48
456.801	10.49
457.005	10.52
457.208	10.49
457.411	10.51
457.614	10.5
457.817	10.55
458.021	10.51
458.224	10.53
458.427	10.54
458.63	10.54
458.833	10.53
459.036	10.54
459.239	10.53
459.442	10.53
459.645	10.52
459.848	10.54
460.051	10.51
460.254	10.51
460.457	10.51
460.66	10.51
460.863	10.54
461.066	10.61
461.269	10.64
461.472	10.67
461.675	10.73
461.878	10.78
462.081	10.79
