Data from JASIL_3102_Relative_2.txt Node
Date: Thu Nov 12 19:31:59 EST 2015
User: Geneva
Spectrometer: USB4E03002
Autoset integration time: false
Trigger mode: 4
Integration Time (sec): 1.000000E-1
Scans to average: 10
Electric dark correction enabled: true
Nonlinearity correction enabled: false
Boxcar width: 5
Stray light correction enabled: false
XAxis mode: Wavelengths
Stop averaging: false
Number of Pixels in Spectrum: 3648
>>>>>Begin Spectral Data<<<<<
177.575	198.81
177.794	724.58
178.014	210.73
178.233	123.48
178.452	171.3
178.672	148.01
178.891	953.52
179.11	190.37
179.33	2833.33
179.549	-63.03
179.768	-302.5
179.987	1647.37
180.207	-330.13
180.426	-1444.6
180.645	5967.78
180.864	-245.22
181.084	-387.7
181.303	-198.93
181.522	-271.48
181.741	-4740.97
181.96	574.71
182.179	3080.54
182.398	-734.06
182.618	-3115.03
182.837	-2531.56
183.056	1177.01
183.275	290.28
183.494	686.41
183.713	400.79
183.932	444.16
184.151	501.66
184.37	1289.73
184.589	471.03
184.808	337.57
185.027	1042.03
185.246	307.57
185.465	353.7
185.684	556.36
185.903	311.09
186.122	409.74
186.341	998.54
186.56	585.23
186.779	-432.47
186.998	-213.75
187.216	-38.69
187.435	-25.09
187.654	-76.45
187.873	-43.87
188.092	-17.33
188.311	-60.97
188.53	-53.37
188.748	-31.55
188.967	-34.71
189.186	-141.96
189.405	-213.91
189.623	-712.15
189.842	2131.2
190.061	-12689.87
190.28	791.96
190.498	427.77
190.717	295.63
190.936	441.86
191.154	330.19
191.373	289.21
191.592	195.91
191.81	186.42
192.029	239.02
192.248	244.39
192.466	199.47
192.685	294
192.904	237.02
193.122	281.41
193.341	528.56
193.559	-1098.72
193.778	1626.52
193.996	1621.93
194.215	938.2
194.433	519.6
194.652	3221.05
194.87	-681.48
195.089	-312.86
195.307	-157.09
195.526	-152.13
195.744	-261.94
195.963	-1039.44
196.181	2129.53
196.399	-194.06
196.618	-376.45
196.836	-413.77
197.055	-213.95
197.273	-136.91
197.491	-191.04
197.71	6978.89
197.928	473.32
198.146	382.44
198.365	298.94
198.583	4899.14
198.801	238.82
199.019	160.35
199.238	190.56
199.456	247.55
199.674	151.48
199.892	196.62
200.111	664.72
200.329	-1313.35
200.547	-687.99
200.765	-496.89
200.983	-234.06
201.202	-212.2
201.42	-193.79
201.638	-270.62
201.856	-160.47
202.074	-135.5
202.292	-94.26
202.51	511.23
202.728	152.7
202.946	158.63
203.165	169.97
203.383	137.94
203.601	145.89
203.819	171.58
204.037	170.13
204.255	176.51
204.473	156.65
204.691	146.34
204.909	269.54
205.127	296.11
205.345	665.02
205.562	-3318.58
205.78	-553.89
205.998	-454.42
206.216	-1261.67
206.434	431.81
206.652	-4413.53
206.87	-361.14
207.088	-171.44
207.306	-771.41
207.523	-172.93
207.741	-393.28
207.959	4994.98
208.177	53360
208.395	-822.46
208.612	-1509.58
208.83	-538.9
209.048	-390.88
209.266	-1441.27
209.483	-755.16
209.701	-247.46
209.919	-886.95
210.136	-689.69
210.354	-693.04
210.572	-519.8
210.79	-1002.03
211.007	1242.62
211.225	1115.4
211.442	616.56
211.66	4230.87
211.878	647.48
212.095	288.35
212.313	421.84
212.53	301.17
212.748	214.86
212.966	173.27
213.183	104.45
213.401	101.98
213.618	124.49
213.836	145.4
214.053	234.42
214.271	309.72
214.488	594.14
214.705	244.65
214.923	-4957.64
215.14	7625.24
215.358	-232.79
215.575	-254.2
215.793	-346.8
216.01	-264.84
216.227	-28077.78
216.445	-1062.4
216.662	-182.23
216.879	-8000
217.097	-168.11
217.314	519.02
217.531	-1407.68
217.749	319.28
217.966	524.34
218.183	2329.43
218.4	544.94
218.618	853.05
218.835	490.36
219.052	243.37
219.269	258.82
219.487	238.18
219.704	200.21
219.921	152.97
220.138	209
220.355	186.28
220.572	330.75
220.79	356.42
221.007	411.49
221.224	-415.03
221.441	-101.2
221.658	-93.27
221.875	-108.91
222.092	-71.75
222.309	-49.93
222.526	-98.47
222.743	-205.33
222.96	-98.64
223.177	-96.47
223.394	-39.9
223.611	-209.02
223.828	-77.63
224.045	-33.62
224.262	-30.59
224.479	-43.78
224.696	-49.79
224.913	-34.34
225.13	-40.49
225.347	-125.85
225.564	-92.4
225.781	-203.97
225.997	-129.69
226.214	-148.87
226.431	-222.6
226.648	-175.65
226.865	-118.2
227.082	-146.03
227.298	-147.31
227.515	-111.08
227.732	-52.65
227.949	-61.01
228.165	-55.63
228.382	-43.08
228.599	-44.29
228.816	-46.17
229.032	-24.47
229.249	-33.58
229.466	-30.14
229.682	-30.18
229.899	-20.6
230.116	-35.94
230.332	-23.92
230.549	-10.1
230.765	-7.87
230.982	-8.99
231.199	-13.09
231.415	-37.11
231.632	-18.31
231.848	-24.22
232.065	-8.45
232.281	-35.51
232.498	-19.95
232.714	-46.58
232.931	-120.83
233.147	-173.68
233.364	-168.3
233.58	-69.59
233.797	-67.83
234.013	-50.27
234.23	-51.98
234.446	-79.69
234.662	-93.36
234.879	-76.91
235.095	-105.58
235.312	-50.47
235.528	-69.84
235.744	-81.82
235.961	-132.35
236.177	-153.29
236.393	-199.78
236.61	-101.15
236.826	-64.37
237.042	-44.21
237.258	-34.87
237.475	-22.88
237.691	-20.78
237.907	-21.38
238.123	-7.52
238.339	-10.46
238.556	-13.65
238.772	-21.46
238.988	-32.43
239.204	-41.67
239.42	-46.71
239.636	-59.97
239.853	-28.36
240.069	-40.46
240.285	-25.43
240.501	-33.06
240.717	-36.72
240.933	-33.19
241.149	-17.55
241.365	-16.07
241.581	-15.13
241.797	-19.41
242.013	-10.96
242.229	-13.56
242.445	-6.04
242.661	-2.73
242.877	3.61
243.093	5.9
243.309	6.95
243.525	4.64
243.741	4.53
243.957	1.08
244.173	4.72
244.388	2.84
244.604	1.8
244.82	4.08
245.036	1.73
245.252	-4.29
245.468	-5.19
245.683	-4.84
245.899	-5.82
246.115	-6.26
246.331	-5.55
246.547	-2.37
246.762	-4.01
246.978	-5.63
247.194	-10.7
247.409	-12.02
247.625	-12.41
247.841	-13.35
248.057	-11.65
248.272	-15.26
248.488	-17.65
248.703	-16.16
248.919	-25.18
249.135	-35.85
249.35	-34.24
249.566	-30.95
249.782	-31.02
249.997	-25.5
250.213	-15.82
250.428	-21.36
250.644	-13.92
250.859	-6.34
251.075	-7.89
251.29	-3.05
251.506	5.9
251.721	-1.12
251.937	-3.27
252.152	-2.96
252.368	2.08
252.583	-9.1
252.798	-11.79
253.014	-19.27
253.229	-26.97
253.445	-32.35
253.66	-42.8
253.875	-46.44
254.091	-39.52
254.306	-31.89
254.521	-26.72
254.737	-66.33
254.952	-41.37
255.167	-38.93
255.383	-28.36
255.598	-24.7
255.813	-6.62
256.028	4.9
256.244	4.6
256.459	1.59
256.674	-5.29
256.889	-13.85
257.104	-3.18
257.32	-8.78
257.535	-7.21
257.75	-8.16
257.965	-6.23
258.18	-10.17
258.395	-10.66
258.61	-9.65
258.826	-10.14
259.041	-8.58
259.256	-4.36
259.471	-6.85
259.686	-2.84
259.901	-2.48
260.116	-0.82
260.331	-3.67
260.546	-4.69
260.761	-3.93
260.976	-4.55
261.191	-4.23
261.406	-2.82
261.621	-7.23
261.836	-8.22
262.05	-11.4
262.265	-9.89
262.48	-14.79
262.695	-15.54
262.91	-15.88
263.125	-19.95
263.34	-27.11
263.555	-28.62
263.769	-33.49
263.984	-29.53
264.199	-29.02
264.414	-22.46
264.629	-27.63
264.843	-34.91
265.058	-25.3
265.273	-25.5
265.488	-20.11
265.702	-14.38
265.917	-6.38
266.132	-3.28
266.346	-2.01
266.561	-1.6
266.776	-4.32
266.99	-6.2
267.205	0.12
267.42	-1.01
267.634	0.78
267.849	-0.48
268.063	-4.86
268.278	-7
268.492	-12.23
268.707	-11.82
268.922	-9.61
269.136	-9.5
269.351	-5.63
269.565	-6.99
269.78	-7.53
269.994	-6.4
270.209	-7.21
270.423	-6.32
270.637	-6
270.852	-0.04
271.066	-2.32
271.281	-1
271.495	-5.02
271.709	-6.99
271.924	-5.6
272.138	-6.28
272.353	-7.38
272.567	-6.46
272.781	-6.84
272.996	-6.66
273.21	-11.04
273.424	-11.17
273.638	-14.45
273.853	-11.95
274.067	-11.48
274.281	-8.45
274.495	-10.39
274.71	-10.2
274.924	-12.04
275.138	-5.94
275.352	-7.44
275.566	-5.93
275.781	-4.94
275.995	-6.29
276.209	-10.58
276.423	-7.88
276.637	-13.18
276.851	-10.9
277.065	-13.55
277.279	-14.91
277.493	-17.51
277.707	-16.82
277.921	-17.73
278.135	-15.32
278.349	-10.53
278.563	-3.49
278.777	-7.89
278.991	-7.74
279.205	-10.17
279.419	-6.21
279.633	-3.79
279.847	-4.54
280.061	-6.93
280.275	-7.72
280.489	-11.14
280.703	-10.79
280.917	-9.22
281.131	-9.03
281.344	-8.05
281.558	-7.06
281.772	-11.05
281.986	-12.34
282.2	-11.81
282.414	-9.02
282.627	-5.34
282.841	-5.88
283.055	-7.42
283.269	-11.96
283.482	-11.25
283.696	-9.37
283.91	-6.74
284.123	-2.02
284.337	-1.05
284.551	-0.46
284.764	-3.49
284.978	-6.48
285.192	-4.76
285.405	-6.15
285.619	-4.28
285.833	-4.28
286.046	-5.02
286.26	-7.69
286.473	-9.32
286.687	-11.91
286.9	-13.13
287.114	-9.46
287.327	-11.51
287.541	-9.44
287.754	-8.89
287.968	-10.03
288.181	-10.47
288.395	-12.18
288.608	-10.89
288.822	-12.43
289.035	-9.38
289.248	-11.29
289.462	-10.75
289.675	-7.86
289.889	-10.73
290.102	-9.33
290.315	-7.25
290.529	-6.7
290.742	-5.96
290.955	-7.79
291.169	-7.96
291.382	-9.68
291.595	-8.18
291.808	-11.62
292.022	-8.14
292.235	-8.28
292.448	-9.41
292.661	-10.35
292.875	-8.94
293.088	-11.22
293.301	-10.3
293.514	-10.38
293.727	-10.04
293.94	-9.28
294.153	-4.39
294.367	-6.46
294.58	-5
294.793	-3.13
295.006	-1.52
295.219	-2.36
295.432	-2
295.645	-1.51
295.858	0.32
296.071	-0.12
296.284	-0.86
296.497	-1.5
296.71	-2.49
296.923	-2.59
297.136	-3.92
297.349	-4.01
297.562	-2.96
297.775	-1.62
297.988	-1.65
298.201	-1.51
298.414	-2.84
298.626	-1.84
298.839	-4.36
299.052	-2.44
299.265	-2.46
299.478	-1.67
299.691	-5.89
299.903	-6.92
300.116	-5.54
300.329	-5.36
300.542	-6
300.755	-3.55
300.967	-6.09
301.18	-6.59
301.393	-6.94
301.605	-7.51
301.818	-6.97
302.031	-6.63
302.243	-9.12
302.456	-9.61
302.669	-8.86
302.881	-9.11
303.094	-10.07
303.307	-8.58
303.519	-8.14
303.732	-8.97
303.944	-10.83
304.157	-11.68
304.37	-9.74
304.582	-7.16
304.795	-7.74
305.007	-10.37
305.22	-9.27
305.432	-6.98
305.645	-4.84
305.857	-2.74
306.069	-3.95
306.282	-1.62
306.494	-2.55
306.707	-0.28
306.919	0.96
307.132	2.04
307.344	1.85
307.556	1.05
307.769	-0.14
307.981	-1.79
308.193	-4.03
308.406	-1.84
308.618	-3.71
308.83	-2.41
309.043	-1.93
309.255	-2.48
309.467	-4.36
309.679	-0.33
309.892	-1.21
310.104	-1.31
310.316	0.41
310.528	-0.08
310.74	-0.43
310.953	0.89
311.165	0.73
311.377	-1.76
311.589	-0.63
311.801	0.99
312.013	-0.33
312.225	0.57
312.437	-0.4
312.649	-3.91
312.862	-3.05
313.074	-3.11
313.286	-2.3
313.498	-2.17
313.71	-3.91
313.922	-5.86
314.134	-4.36
314.346	-6.08
314.558	-9.04
314.77	-6.35
314.982	-3.3
315.193	-1.8
315.405	-5.06
315.617	-4.5
315.829	-6.39
316.041	-4.22
316.253	-2.76
316.465	-6.17
316.677	-6.71
316.888	-2.9
317.1	-6.66
317.312	-9.09
317.524	-11.17
317.736	-10.86
317.947	-13.69
318.159	-14.06
318.371	-11.47
318.583	-13.18
318.794	-12.3
319.006	-11.59
319.218	-12.69
319.43	-10.69
319.641	-10.02
319.853	-11
320.064	-7.78
320.276	-6.71
320.488	-6.38
320.699	-5.41
320.911	-5.58
321.123	-4.83
321.334	-3.47
321.546	-1.21
321.757	0.28
321.969	0.33
322.18	2.02
322.392	1.36
322.603	0.55
322.815	1.72
323.026	-0.36
323.238	0.69
323.449	-1.78
323.661	-2.35
323.872	-4.7
324.083	-5.9
324.295	-5.5
324.506	-3.85
324.718	-4.61
324.929	0.36
325.14	0.79
325.352	1.13
325.563	-0.95
325.774	-0.59
325.986	-3.52
326.197	-0.79
326.408	0.16
326.62	-0.28
326.831	-3.1
327.042	-3.7
327.253	-8.05
327.464	-8.43
327.676	-9.27
327.887	-7.11
328.098	-6.12
328.309	-4.2
328.52	-6.2
328.732	-6.99
328.943	-3.69
329.154	-1.43
329.365	-1.66
329.576	-2.31
329.787	-0.67
329.998	-1.2
330.209	-2.2
330.42	-0.76
330.631	-1.53
330.842	-1.42
331.053	-0.62
331.264	-4.13
331.475	-3.81
331.686	-0.65
331.897	-0.66
332.108	-1.84
332.319	-0.13
332.53	-0.38
332.741	-1.4
332.952	0.42
333.163	-1.26
333.374	-2.18
333.585	-4.78
333.795	-7.12
334.006	-10.42
334.217	-10.96
334.428	-12.14
334.639	-14.97
334.849	-14.18
335.06	-11.13
335.271	-12.73
335.482	-12.51
335.692	-9.83
335.903	-3.65
336.114	-2.87
336.325	-0.44
336.535	-1.06
336.746	-1.42
336.957	2.66
337.167	2.99
337.378	0.7
337.589	2.95
337.799	4.12
338.01	1.02
338.22	-2.45
338.431	-4.35
338.642	-6.68
338.852	-3.97
339.063	-4.47
339.273	-7.92
339.484	-8.07
339.694	-7.45
339.905	-6.92
340.115	-8.06
340.326	-8.39
340.536	-5.45
340.746	-2.65
340.957	-1.85
341.167	-2.06
341.378	0.01
341.588	1.3
341.799	0.89
342.009	0.5
342.219	-1.2
342.43	1.25
342.64	2.73
342.85	2.32
343.061	2.66
343.271	1.89
343.481	2.09
343.691	2.2
343.902	2.6
344.112	2.42
344.322	0.54
344.532	1.62
344.743	1.42
344.953	-0.5
345.163	-2.77
345.373	-2.98
345.583	-1.55
345.793	-0.63
346.004	-1.4
346.214	-2.93
346.424	-2.7
346.634	-2.04
346.844	-3.26
347.054	-4.63
347.264	-3.48
347.474	-1.82
347.684	-4
347.894	-4.06
348.104	-6.62
348.314	-5.99
348.524	-3.99
348.734	-3.44
348.944	-2.01
349.154	-2.84
349.364	-3.53
349.574	-1.67
349.784	-1.5
349.994	-1.76
350.204	-2.13
350.413	-2.22
350.623	-2.67
350.833	-2.86
351.043	-3.47
351.253	-3.28
351.463	-1.57
351.672	-0.94
351.882	-2.63
352.092	-3.49
352.302	-2.74
352.511	-2.08
352.721	-1.76
352.931	-1.24
353.141	-2.84
353.35	-1.7
353.56	-3.49
353.77	-5.56
353.979	-5.05
354.189	-4.69
354.399	-3.74
354.608	-1.85
354.818	-2.41
355.027	-0.43
355.237	-0.67
355.447	2.45
355.656	0.4
355.866	3.09
356.075	4.83
356.285	3.12
356.494	2.26
356.704	2.43
356.913	2.41
357.123	3.02
357.332	2.14
357.542	2.86
357.751	0.77
357.96	1.45
358.17	-0.5
358.379	-1.01
358.589	1.02
358.798	1.6
359.007	0.6
359.217	0.65
359.426	1.33
359.635	0.07
359.845	0.31
360.054	0.14
360.263	1.52
360.472	2
360.682	1.92
360.891	1.79
361.1	2.16
361.309	2.8
361.519	0.95
361.728	-0.8
361.937	-0.05
362.146	-0.9
362.355	-1.19
362.564	-2.67
362.774	-2.45
362.983	-2.9
363.192	-3.84
363.401	-3.25
363.61	-3.23
363.819	-2.78
364.028	0.57
364.237	0.6
364.446	-0.22
364.655	0.37
364.864	0.48
365.073	-0.58
365.282	-0.46
365.491	0.87
365.7	-0.97
365.909	-1.26
366.118	-0.56
366.327	-2.53
366.536	-1.42
366.745	0.73
366.954	1.35
367.162	0.92
367.371	1.14
367.58	1.66
367.789	0.65
367.998	1.88
368.207	1.31
368.415	0.67
368.624	1.22
368.833	0.39
369.042	0.03
369.25	-0.65
369.459	-0.02
369.668	1.84
369.877	3.04
370.085	3.45
370.294	2.08
370.503	2.3
370.711	3.95
370.92	2.73
371.129	3.02
371.337	2.27
371.546	2.17
371.754	2.51
371.963	0.93
372.171	-1
372.38	-0.5
372.589	-1.11
372.797	-1.06
373.006	-1.12
373.214	-0.52
373.423	-2.71
373.631	-2.94
373.84	-3.73
374.048	-4.33
374.256	-3.65
374.465	-2.86
374.673	-3.74
374.882	-2.6
375.09	-1.1
375.298	-0.52
375.507	-0.37
375.715	0.93
375.923	0.38
376.132	0.63
376.34	0.43
376.548	-0.21
376.757	-0.21
376.965	1.6
377.173	2.43
377.381	1.97
377.59	0.58
377.798	1.06
378.006	1.66
378.214	1.85
378.423	2.03
378.631	3.87
378.839	4.92
379.047	5.26
379.255	2.52
379.463	1.89
379.671	0.97
379.879	2.44
380.088	1.76
380.296	0.25
380.504	1.33
380.712	0.36
380.92	-1.23
381.128	-2.27
381.336	-2.63
381.544	-2.36
381.752	-3.34
381.96	-3.03
382.168	-4.47
382.376	-4.37
382.584	-3.78
382.791	-5.11
382.999	-5.17
383.207	-5.82
383.415	-4.69
383.623	-5.08
383.831	-4.04
384.039	-3.09
384.247	-3.36
384.454	-4.01
384.662	-4.25
384.87	-4.45
385.078	-3.99
385.285	-3.38
385.493	-2.29
385.701	-2.35
385.909	-1.34
386.116	-1.08
386.324	-1.97
386.532	-1.78
386.739	-1.58
386.947	-1.44
387.155	-1
387.362	0.02
387.57	-0.54
387.778	-0.95
387.985	-1.5
388.193	-3.4
388.4	-4.8
388.608	-4.54
388.816	-4.26
389.023	-3.63
389.231	-3.47
389.438	-2.03
389.646	-2.38
389.853	-1.83
390.061	-1.45
390.268	-1.91
390.475	-1.21
390.683	-1.59
390.89	-0.68
391.098	-0.65
391.305	-1
391.512	-1.43
391.72	-2.66
391.927	-3.28
392.135	-2.38
392.342	-2.04
392.549	-2.22
392.756	-2.2
392.964	-1.9
393.171	-2.73
393.378	-2.06
393.586	-2.22
393.793	-1.96
394	-1.67
394.207	-1.77
394.414	-2.18
394.622	-2.37
394.829	-2.13
395.036	-1.83
395.243	-1.21
395.45	-0.24
395.657	-1.04
395.864	-0.81
396.072	0.06
396.279	-0.5
396.486	-0.41
396.693	0.3
396.9	0.4
397.107	-0.34
397.314	-0.99
397.521	-1.97
397.728	-1.87
397.935	-1.83
398.142	-2.15
398.349	-2.92
398.556	-2.38
398.763	-1.33
398.97	-2.67
399.177	-2.63
399.383	-2.08
399.59	-1.31
399.797	0.56
400.004	-0.39
400.211	-0.92
400.418	-0.89
400.625	-1.01
400.831	-1.28
401.038	-2.26
401.245	-2.16
401.452	-2.85
401.658	-2.12
401.865	-2.48
402.072	-4.05
402.279	-2.6
402.485	-1.36
402.692	-0.34
402.899	-0.49
403.105	-0.84
403.312	0.35
403.519	1.24
403.725	1.71
403.932	0.85
404.138	1.99
404.345	2.58
404.552	2.16
404.758	0.54
404.965	1.01
405.171	0.99
405.378	1.24
405.584	0.88
405.791	1.36
405.997	0.75
406.204	2.29
406.41	2.04
406.617	2.18
406.823	1.89
407.029	2.39
407.236	0.91
407.442	0.92
407.649	1.56
407.855	0.66
408.061	-0.32
408.268	0.44
408.474	0.55
408.68	-0.39
408.887	-0.31
409.093	-0.77
409.299	-0.11
409.505	0.42
409.712	0.55
409.918	0.06
410.124	0.22
410.33	0.59
410.537	-0.24
410.743	-1.8
410.949	-2.17
411.155	-2.74
411.361	-2.69
411.567	-3.58
411.773	-3.91
411.98	-4.21
412.186	-4.91
412.392	-4.94
412.598	-6.26
412.804	-5.93
413.01	-5.26
413.216	-5.24
413.422	-5.29
413.628	-5.4
413.834	-4.89
414.04	-4.74
414.246	-3.55
414.452	-2.67
414.658	-2.28
414.864	-1.86
415.07	-2.03
415.275	-1.83
415.481	-1.21
415.687	-0.9
415.893	-0.05
416.099	-0.35
416.305	-0.2
416.511	-0.46
416.716	-0.85
416.922	-1.12
417.128	-1.27
417.334	-0.86
417.539	-0.88
417.745	-0.65
417.951	-0.36
418.157	-0.73
418.362	-0.34
418.568	-0.5
418.774	-0.3
418.979	0.04
419.185	0.27
419.391	0.94
419.596	0.89
419.802	0.84
420.008	1.09
420.213	0.89
420.419	0.71
420.624	1.07
420.83	1.52
421.035	1.23
421.241	1.45
421.446	1.46
421.652	1.12
421.857	1.22
422.063	1.42
422.268	1.12
422.474	1.16
422.679	1.3
422.885	1.29
423.09	0.71
423.295	1.11
423.501	1.19
423.706	1.44
423.911	1.96
424.117	1.85
424.322	2.06
424.527	1.88
424.733	1.79
424.938	2.26
425.143	2.32
425.349	3.01
425.554	3.05
425.759	2.84
425.964	2.68
426.169	2.41
426.375	2.63
426.58	2.23
426.785	2.48
426.99	2.37
427.195	2.32
427.4	1.63
427.605	0.96
427.811	0.55
428.016	0.91
428.221	0.83
428.426	0.79
428.631	0.51
428.836	0.27
429.041	-0.12
429.246	-0.15
429.451	-0.09
429.656	0.47
429.861	1.2
430.066	0.53
430.271	0.51
430.476	0.67
430.681	0.44
430.886	0.78
431.09	0.56
431.295	1.01
431.5	1.57
431.705	1.09
431.91	0.74
432.115	0.86
432.32	1.61
432.524	1.51
432.729	1.48
432.934	1.57
433.139	1.35
433.343	1.78
433.548	2.1
433.753	1.63
433.958	2.17
434.162	2.22
434.367	2.32
434.572	1.61
434.776	1.63
434.981	1.92
435.186	2.09
435.39	2.36
435.595	2.34
435.799	1.25
436.004	1.23
436.209	0.98
436.413	0.11
436.618	-0.54
436.822	0.26
437.027	0.53
437.231	-0.22
437.436	-0.83
437.64	-0.93
437.845	-0.66
438.049	0.25
438.253	0.53
438.458	0.58
438.662	1.74
438.867	1.94
439.071	1.92
439.275	1.98
439.48	1.89
439.684	2.17
439.888	2.37
440.093	2.67
440.297	2.57
440.501	2.89
440.706	2.71
440.91	1.96
441.114	1.94
441.318	1.8
441.523	1.26
441.727	1.31
441.931	0.88
442.135	0.61
442.339	-0.14
442.543	-0.05
442.748	-0.54
442.952	-0.71
443.156	-0.29
443.36	-0.72
443.564	-0.93
443.768	-0.46
443.972	0.04
444.176	0.82
444.38	0.86
444.584	1.16
444.788	1.09
444.992	1.73
445.196	1.72
445.4	2.04
445.604	2.2
445.808	2.23
446.012	1.56
446.216	1.41
446.42	2.03
446.624	2.09
446.828	1.32
447.032	0.94
447.235	0.83
447.439	1.25
447.643	0.86
447.847	0.89
448.051	1.18
448.254	1.1
448.458	1.09
448.662	-0.09
448.866	-0.28
449.069	0.76
449.273	1.09
449.477	0.82
449.681	0.15
449.884	-0.03
450.088	0.08
450.292	-0.3
450.495	0.77
450.699	0.7
450.902	1.22
451.106	1.81
451.31	0.72
451.513	1.02
451.717	0.46
451.92	0.41
452.124	0.71
452.327	0.4
452.531	-0.11
452.734	-0.7
452.938	-1.06
453.141	-1.25
453.345	-2.15
453.548	-1.35
453.752	-2.07
453.955	-1.74
