Data from JASIL_3266_Reflection_1.txt Node
Date: Mon Nov 16 21:01:11 EST 2015
User: Geneva
Spectrometer: USB4E03002
Autoset integration time: false
Trigger mode: 4
Integration Time (sec): 1.000000E-1
Scans to average: 10
Electric dark correction enabled: false
Nonlinearity correction enabled: false
Boxcar width: 5
Stray light correction enabled: false
XAxis mode: Wavelengths
Stop averaging: false
Number of Pixels in Spectrum: 3648
>>>>>Begin Spectral Data<<<<<
177.575	-568.38
177.794	-630.71
178.014	-684.94
178.233	-1185.98
178.452	-1745.78
178.672	-1150.76
178.891	-1568.87
179.11	4940.54
179.33	1663.39
179.549	-8281.82
179.768	1527.97
179.987	1825.81
180.207	1032.26
180.426	601.74
180.645	650.87
180.864	1126.62
181.084	513.88
181.303	475
181.522	950
181.741	3026.76
181.96	663.25
182.179	887.36
182.398	1005.78
182.618	1006.78
182.837	956.3
183.056	851.59
183.275	532.25
183.494	520
183.713	572.1
183.932	464.07
184.151	493.87
184.37	535.33
184.589	399.32
184.808	334.58
185.027	328.63
185.246	411.64
185.465	579.22
185.684	653.13
185.903	2751.72
186.122	1051.12
186.341	1306.18
186.56	660.53
186.779	1173.58
186.998	1763.85
187.216	1746.46
187.435	1410.78
187.654	1275.68
187.873	627.48
188.092	504.54
188.311	445
188.53	709.28
188.748	691.93
188.967	1574.4
189.186	798.08
189.405	835.93
189.623	981.94
189.842	888.48
190.061	923.44
190.28	2546.15
190.498	-2647.5
190.717	1899.21
190.936	-3755.93
191.154	-1825.89
191.373	-38716.67
191.592	-21109.09
191.81	-1355.75
192.029	-1747.33
192.248	-547.59
192.466	-533.57
192.685	-595.81
192.904	-811.72
193.122	-539.47
193.341	-1242.7
193.559	-1217.26
193.778	-1386.67
193.996	-1689.31
194.215	57500
194.433	-5369.05
194.652	1144.33
194.87	1005.63
195.089	889.08
195.307	1018.42
195.526	3172.88
195.744	1639.47
195.963	953.3
196.181	20575
196.399	-1540.17
196.618	8755
196.836	28783.33
197.055	-1443.44
197.273	-3015.52
197.491	-2098.89
197.71	-3892.16
197.928	2755
198.146	4845.24
198.365	-20880
198.583	1040.69
198.801	1371.35
199.019	3051.95
199.238	-5347.62
199.456	2259.43
199.674	966.53
199.892	697.01
200.111	925.38
200.329	911.32
200.547	734.65
200.765	640.84
200.983	662.95
201.202	504.52
201.42	818.5
201.638	520.52
201.856	605.4
202.074	1792.56
202.292	2162.63
202.51	1453.74
202.728	2116.49
202.946	-4857.5
203.165	6909.09
203.383	-2326.8
203.601	-2797.67
203.819	4846
204.037	24390
204.255	2557.73
204.473	1084.58
204.691	1533.33
204.909	992.24
205.127	1100.47
205.345	1303.98
205.562	1037.13
205.78	722.48
205.998	774.29
206.216	717.14
206.434	713.85
206.652	632.12
206.87	508.19
207.088	423.41
207.306	512.76
207.523	448.8
207.741	353.88
207.959	395.45
208.177	426.18
208.395	351.47
208.612	387.48
208.83	346.07
209.048	381.02
209.266	489.62
209.483	488.94
209.701	406.14
209.919	474.95
210.136	480.32
210.354	1113.5
210.572	1022.62
210.79	1545.93
211.007	911.79
211.225	1598.45
211.442	-8728.57
211.66	-2483.33
211.878	-1223.61
212.095	274.96
212.313	303.45
212.53	414.21
212.748	247.59
212.966	231.55
213.183	228.78
213.401	240.69
213.618	208.81
213.836	250.13
214.053	236.75
214.271	223.68
214.488	1712.61
214.705	907.8
214.923	691.29
215.14	723.13
215.358	611.69
215.575	942.45
215.793	905.48
216.01	1312.27
216.227	455.11
216.445	356.17
216.662	418.78
216.879	436.73
217.097	368.78
217.314	411.82
217.531	499.3
217.749	566
217.966	674.67
218.183	595.32
218.4	685.99
218.618	910.63
218.835	991.74
219.052	647.87
219.269	545.45
219.487	821.18
219.704	558.47
219.921	431.55
220.138	328.42
220.355	338.36
220.572	351.86
220.79	377.96
221.007	446.6
221.224	631.61
221.441	556.52
221.658	651.34
221.875	448.5
222.092	471.33
222.309	702.9
222.526	774.6
222.743	671.43
222.96	917.45
223.177	449.47
223.394	477.53
223.611	314.57
223.828	394.08
224.045	448.45
224.262	521.71
224.479	364.53
224.696	268.69
224.913	311.73
225.13	255.09
225.347	210.5
225.564	196.39
225.781	149.43
225.997	149.64
226.214	115.97
226.431	94.13
226.648	77.63
226.865	76.39
227.082	74.91
227.298	70.82
227.515	67.79
227.732	65.26
227.949	61.55
228.165	59.69
228.382	55.25
228.599	58.01
228.816	58.37
229.032	58.58
229.249	49.7
229.466	50.63
229.682	49.11
229.899	45.8
230.116	48.08
230.332	52.61
230.549	58.97
230.765	59.6
230.982	64.46
231.199	65.2
231.415	71.47
231.632	82.92
231.848	88.3
232.065	95.61
232.281	98.53
232.498	101.95
232.714	102.36
232.931	100.4
233.147	100.15
233.364	105.53
233.58	107.27
233.797	107.24
234.013	102.76
234.23	102.18
234.446	96.32
234.662	93.46
234.879	90.07
235.095	88.2
235.312	90.11
235.528	86.94
235.744	82.07
235.961	83.65
236.177	77.4
236.393	91.07
236.61	96.25
236.826	100.55
237.042	102.83
237.258	103.93
237.475	101.84
237.691	104.58
237.907	112.01
238.123	113.18
238.339	102.29
238.556	102.96
238.772	91.26
238.988	79.99
239.204	76.45
239.42	73.99
239.636	71.57
239.853	69.89
240.069	64
240.285	60.84
240.501	55.35
240.717	53.13
240.933	47.45
241.149	45.1
241.365	44.39
241.581	42.78
241.797	40.54
242.013	38.86
242.229	37.23
242.445	36.61
242.661	36.43
242.877	37.79
243.093	37.25
243.309	40.86
243.525	41.3
243.741	42.91
243.957	44.34
244.173	45.45
244.388	47.43
244.604	47.29
244.82	44.71
245.036	41.38
245.252	37.64
245.468	35.32
245.683	31.16
245.899	30.73
246.115	28.8
246.331	26.57
246.547	24.08
246.762	22.53
246.978	22.69
247.194	22.79
247.409	21.89
247.625	22.68
247.841	23.26
248.057	25.34
248.272	24.78
248.488	26.62
248.703	28.93
248.919	30.19
249.135	32.41
249.35	32.63
249.566	34.03
249.782	35.27
249.997	36.49
250.213	35.69
250.428	34.26
250.644	38.26
250.859	35.26
251.075	31.55
251.29	35.11
251.506	34.88
251.721	35.51
251.937	36.55
252.152	38.29
252.368	37.82
252.583	40.03
252.798	42.71
253.014	39.97
253.229	40.91
253.445	43.59
253.66	43.86
253.875	45.3
254.091	48.42
254.306	48.01
254.521	47.9
254.737	46.78
254.952	45.89
255.167	41.72
255.383	41.27
255.598	40.69
255.813	38.16
256.028	39.83
256.244	39.49
256.459	35.59
256.674	33.88
256.889	30.34
257.104	29.38
257.32	26.62
257.535	25.55
257.75	23.26
257.965	21.85
258.18	22.33
258.395	19.98
258.61	18.61
258.826	18.84
259.041	19.65
259.256	20.3
259.471	19.52
259.686	19.85
259.901	19.76
260.116	20.57
260.331	21.08
260.546	20.74
260.761	21.47
260.976	21.52
261.191	21.62
261.406	21.78
261.621	22.51
261.836	25.35
262.05	26.22
262.265	29.93
262.48	30.89
262.695	31.66
262.91	32.73
263.125	32.48
263.34	33.85
263.555	34.98
263.769	35.81
263.984	35.2
264.199	36.62
264.414	36.28
264.629	32.05
264.843	31.45
265.058	30.67
265.273	28.07
265.488	29.1
265.702	28.25
265.917	27.27
266.132	26.35
266.346	27.91
266.561	24.76
266.776	25.04
266.99	24.96
267.205	25.82
267.42	24
267.634	26.4
267.849	23.95
268.063	25.32
268.278	26.82
268.492	26.81
268.707	26.28
268.922	26.57
269.136	25.75
269.351	25.61
269.565	22.7
269.78	23.81
269.994	24.08
270.209	25.84
270.423	23.69
270.637	22.58
270.852	21.22
271.066	19.83
271.281	21.29
271.495	20.53
271.709	20.43
271.924	23.51
272.138	23.98
272.353	23.43
272.567	22.96
272.781	23.04
272.996	22.22
273.21	22.28
273.424	23.12
273.638	22.25
273.853	24.11
274.067	24.46
274.281	23.5
274.495	23.75
274.71	22.69
274.924	21.83
275.138	24.37
275.352	25.35
275.566	25.29
275.781	24.16
275.995	23.86
276.209	22.06
276.423	24.03
276.637	22.53
276.851	24.14
277.065	25.73
277.279	26.92
277.493	25.51
277.707	24.72
277.921	25.96
278.135	26.45
278.349	27.97
278.563	28.46
278.777	27.77
278.991	28.69
279.205	26.92
279.419	26.35
279.633	26.54
279.847	25.99
280.061	26.67
280.275	24.95
280.489	25.29
280.703	22.78
280.917	24.02
281.131	22.91
281.344	23.31
281.558	24.69
281.772	22.65
281.986	22.05
282.2	22.73
282.414	21.5
282.627	22.28
282.841	21.65
283.055	22.5
283.269	21.73
283.482	21.67
283.696	21.49
283.91	19.38
284.123	20.52
284.337	20.16
284.551	19.53
284.764	19.34
284.978	19.34
285.192	19.62
285.405	19.94
285.619	18.39
285.833	19.19
286.046	18.19
286.26	18.1
286.473	17.19
286.687	17.66
286.9	18.55
287.114	19.4
287.327	20.13
287.541	20.44
287.754	19.97
287.968	20.81
288.181	20.25
288.395	19.86
288.608	20.85
288.822	22.55
289.035	22.49
289.248	22.41
289.462	21.7
289.675	21.93
289.889	21.44
290.102	20.22
290.315	21.46
290.529	21.14
290.742	21.95
290.955	22.82
291.169	23.16
291.382	22.93
291.595	22.52
291.808	22.69
292.022	21.95
292.235	22.6
292.448	23.57
292.661	21.96
292.875	23.93
293.088	24.2
293.301	22.29
293.514	21.69
293.727	21.43
293.94	21.45
294.153	22.42
294.367	22.15
294.58	21.85
294.793	20.48
295.006	21.97
295.219	20.64
295.432	20.36
295.645	19.89
295.858	19.16
296.071	18.44
296.284	17.63
296.497	15.84
296.71	15.94
296.923	16.53
297.136	16.37
297.349	15.05
297.562	15.77
297.775	15.95
297.988	16
298.201	17.27
298.414	17.85
298.626	18.38
298.839	19.68
299.052	19.27
299.265	18.72
299.478	20.79
299.691	21.15
299.903	20.17
300.116	19.99
300.329	21.56
300.542	20.13
300.755	20.19
300.967	20.48
301.18	20.65
301.393	22.45
301.605	22.24
301.818	22.04
302.031	22.05
302.243	22.57
302.456	23.02
302.669	22.33
302.881	23.77
303.094	23.97
303.307	23.61
303.519	24.09
303.732	23.27
303.944	23.55
304.157	23.82
304.37	24.73
304.582	23.96
304.795	23.4
305.007	23.77
305.22	22.98
305.432	22.94
305.645	23.34
305.857	23.68
306.069	23.64
306.282	23.61
306.494	23.91
306.707	23.03
306.919	23.67
307.132	24.3
307.344	25.13
307.556	24.4
307.769	24.6
307.981	25.9
308.193	24.85
308.406	24.2
308.618	23.65
308.83	23.92
309.043	23.35
309.255	23.12
309.467	22.37
309.679	20.85
309.892	20.72
310.104	20.28
310.316	19.15
310.528	19.35
310.74	18.49
310.953	18.05
311.165	17.14
311.377	18.04
311.589	18.17
311.801	17.77
312.013	18.85
312.225	20.02
312.437	19.88
312.649	19.49
312.862	19.19
313.074	19.58
313.286	20.53
313.498	21.76
313.71	20.78
313.922	21.77
314.134	23.32
314.346	22.74
314.558	21.74
314.77	21.22
314.982	21.99
315.193	21.88
315.405	22.34
315.617	21.4
315.829	21.69
316.041	22.76
316.253	20.93
316.465	20.63
316.677	21.58
316.888	23.14
317.1	23.97
317.312	24.3
317.524	25.19
317.736	26.14
317.947	28.46
318.159	27.03
318.371	26.69
318.583	27.95
318.794	28.23
319.006	26.38
319.218	24.74
319.43	25.12
319.641	25.61
319.853	24.88
320.064	24.43
320.276	24.35
320.488	25.84
320.699	26.32
320.911	25.99
321.123	26.63
321.334	29.44
321.546	29.95
321.757	30.05
321.969	31.03
322.18	30.97
322.392	30.55
322.603	29.32
322.815	28.12
323.026	27.65
323.238	27.56
323.449	24.95
323.661	22.79
323.872	22.36
324.083	22.12
324.295	20.56
324.506	20.73
324.718	18.98
324.929	19.45
325.14	20.18
325.352	20.62
325.563	21.16
325.774	21.9
325.986	21.43
326.197	21.71
326.408	22.22
326.62	22.93
326.831	22.88
327.042	24.02
327.253	23.14
327.464	23.62
327.676	21.94
327.887	22.35
328.098	23.18
328.309	25.46
328.52	26.64
328.732	25.93
328.943	25.69
329.154	26.49
329.365	27.92
329.576	28.35
329.787	26.8
329.998	29.32
330.209	27.31
330.42	25.6
330.631	25.49
330.842	24.09
331.053	25.37
331.264	25.28
331.475	23.77
331.686	24.12
331.897	23.63
332.108	25.13
332.319	23.88
332.53	23.38
332.741	24.27
332.952	23.54
333.163	23.39
333.374	22.39
333.585	21.91
333.795	23.11
334.006	21.12
334.217	21.14
334.428	19.63
334.639	19.74
334.849	20.09
335.06	20.94
335.271	21.11
335.482	21.93
335.692	22.44
335.903	21.91
336.114	22.19
336.325	23.84
336.535	23.88
336.746	24.56
336.957	25.2
337.167	25.75
337.378	25.72
337.589	24.34
337.799	23.71
338.01	23.99
338.22	24.76
338.431	24.77
338.642	24.36
338.852	24.16
339.063	24.04
339.273	23.1
339.484	23.75
339.694	23.88
339.905	25.11
340.115	25.46
340.326	25.02
340.536	26.02
340.746	25.22
340.957	25.43
341.167	25.52
341.378	26.17
341.588	26.57
341.799	26.24
342.009	25.39
342.219	24.6
342.43	24.9
342.64	24.54
342.85	23.13
343.061	22.78
343.271	21.74
343.481	20.82
343.691	20.05
343.902	20.17
344.112	19.38
344.322	19.02
344.532	19.3
344.743	19.66
344.953	19.87
345.163	20.05
345.373	20.23
345.583	21.05
345.793	22.17
346.004	22.55
346.214	21.68
346.424	21.73
346.634	21.34
346.844	21.61
347.054	21.58
347.264	21.34
347.474	21.43
347.684	21.03
347.894	20.2
348.104	19.28
348.314	18.5
348.524	20.05
348.734	20.12
348.944	21.23
349.154	20.58
349.364	20.28
349.574	20.06
349.784	20.23
349.994	20.83
350.204	21.05
350.413	21.22
350.623	21.54
350.833	19.98
351.043	19.78
351.253	20.29
351.463	19.77
351.672	18.74
351.882	18.73
352.092	18.68
352.302	19.14
352.511	19.1
352.721	19.46
352.931	19.63
353.141	20.34
353.35	20.69
353.56	20.42
353.77	21.84
353.979	22.87
354.189	22.6
354.399	22.21
354.608	21.8
354.818	22.1
355.027	22.14
355.237	21.69
355.447	21.61
355.656	22.22
355.866	21.67
356.075	21.41
356.285	20.82
356.494	20.78
356.704	20.77
356.913	20.44
357.123	20.43
357.332	19.84
357.542	19.45
357.751	18.83
357.96	19.26
358.17	18.64
358.379	17.68
358.589	17.79
358.798	17.43
359.007	16.63
359.217	15.77
359.426	14.88
359.635	14.81
359.845	14.26
360.054	14.63
360.263	13.3
360.472	13.03
360.682	13.2
360.891	12.95
361.1	13.44
361.309	13.76
361.519	13.96
361.728	14.67
361.937	14.39
362.146	15.27
362.355	16.05
362.564	16.92
362.774	17.27
362.983	17.64
363.192	18.04
363.401	17.99
363.61	17.83
363.819	18.46
364.028	18.03
364.237	19.27
364.446	18.81
364.655	18.02
364.864	17.72
365.073	18.15
365.282	18.41
365.491	17.71
365.7	18.05
365.909	17.71
366.118	17.23
366.327	17.77
366.536	17.3
366.745	17.67
366.954	18.63
367.162	19.04
367.371	19.57
367.58	19.65
367.789	19.88
367.998	19.73
368.207	20.73
368.415	21.33
368.624	20.57
368.833	20.92
369.042	20.64
369.25	20.83
369.459	20.07
369.668	19.57
369.877	18.78
370.085	18.83
370.294	18.99
370.503	18.37
370.711	18.31
370.92	18.42
371.129	18.95
371.337	18.91
371.546	17.69
371.754	18.05
371.963	17.93
372.171	18.05
372.38	18.78
372.589	19.18
372.797	19.26
373.006	18.56
373.214	18.16
373.423	16.69
373.631	16.62
373.84	15.93
374.048	14.83
374.256	14.23
374.465	14.8
374.673	14.43
374.882	12.93
375.09	12.77
375.298	13.68
375.507	14.51
375.715	14.71
375.923	13.83
376.132	13.71
376.34	13.97
376.548	14.56
376.757	14.67
376.965	14.9
377.173	15.26
377.381	15.84
377.59	15.63
377.798	15.47
378.006	14.93
378.214	16.35
378.423	17.14
378.631	17.71
378.839	16.94
379.047	17.07
379.255	16.53
379.463	17.01
379.671	16.56
379.879	16.05
380.088	15.72
380.296	16.45
380.504	16.48
380.712	16.24
380.92	15.78
381.128	16.54
381.336	15.84
381.544	16.13
381.752	15.77
381.96	15.53
382.168	15.67
382.376	16.09
382.584	16.1
382.791	15.03
382.999	15.9
383.207	15.71
383.415	15.72
383.623	15.56
383.831	14.35
384.039	14.38
384.247	15.11
384.454	15.57
384.662	15.25
384.87	14.7
385.078	15.36
385.285	14.83
385.493	15.17
385.701	14.89
385.909	15.11
386.116	15.87
386.324	15.98
386.532	15.62
386.739	14.94
386.947	14.49
387.155	15.32
387.362	15.3
387.57	14.6
387.778	14.98
387.985	14.73
388.193	14.41
388.4	15.1
388.608	15.01
388.816	14.77
389.023	15.28
389.231	15.3
389.438	14.65
389.646	14.65
389.853	15.14
390.061	14.49
390.268	14.23
390.475	14.58
390.683	13.47
390.89	13.42
391.098	13.27
391.305	13.22
391.512	12.33
391.72	11.61
391.927	11.59
392.135	11.91
392.342	11.81
392.549	12.71
392.756	12.93
392.964	13.48
393.171	13.62
393.378	13.87
393.586	13.42
393.793	13.8
394	14.63
394.207	14.5
394.414	14.58
394.622	14.8
394.829	14.15
395.036	14.03
395.243	13.92
395.45	14.58
395.657	14.96
395.864	15.35
396.072	16.46
396.279	16.67
396.486	17.13
396.693	16.78
396.9	16.82
397.107	16.85
397.314	16.44
397.521	16.72
397.728	15.75
397.935	15.34
398.142	14.84
398.349	13.96
398.556	13.33
398.763	12.77
398.97	13
399.177	13.47
399.383	13.8
399.59	14.23
399.797	13.65
400.004	14.24
400.211	14.43
400.418	15.59
400.625	16.38
400.831	16.81
401.038	17.06
401.245	16.63
401.452	16.71
401.658	16.41
401.865	16.15
402.072	16.11
402.279	15.38
402.485	15.26
402.692	14.64
402.899	14.23
403.105	14.41
403.312	14.52
403.519	14.88
403.725	13.91
403.932	14.11
404.138	13.89
404.345	14.06
404.552	13.96
404.758	14.01
404.965	13.4
405.171	13.78
405.378	13.43
405.584	12.86
405.791	11.98
405.997	12.5
406.204	12.48
406.41	13.06
406.617	13.14
406.823	13.57
407.029	13.73
407.236	13.82
407.442	13.08
407.649	13.65
407.855	14
408.061	14.71
408.268	14.99
408.474	15.19
408.68	13.81
408.887	13.45
409.093	13.62
409.299	13.25
409.505	13.55
409.712	13.56
409.918	12.93
410.124	12.75
410.33	12.5
410.537	11.79
410.743	11.41
410.949	12.44
411.155	12.36
411.361	12.52
411.567	12.43
411.773	12.49
411.98	12.58
412.186	12.54
412.392	12.57
412.598	12.48
412.804	12.88
413.01	13.05
413.216	13.2
413.422	13.58
413.628	13.05
413.834	13.09
414.04	13.42
414.246	13.73
414.452	14.33
414.658	14.27
414.864	14.41
415.07	14.36
415.275	14.44
415.481	13.97
415.687	13.64
415.893	13.41
416.099	13.51
416.305	13.39
416.511	13.25
416.716	12.21
416.922	12.09
417.128	11.69
417.334	11.79
417.539	11.39
417.745	11.81
417.951	11.85
418.157	11.53
418.362	11.29
418.568	10.84
418.774	10.37
418.979	10.83
419.185	10.66
419.391	10.98
419.596	10.81
419.802	10.98
420.008	10.57
420.213	12.81
420.419	13.2
420.624	12.97
420.83	13.26
421.035	13.44
421.241	13.22
421.446	13.45
421.652	13.1
421.857	13.16
422.063	13.09
422.268	13.02
422.474	10.86
422.679	10.41
422.885	10.46
423.09	10.11
423.295	10.05
423.501	10.35
423.706	10.14
423.911	10.34
424.117	10.21
424.322	9.96
424.527	9.99
424.733	10
424.938	10.25
425.143	10.36
425.349	10.6
425.554	11.12
425.759	10.89
425.964	10.91
426.169	10.87
426.375	10.65
426.58	11.08
426.785	11.11
426.99	11.35
427.195	11.36
427.4	11.16
427.605	11.56
427.811	10.85
428.016	10.91
428.221	11.15
428.426	11.6
428.631	12.17
428.836	12.04
429.041	12.66
429.246	12.51
429.451	13
429.656	13.41
429.861	12.95
430.066	13.22
430.271	13.64
430.476	13.16
430.681	13.01
430.886	13
431.09	12.9
431.295	12.57
431.5	12.53
431.705	12.14
431.91	11.99
432.115	11.91
432.32	12.15
432.524	11.66
432.729	11.99
432.934	11.79
433.139	11.59
433.343	11.95
433.548	11.61
433.753	11.41
433.958	11.79
434.162	11.75
434.367	11.95
434.572	11.92
434.776	12.39
434.981	12.38
435.186	12.55
435.39	12.76
435.595	12.68
435.799	12.81
436.004	12.9
436.209	12.58
436.413	12.52
436.618	12.59
436.822	12.42
437.027	11.89
437.231	11.79
437.436	11.48
437.64	11.33
437.845	11.12
438.049	10.94
438.253	11.16
438.458	10.91
438.662	10.94
438.867	10.8
439.071	11.04
439.275	11.37
439.48	11.55
439.684	11.84
439.888	11.63
440.093	11.87
440.297	11.88
440.501	11.99
440.706	12.35
440.91	12.39
441.114	12.37
441.318	12.69
441.523	12.48
441.727	12.41
441.931	12.13
442.135	12.18
442.339	11.87
442.543	12.16
442.748	12.05
442.952	11.73
443.156	11.96
443.36	11.87
443.564	11.37
443.768	11.2
443.972	11.44
444.176	11.4
444.38	11.44
444.584	11.35
444.788	11.17
444.992	10.97
445.196	10.98
445.4	10.96
445.604	10.85
445.808	10.88
446.012	11.07
446.216	10.75
446.42	10.83
446.624	10.98
446.828	10.93
447.032	10.88
447.235	10.98
447.439	10.99
447.643	10.99
447.847	11.4
448.051	11.43
448.254	11.32
448.458	11.41
448.662	11.19
448.866	11.29
449.069	11.51
449.273	11.85
449.477	11.73
449.681	11.85
449.884	11.75
450.088	11.57
450.292	11.65
450.495	11.53
450.699	11.72
450.902	12.19
451.106	12.09
451.31	12.34
451.513	12.68
451.717	12.86
451.92	13.1
