Data from JASIL_3155_Reflection_2.txt Node
Date: Thu Nov 12 21:32:49 EST 2015
User: Geneva
Spectrometer: USB4E03002
Autoset integration time: false
Trigger mode: 4
Integration Time (sec): 1.000000E-1
Scans to average: 10
Electric dark correction enabled: true
Nonlinearity correction enabled: false
Boxcar width: 5
Stray light correction enabled: false
XAxis mode: Wavelengths
Stop averaging: false
Number of Pixels in Spectrum: 3648
>>>>>Begin Spectral Data<<<<<
177.575	95.75
177.794	96.82
178.014	182.67
178.233	-0.76
178.452	-2104.35
178.672	75.28
178.891	-56.15
179.11	23.87
179.33	5.05
179.549	-124.78
179.768	297.76
179.987	69.91
180.207	43.6
180.426	57.11
180.645	56.13
180.864	88.46
181.084	83.73
181.303	30.19
181.522	46.01
181.741	66.17
181.96	69.65
182.179	60.91
182.398	54.32
182.618	40.76
182.837	45.51
183.056	52.86
183.275	32.77
183.494	18.05
183.713	39.21
183.932	27.03
184.151	-10.79
184.37	-39.23
184.589	-2.08
184.808	-25.5
185.027	-32.8
185.246	-42.28
185.465	-74.7
185.684	-56.65
185.903	-42.17
186.122	16.7
186.341	61.17
186.56	89.8
186.779	118.26
186.998	103.07
187.216	181.16
187.435	254.21
187.654	242.19
187.873	310.28
188.092	149.7
188.311	121.34
188.53	89.3
188.748	69.14
188.967	71.22
189.186	22.23
189.405	48.83
189.623	90.44
189.842	71.74
190.061	62.19
190.28	70.88
190.498	97.23
190.717	144.16
190.936	130.47
191.154	115.55
191.373	105.13
191.592	96.88
191.81	91.61
192.029	66.71
192.248	91.97
192.466	98.45
192.685	91.83
192.904	77.08
193.122	62.1
193.341	84.24
193.559	115.29
193.778	151.25
193.996	183.58
194.215	119.02
194.433	92.73
194.652	11.99
194.87	8.58
195.089	6.33
195.307	15.88
195.526	22.77
195.744	19.98
195.963	14.9
196.181	11.71
196.399	3.13
196.618	20.69
196.836	44.26
197.055	53.09
197.273	87.21
197.491	90.58
197.71	234.45
197.928	169.73
198.146	74.06
198.365	-775.85
198.583	136.02
198.801	44.85
199.019	19.43
199.238	50.57
199.456	66.63
199.674	44.95
199.892	-43.65
200.111	-159.04
200.329	-510.43
200.547	29.79
200.765	-355.37
200.983	398.42
201.202	35.41
201.42	10.93
201.638	-6.35
201.856	-7.44
202.074	-0.81
202.292	-243.55
202.51	-127.19
202.728	-95.6
202.946	-88.35
203.165	-59.41
203.383	6.27
203.601	20.94
203.819	30.78
204.037	43.6
204.255	44.82
204.473	67.35
204.691	102.9
204.909	162.68
205.127	199.36
205.345	183.18
205.562	161.1
205.78	131.9
205.998	135.62
206.216	138.66
206.434	167.4
206.652	172.03
206.87	167.13
207.088	92.65
207.306	82.27
207.523	111.51
207.741	98.69
207.959	96.99
208.177	153.68
208.395	115.07
208.612	117.32
208.83	74.46
209.048	102.09
209.266	5439.29
209.483	-9.94
209.701	-91.55
209.919	726.9
210.136	51.94
210.354	72.31
210.572	-2259.26
210.79	-1672.73
211.007	125.62
211.225	58.32
211.442	36.26
211.66	10.81
211.878	-49.88
212.095	-8.78
212.313	-25.23
212.53	-4.97
212.748	19.22
212.966	24.59
213.183	30.92
213.401	19.27
213.618	12.73
213.836	21.45
214.053	21.94
214.271	23.17
214.488	41.48
214.705	54.85
214.923	0.03
215.14	-14.69
215.358	-22.29
215.575	-30.74
215.793	-36.59
216.01	-6.52
216.227	-39.05
216.445	-143.45
216.662	-2.61
216.879	53.97
217.097	53.92
217.314	230.8
217.531	463.6
217.749	546.49
217.966	107.61
218.183	87.51
218.4	67.39
218.618	78.23
218.835	113.45
219.052	114.4
219.269	-1.83
219.487	-62.6
219.704	-30
219.921	2.71
220.138	-11.3
220.355	24.09
220.572	44.04
220.79	35.11
221.007	47.63
221.224	44.23
221.441	42.73
221.658	17.6
221.875	10.07
222.092	26.13
222.309	-99.71
222.526	-42.13
222.743	-52.83
222.96	-65.62
223.177	0.05
223.394	-11.44
223.611	-85.71
223.828	-45.26
224.045	-687
224.262	-17.01
224.479	27.7
224.696	20.59
224.913	42.47
225.13	75.6
225.347	-20.23
225.564	11.64
225.781	3.05
225.997	22.16
226.214	25.42
226.431	7.06
226.648	65.05
226.865	22.59
227.082	-22.9
227.298	19.3
227.515	24.51
227.732	12.1
227.949	22.12
228.165	36.9
228.382	32.56
228.599	35.64
228.816	24.65
229.032	14.14
229.249	15.3
229.466	38.33
229.682	17.83
229.899	7.87
230.116	31.04
230.332	20.69
230.549	9.89
230.765	25.36
230.982	16.14
231.199	25.42
231.415	27.09
231.632	32.33
231.848	15.84
232.065	26.94
232.281	44.97
232.498	30.77
232.714	31.03
232.931	31.84
233.147	12.35
233.364	17.12
233.58	14.91
233.797	22.25
234.013	40.36
234.23	45.71
234.446	16.62
234.662	-31.95
234.879	-22.6
235.095	0.14
235.312	-30.52
235.528	5.18
235.744	13.31
235.961	7.06
236.177	-45.17
236.393	-101.92
236.61	-77.54
236.826	-37.03
237.042	-10.84
237.258	-21.41
237.475	-64.51
237.691	-23.32
237.907	-0.05
238.123	-32.01
238.339	-42.5
238.556	-8.49
238.772	-10.99
238.988	3.42
239.204	19.29
239.42	13.84
239.636	22.56
239.853	32.59
240.069	24.32
240.285	18.37
240.501	20.41
240.717	25.54
240.933	30.02
241.149	26.55
241.365	22.38
241.581	18.74
241.797	18.9
242.013	15.56
242.229	13.79
242.445	20.17
242.661	17.03
242.877	16.94
243.093	23.66
243.309	15.52
243.525	18.12
243.741	20.63
243.957	18.74
244.173	17.02
244.388	13.91
244.604	13.82
244.82	2.4
245.036	-0.28
245.252	7.22
245.468	3.25
245.683	10.76
245.899	9.85
246.115	6.78
246.331	7.08
246.547	5.82
246.762	5.96
246.978	4.96
247.194	4.44
247.409	5.14
247.625	1.91
247.841	-0.53
248.057	-6.08
248.272	-4.32
248.488	-1.96
248.703	-1.81
248.919	-1.28
249.135	-2.7
249.35	-4.76
249.566	3.11
249.782	-2.07
249.997	1.09
250.213	4.02
250.428	9.72
250.644	-0.59
250.859	2.68
251.075	0.72
251.29	2.9
251.506	8.7
251.721	12.42
251.937	7.99
252.152	12.1
252.368	7.81
252.583	8.47
252.798	3.22
253.014	8.24
253.229	-5.43
253.445	-3.35
253.66	-0.64
253.875	-8.74
254.091	-17.27
254.306	-9.91
254.521	-10.51
254.737	0.86
254.952	-4.47
255.167	-13.25
255.383	-10.87
255.598	-3.78
255.813	-6.12
256.028	-10.38
256.244	-3.34
256.459	1.18
256.674	-8.68
256.889	-3.88
257.104	-1.53
257.32	0.59
257.535	3.29
257.75	-1.55
257.965	2.72
258.18	2.85
258.395	-0.54
258.61	1.7
258.826	2.63
259.041	3.99
259.256	0.67
259.471	-3.64
259.686	-3.93
259.901	-1.33
260.116	-0.92
260.331	-2.47
260.546	-1.34
260.761	3.38
260.976	1.82
261.191	-0.44
261.406	2.19
261.621	2.26
261.836	7.54
262.05	8.5
262.265	5.51
262.48	12.63
262.695	12.25
262.91	12.69
263.125	12.23
263.34	14.89
263.555	19.54
263.769	14.7
263.984	16.78
264.199	13.4
264.414	13.12
264.629	10.19
264.843	5.71
265.058	3.31
265.273	-1.01
265.488	-10.77
265.702	-10.1
265.917	-10.97
266.132	-18.04
266.346	-16.34
266.561	-19.21
266.776	-19.77
266.99	-21.39
267.205	-22.19
267.42	-20.82
267.634	-18.19
267.849	-13.45
268.063	-16.31
268.278	-13.17
268.492	-10.81
268.707	-9.84
268.922	-6.01
269.136	-2.77
269.351	3.72
269.565	2.47
269.78	4.21
269.994	2.86
270.209	4.64
270.423	4.12
270.637	0.48
270.852	5.08
271.066	4.04
271.281	1.11
271.495	-2.18
271.709	-8.22
271.924	-6.96
272.138	-9.34
272.353	-8.39
272.567	-9.08
272.781	-8.32
272.996	-6.41
273.21	-6.77
273.424	-6.08
273.638	0.04
273.853	3.53
274.067	5.95
274.281	7.1
274.495	10.01
274.71	9.13
274.924	6.66
275.138	5.42
275.352	2.26
275.566	-0.91
275.781	-2.36
275.995	-5.77
276.209	-9.87
276.423	-11.42
276.637	-12.34
276.851	-12.61
277.065	-16.64
277.279	-15.93
277.493	-9.66
277.707	-8.32
277.921	-5.85
278.135	-5.2
278.349	0.47
278.563	2.11
278.777	3.68
278.991	4.94
279.205	3.4
279.419	7.42
279.633	6.06
279.847	2.32
280.061	2.54
280.275	4.5
280.489	3.88
280.703	-5.53
280.917	-1.47
281.131	-1.96
281.344	-3.92
281.558	-3.07
281.772	-3.98
281.986	-1.63
282.2	-2.24
282.414	-1.29
282.627	-2.19
282.841	-3.42
283.055	3.48
283.269	3.75
283.482	4.01
283.696	2.27
283.91	5.26
284.123	2.21
284.337	3.96
284.551	3.77
284.764	4.42
284.978	4.26
285.192	6.96
285.405	6.12
285.619	6.04
285.833	8.73
286.046	12.13
286.26	9.94
286.473	11.57
286.687	9.53
286.9	12.31
287.114	10.68
287.327	8.67
287.541	7.28
287.754	4.58
287.968	2.85
288.181	-1.14
288.395	-4.78
288.608	-2.62
288.822	-3.29
289.035	-6.67
289.248	-9.06
289.462	-7.54
289.675	-4.51
289.889	-5.25
290.102	-0.92
290.315	0.32
290.529	0.5
290.742	2.22
290.955	1.15
291.169	4.19
291.382	5.67
291.595	6.69
291.808	9.06
292.022	6.71
292.235	10.43
292.448	7.2
292.661	4.63
292.875	2.05
293.088	2.22
293.301	0.35
293.514	-2.81
293.727	-1.58
293.94	-3.42
294.153	-4.23
294.367	-4.94
294.58	-7.49
294.793	-10.2
295.006	-9.61
295.219	-5.99
295.432	-3
295.645	-2.36
295.858	-2.05
296.071	-1.57
296.284	-0.76
296.497	0.5
296.71	1.54
296.923	2.45
297.136	3.44
297.349	2.54
297.562	3.66
297.775	3.94
297.988	3.69
298.201	4.45
298.414	5.31
298.626	5.79
298.839	3.07
299.052	5.1
299.265	3.38
299.478	6.35
299.691	5.98
299.903	3.21
300.116	0.58
300.329	3.86
300.542	5.88
300.755	3.76
300.967	2.68
301.18	1.31
301.393	0.03
301.605	1.97
301.818	1.46
302.031	2.96
302.243	1.81
302.456	3.5
302.669	1.56
302.881	-3.08
303.094	-3.4
303.307	-1.68
303.519	1.27
303.732	1.89
303.944	-0.02
304.157	-4.51
304.37	-3.63
304.582	1.14
304.795	-1.43
305.007	-1.79
305.22	3.28
305.432	1.14
305.645	-2.24
305.857	-1.54
306.069	-1.16
306.282	0.07
306.494	6.51
306.707	8.1
306.919	6.19
307.132	5.3
307.344	5.93
307.556	1.89
307.769	5.24
307.981	8.47
308.193	5.17
308.406	3.45
308.618	2.83
308.83	0.64
309.043	-0.27
309.255	1.11
309.467	2.93
309.679	3.64
309.892	6.95
310.104	7.05
310.316	6.75
310.528	9.8
310.74	10.53
310.953	10.73
311.165	10.35
311.377	10.28
311.589	10.66
311.801	9.24
312.013	6.95
312.225	6.7
312.437	5.7
312.649	2.8
312.862	1.03
313.074	0.01
313.286	1.85
313.498	4.37
313.71	0.89
313.922	-1.31
314.134	-4.05
314.346	-2.7
314.558	-0.06
314.77	2.91
314.982	4.92
315.193	3.52
315.405	1.35
315.617	2.1
315.829	-0.64
316.041	3.24
316.253	2.94
316.465	6.9
316.677	6.6
316.888	3.55
317.1	4.56
317.312	4.23
317.524	5.34
317.736	4.43
317.947	-0.86
318.159	-1.44
318.371	0.03
318.583	2.64
318.794	1.98
319.006	3.12
319.218	2.53
319.43	1.46
319.641	1.77
319.853	3.01
320.064	9.63
320.276	14.49
320.488	16.52
320.699	15.14
320.911	12.42
321.123	13.51
321.334	10.87
321.546	11.61
321.757	10.8
321.969	13.1
322.18	12.84
322.392	8.53
322.603	7.23
322.815	6.2
323.026	4.6
323.238	5.55
323.449	6.89
323.661	7.96
323.872	8.52
324.083	7.9
324.295	7.6
324.506	7.53
324.718	8.94
324.929	11.57
325.14	13.08
325.352	13.01
325.563	14.22
325.774	13.6
325.986	16.17
326.197	14.57
326.408	16.77
326.62	16.6
326.831	15.2
327.042	14.37
327.253	11.88
327.464	9.72
327.676	9.18
327.887	6.95
328.098	4.76
328.309	3.96
328.52	5.81
328.732	3.56
328.943	1.98
329.154	4.78
329.365	4.06
329.576	5.9
329.787	7.35
329.998	10.49
330.209	12.74
330.42	16.07
330.631	14.84
330.842	13.54
331.053	14.65
331.264	16.9
331.475	15.46
331.686	17.1
331.897	16.62
332.108	15.55
332.319	16.54
332.53	12.66
332.741	14.41
332.952	16.96
333.163	15.68
333.374	16.39
333.585	15.17
333.795	15.49
334.006	14.99
334.217	15.74
334.428	15.17
334.639	12.38
334.849	16.21
335.06	14.15
335.271	12.2
335.482	14.34
335.692	14.89
335.903	15.92
336.114	16.04
336.325	16.73
336.535	15.49
336.746	14.05
336.957	14.66
337.167	14.2
337.378	9.2
337.589	10.59
337.799	10.82
338.01	7.85
338.22	8.21
338.431	11.72
338.642	9.64
338.852	13.85
339.063	15.87
339.273	15.33
339.484	15.67
339.694	20.16
339.905	18.74
340.115	17.7
340.326	18.96
340.536	19.56
340.746	16.23
340.957	17.83
341.167	14.48
341.378	15.09
341.588	15.5
341.799	14.51
342.009	12.53
342.219	11.72
342.43	10.67
342.64	12.82
342.85	12.51
343.061	12.29
343.271	11.2
343.481	11.15
343.691	9.94
343.902	9.15
344.112	9.58
344.322	11.15
344.532	12
344.743	14.51
344.953	11.75
345.163	11.9
345.373	11.46
345.583	11.13
345.793	10.43
346.004	11.71
346.214	12.21
346.424	12.84
346.634	13.05
346.844	13.36
347.054	12.94
347.264	13.65
347.474	13.81
347.684	13.99
347.894	15.02
348.104	14.46
348.314	12.95
348.524	14.95
348.734	16.88
348.944	18.01
349.154	18.55
349.364	17.42
349.574	16.6
349.784	15.19
349.994	15.03
350.204	17.42
350.413	18.98
350.623	20.23
350.833	18.95
351.043	17.09
351.253	16.1
351.463	14.12
351.672	15.13
351.882	17.2
352.092	16.19
352.302	17.64
352.511	16.1
352.721	14.83
352.931	15.02
353.141	16.65
353.35	15.49
353.56	14.56
353.77	13.76
353.979	11.43
354.189	8.98
354.399	11.25
354.608	9.92
354.818	8.56
355.027	8.96
355.237	8.33
355.447	6.05
355.656	7.77
355.866	8.51
356.075	9.61
356.285	11.83
356.494	12.47
356.704	11.39
356.913	12.1
357.123	12.54
357.332	12.17
357.542	12.35
357.751	13.3
357.96	12.09
358.17	13.38
358.379	15.69
358.589	15.16
358.798	16.01
359.007	16.16
359.217	16.39
359.426	16.38
359.635	16.73
359.845	15.99
360.054	15.93
360.263	17.28
360.472	15.82
360.682	14.58
360.891	14.24
361.1	14.29
361.309	15.57
361.519	15.13
361.728	15.13
361.937	14.78
362.146	15.86
362.355	15.92
362.564	15.37
362.774	14.82
362.983	14.05
363.192	14.2
363.401	13.87
363.61	11.36
363.819	10.48
364.028	11.52
364.237	12.83
364.446	12.65
364.655	12.47
364.864	12.33
365.073	13.67
365.282	14.74
365.491	15.54
365.7	15.15
365.909	17.31
366.118	17.45
366.327	16.73
366.536	15.81
366.745	15.31
366.954	14.44
367.162	13.29
367.371	14.02
367.58	14.19
367.789	15.18
367.998	14.6
368.207	13.38
368.415	12.94
368.624	13.98
368.833	13.82
369.042	14.36
369.25	15.55
369.459	17.27
369.668	15.76
369.877	15.15
370.085	13.63
370.294	13.84
370.503	12.88
370.711	13.33
370.92	12.55
371.129	12.43
371.337	11.32
371.546	10.88
371.754	9.93
371.963	9.75
372.171	9.9
372.38	9.63
372.589	9.51
372.797	10.77
373.006	10.99
373.214	10.28
373.423	10.59
373.631	11.95
373.84	12.1
374.048	12.65
374.256	12.74
374.465	12.01
374.673	11.76
374.882	11.74
375.09	11.68
375.298	11.86
375.507	13.63
375.715	13.82
375.923	14.33
376.132	14.21
376.34	14.68
376.548	15.49
376.757	14.49
376.965	15.79
377.173	16.53
377.381	16.34
377.59	15.86
377.798	13.86
378.006	13.65
378.214	12.54
378.423	12.63
378.631	12.81
378.839	12.23
379.047	13.81
379.255	13.28
379.463	13.24
379.671	11.02
379.879	12.06
380.088	12.68
380.296	13.42
380.504	13.36
380.712	13.38
380.92	12.54
381.128	12.36
381.336	13.02
381.544	12.42
381.752	11.66
381.96	14.82
382.168	13.95
382.376	14.7
382.584	13.81
382.791	13.48
382.999	14.07
383.207	13.2
383.415	14.29
383.623	12.79
383.831	11.56
384.039	11.98
384.247	10.81
384.454	11.17
384.662	10.19
384.87	10.59
385.078	10.65
385.285	10.44
385.493	10.23
385.701	9.77
385.909	9.86
386.116	11.42
386.324	11.81
386.532	12.33
386.739	12.69
386.947	13.33
387.155	12.79
387.362	12.95
387.57	13.29
387.778	13.85
387.985	13.7
388.193	14.16
388.4	12.8
388.608	12.77
388.816	11.23
389.023	10.88
389.231	10.14
389.438	9.75
389.646	9.59
389.853	8.03
390.061	7.61
390.268	6.58
390.475	7.29
390.683	8.63
390.89	8.81
391.098	9.21
391.305	9.83
391.512	9.48
391.72	8.95
391.927	10.05
392.135	10.11
392.342	10.5
392.549	11.93
392.756	10.97
392.964	11.07
393.171	10.02
393.378	10.12
393.586	9.37
393.793	9.59
394	11.14
394.207	10.32
394.414	11.41
394.622	11.5
394.829	10
395.036	10.36
395.243	9.07
395.45	9.33
395.657	9.83
395.864	9.8
396.072	10.49
396.279	9.98
396.486	9.08
396.693	9.05
396.9	8.58
397.107	9.37
397.314	9.37
397.521	11.22
397.728	11.42
397.935	10.37
398.142	11.1
398.349	10.46
398.556	10.42
398.763	11.57
398.97	10.6
399.177	11.54
399.383	12.23
399.59	12.31
399.797	11.68
400.004	13.03
400.211	12.73
400.418	11.46
400.625	12.68
400.831	11.93
401.038	11.08
401.245	11.11
401.452	10.72
401.658	10.05
401.865	9.75
402.072	8.95
402.279	8.04
402.485	8.15
402.692	8.63
402.899	6.77
403.105	8.4
403.312	10.02
403.519	9.77
403.725	9.35
403.932	8.91
404.138	8.81
404.345	9.56
404.552	9.86
404.758	10.01
404.965	10.02
405.171	11.34
405.378	11.26
405.584	10.22
405.791	11.05
405.997	11.01
406.204	10.92
406.41	9.94
406.617	9.46
406.823	8.32
407.029	8.87
407.236	9.12
407.442	8.05
407.649	6.63
407.855	6.01
408.061	5.73
408.268	6.46
408.474	8.13
408.68	9.47
408.887	10.03
409.093	11.31
409.299	10.44
409.505	10.94
409.712	11.56
409.918	12.25
410.124	12.26
410.33	12.45
410.537	11.91
410.743	11.12
410.949	10.84
411.155	10.46
411.361	10.35
411.567	11.29
411.773	11.55
411.98	11.72
412.186	11.18
412.392	11.99
412.598	11.95
412.804	12.68
413.01	12.23
413.216	12.47
413.422	13.07
413.628	12.91
413.834	12.47
414.04	11.76
414.246	11.56
414.452	11.92
414.658	12.33
414.864	11.28
415.07	11.4
415.275	11.31
415.481	11.53
415.687	10.45
415.893	10.12
416.099	10.32
416.305	11.01
416.511	11.18
416.716	11.19
416.922	10.43
417.128	10.85
417.334	10.62
417.539	10.34
417.745	10.42
417.951	10.77
418.157	10.63
418.362	10.78
418.568	10.37
418.774	10.3
418.979	10.16
419.185	10.24
419.391	10.47
419.596	10.19
419.802	10.79
420.008	10.84
420.213	11.47
420.419	11.2
420.624	11.01
420.83	11.09
421.035	11.18
421.241	11.48
421.446	11.45
421.652	11.48
421.857	11.83
422.063	11.33
422.268	11.29
422.474	10.03
422.679	10.6
422.885	10.53
423.09	10.29
423.295	10.32
423.501	9.92
423.706	9.97
423.911	10.16
424.117	10.16
424.322	10.24
424.527	10
424.733	10.37
424.938	10.36
425.143	9.94
425.349	10.04
425.554	10.06
425.759	10.57
425.964	10.82
426.169	11.07
426.375	11.11
426.58	11.89
426.785	12.09
426.99	12.52
427.195	12.36
427.4	12.96
427.605	12.69
427.811	12.92
428.016	12.28
428.221	11.78
428.426	10.93
428.631	10.23
428.836	9.97
429.041	10.33
429.246	9.9
429.451	9.87
429.656	10.49
429.861	10.79
430.066	10.32
430.271	11.03
430.476	11.22
430.681	11.17
430.886	11.23
431.09	10.49
431.295	10.05
431.5	10.24
431.705	10.4
431.91	10.06
432.115	10.16
432.32	10.33
432.524	10
432.729	9.8
432.934	9.94
433.139	10.31
433.343	10.62
433.548	10.57
433.753	10.77
433.958	11.15
434.162	11.22
434.367	11.77
434.572	10.96
434.776	10.78
434.981	11.01
435.186	11.34
435.39	11.12
435.595	10.75
435.799	11.13
436.004	11.16
436.209	10.67
436.413	10.53
436.618	9.78
436.822	10.46
437.027	10.67
437.231	10.99
437.436	10.75
437.64	10.13
437.845	10.69
438.049	10.26
438.253	10.64
438.458	10.29
438.662	10.15
438.867	10.48
439.071	10.21
439.275	9.81
439.48	9.31
439.684	9.2
439.888	9.68
440.093	9.27
440.297	9.18
440.501	9.05
440.706	8.89
440.91	8.7
441.114	8.12
441.318	7.87
441.523	7.95
441.727	8.48
441.931	8.87
442.135	9.08
442.339	9.09
442.543	9.91
442.748	9.57
442.952	10.2
443.156	10.52
443.36	10.84
443.564	11.51
443.768	11.53
443.972	10.73
444.176	10.76
444.38	11.01
444.584	11.01
444.788	10.55
444.992	10.93
445.196	10.7
445.4	10.59
445.604	10.62
445.808	10.41
446.012	10.5
446.216	10.99
446.42	10.74
446.624	10.25
446.828	10.17
447.032	10.14
447.235	9.85
447.439	9.7
447.643	9.74
447.847	9.2
448.051	9.26
448.254	9.11
448.458	9.4
448.662	9.49
448.866	9.72
449.069	9.6
449.273	9.68
449.477	9.64
449.681	9.74
449.884	9.8
450.088	10.1
450.292	10.12
450.495	10.66
450.699	10.49
450.902	10.46
451.106	10.94
451.31	11.17
451.513	10.51
451.717	10.69
451.92	10.68
452.124	10.54
452.327	11.38
452.531	11.29
452.734	11.04
452.938	10.79
453.141	10.18
453.345	9.76
453.548	10.44
453.752	11.06
453.955	10.74
454.158	10.67
454.362	10.34
454.565	10.1
454.769	10.31
454.972	10.09
455.175	10.01
455.379	11.28
455.582	11.1
455.785	10.33
455.988	10.04
456.192	10.09
456.395	10.5
456.598	11.83
456.801	11.55
457.005	11.03
457.208	11.31
457.411	11.64
457.614	10.96
457.817	10.9
458.021	11.01
458.224	10.81
458.427	11.38
458.63	10.78
458.833	10.31
459.036	9.91
459.239	10.09
459.442	9.96
459.645	9.93
