Data from JASIL_3264_Reflection_1.txt Node
Date: Mon Nov 16 20:57:46 EST 2015
User: Geneva
Spectrometer: USB4E03002
Autoset integration time: false
Trigger mode: 4
Integration Time (sec): 1.000000E-1
Scans to average: 10
Electric dark correction enabled: false
Nonlinearity correction enabled: false
Boxcar width: 5
Stray light correction enabled: false
XAxis mode: Wavelengths
Stop averaging: false
Number of Pixels in Spectrum: 3648
>>>>>Begin Spectral Data<<<<<
177.575	-903.42
177.794	-897.14
178.014	-900.6
178.233	-1498.13
178.452	-2118.07
178.672	-1488.64
178.891	-1927.36
179.11	5654.05
179.33	1934.82
179.549	-10250
179.768	1905.08
179.987	2190.32
180.207	1349.03
180.426	728.22
180.645	762.98
180.864	1348.05
181.084	566.58
181.303	506.48
181.522	992.27
181.741	3132.39
181.96	643.3
182.179	845.35
182.398	983.56
182.618	951.27
182.837	973.11
183.056	882.94
183.275	546.17
183.494	554.65
183.713	618.27
183.932	509.03
184.151	531.51
184.37	538.8
184.589	420.38
184.808	344.99
185.027	345.89
185.246	419.39
185.465	598.29
185.684	663.28
185.903	2633.33
186.122	1029.6
186.341	1317.98
186.56	627.11
186.779	1080.83
186.998	1426.15
187.216	1430.71
187.435	1123.35
187.654	946.49
187.873	479.13
188.092	412.93
188.311	385.83
188.53	565.98
188.748	550.31
188.967	1304
189.186	763.22
189.405	884.85
189.623	904.63
189.842	772.43
190.061	880.86
190.28	2360.26
190.498	-2202.5
190.717	1482.54
190.936	-3015.25
191.154	-1476.79
191.373	-31466.67
191.592	-17154.55
191.81	-1051.72
192.029	-1486.26
192.248	-510.96
192.466	-485.75
192.685	-520.68
192.904	-795.97
193.122	-554.93
193.341	-1258.92
193.559	-1172.59
193.778	-1345.45
193.996	-1676.34
194.215	58500
194.433	-5435.71
194.652	1038.92
194.87	887.01
195.089	861.57
195.307	1021.58
195.526	3186.44
195.744	1561.4
195.963	1030.77
196.181	21725
196.399	-1559.83
196.618	9120
196.836	31050
197.055	-1647.54
197.273	-3562.07
197.491	-2327.78
197.71	-3911.76
197.928	2625
198.146	5076.19
198.365	-20850
198.583	1029.44
198.801	1321.64
199.019	2844.16
199.238	-4897.62
199.456	2004.72
199.674	910.17
199.892	685.33
200.111	838.85
200.329	832.45
200.547	680
200.765	570.42
200.983	622.29
201.202	446.67
201.42	696.46
201.638	468.16
201.856	561.08
202.074	1542.15
202.292	1863.64
202.51	1362.59
202.728	2156.7
202.946	-4655
203.165	6730.3
203.383	-2147.42
203.601	-2689.53
203.819	5224
204.037	25110
204.255	2760.82
204.473	1244.86
204.691	1750
204.909	1107.35
205.127	1170.7
205.345	1374.43
205.562	1185.15
205.78	801.34
205.998	984.08
206.216	820.71
206.434	812.5
206.652	691.82
206.87	524.78
207.088	442.17
207.306	564.5
207.523	508.17
207.741	424.38
207.959	442.76
208.177	494.36
208.395	378.18
208.612	428.83
208.83	403.85
209.048	440
209.266	571.74
209.483	580.24
209.701	456.67
209.919	538.83
210.136	516.87
210.354	1232.5
210.572	1200.9
210.79	1863.7
211.007	1136.68
211.225	1887.6
211.442	-11028.57
211.66	-3193.06
211.878	-1427.08
212.095	474.43
212.313	486.36
212.53	746.24
212.748	389.16
212.966	358.17
213.183	332.13
213.401	334.37
213.618	319.8
213.836	373.1
214.053	371.83
214.271	370.69
214.488	2098.32
214.705	1134.86
214.923	784.84
215.14	866.19
215.358	728.31
215.575	1069.81
215.793	1085.84
216.01	1438.65
216.227	518.3
216.445	392.59
216.662	428.7
216.879	467.12
217.097	396.75
217.314	438.09
217.531	580.28
217.749	621.59
217.966	790
218.183	610.19
218.4	703.26
218.618	861.42
218.835	908.68
219.052	609.31
219.269	517.52
219.487	785.07
219.704	545.71
219.921	384.14
220.138	298.7
220.355	277.11
220.572	306.43
220.79	323.37
221.007	383.8
221.224	544.68
221.441	509.86
221.658	527.52
221.875	379.49
222.092	393.68
222.309	591.67
222.526	639.92
222.743	574.83
222.96	739.15
223.177	366.88
223.394	391.36
223.611	245.17
223.828	312.02
224.045	334.43
224.262	370.98
224.479	255.07
224.696	205.15
224.913	238.12
225.13	212.72
225.347	190.75
225.564	187.12
225.781	146.15
225.997	143.02
226.214	115.63
226.431	101.61
226.648	87.89
226.865	82.08
227.082	76.26
227.298	68.51
227.515	59.81
227.732	58.83
227.949	52.95
228.165	50.84
228.382	47.71
228.599	43.67
228.816	44
229.032	45.83
229.249	43.38
229.466	44.44
229.682	44.51
229.899	50.61
230.116	48.66
230.332	53.87
230.549	57.67
230.765	60.55
230.982	65.23
231.199	71.25
231.415	74.51
231.632	85.98
231.848	90.52
232.065	96.83
232.281	93.63
232.498	105.06
232.714	103.41
232.931	97.6
233.147	97.61
233.364	103.15
233.58	99.74
233.797	105.93
234.013	97.45
234.23	95.01
234.446	98.75
234.662	92.07
234.879	84.9
235.095	92
235.312	104.48
235.528	108.15
235.744	109.61
235.961	108.8
236.177	96.87
236.393	103.44
236.61	117.77
236.826	114.87
237.042	123.02
237.258	124.48
237.475	108.78
237.691	99.68
237.907	98.94
238.123	99.31
238.339	89.64
238.556	91.82
238.772	88
238.988	75.95
239.204	72.31
239.42	71.03
239.636	71.25
239.853	72.78
240.069	68.51
240.285	64.31
240.501	59.96
240.717	56.78
240.933	51.72
241.149	47.2
241.365	44.22
241.581	42.33
241.797	38.27
242.013	35.6
242.229	33.56
242.445	35.42
242.661	34.7
242.877	34.06
243.093	35.28
243.309	38.43
243.525	41.04
243.741	42.61
243.957	44.12
244.173	46.49
244.388	45.75
244.604	48.63
244.82	42.89
245.036	40.89
245.252	38.57
245.468	35.7
245.683	31.87
245.899	29.57
246.115	29.19
246.331	26.99
246.547	25.46
246.762	24.08
246.978	22.74
247.194	22.69
247.409	21.94
247.625	22.34
247.841	22.87
248.057	23.96
248.272	25.51
248.488	25.71
248.703	28.34
248.919	30.44
249.135	33.91
249.35	33.76
249.566	37.95
249.782	41.52
249.997	42.21
250.213	40.71
250.428	39.94
250.644	39.97
250.859	39.22
251.075	38.78
251.29	39.22
251.506	39.21
251.721	38.98
251.937	38.99
252.152	37.25
252.368	36.53
252.583	40.08
252.798	43.15
253.014	43.61
253.229	46.73
253.445	47.13
253.66	47.79
253.875	48.2
254.091	56.4
254.306	56.2
254.521	60.34
254.737	61.07
254.952	62.14
255.167	61.23
255.383	58.59
255.598	54.09
255.813	51.96
256.028	51.49
256.244	51.89
256.459	44.6
256.674	43.13
256.889	41.74
257.104	40.23
257.32	35.99
257.535	31.48
257.75	29.48
257.965	26.45
258.18	24.48
258.395	23.4
258.61	21.02
258.826	21.26
259.041	19.37
259.256	19.1
259.471	18.72
259.686	17.93
259.901	17.57
260.116	17.96
260.331	18.87
260.546	18.91
260.761	18.37
260.976	19.56
261.191	20.34
261.406	22.39
261.621	22.89
261.836	24.89
262.05	27.7
262.265	32.12
262.48	33.19
262.695	34.56
262.91	36.1
263.125	37.25
263.34	38.22
263.555	37.89
263.769	40.67
263.984	39.16
264.199	40.05
264.414	39.72
264.629	36.2
264.843	35.14
265.058	35.5
265.273	34.15
265.488	33.12
265.702	31.54
265.917	32.02
266.132	29.21
266.346	30.26
266.561	27.96
266.776	29.09
266.99	31
267.205	30.93
267.42	28.47
267.634	30.1
267.849	29.14
268.063	30.15
268.278	30.74
268.492	31.3
268.707	30.59
268.922	30.03
269.136	28.47
269.351	26.45
269.565	25.49
269.78	26.27
269.994	25.47
270.209	25.45
270.423	23.54
270.637	21.93
270.852	20.33
271.066	20.95
271.281	21.72
271.495	20.37
271.709	20.01
271.924	21.58
272.138	21.47
272.353	22.22
272.567	22.47
272.781	23.59
272.996	22.85
273.21	22.74
273.424	23.03
273.638	23.61
273.853	24.47
274.067	26.24
274.281	25.97
274.495	27.01
274.71	26.69
274.924	28.18
275.138	28.16
275.352	28.77
275.566	30.93
275.781	29.75
275.995	28.31
276.209	28.44
276.423	27.66
276.637	26.05
276.851	26.15
277.065	26.53
277.279	26
277.493	24.72
277.707	23.17
277.921	22.92
278.135	24.87
278.349	26.45
278.563	27.37
278.777	26.49
278.991	27.68
279.205	26.42
279.419	23.62
279.633	24.11
279.847	25.91
280.061	27.37
280.275	27.64
280.489	26.35
280.703	24.12
280.917	23.71
281.131	23.9
281.344	23.61
281.558	24.35
281.772	24.75
281.986	24.5
282.2	23.7
282.414	21.87
282.627	20.41
282.841	20.03
283.055	21.98
283.269	21.29
283.482	20.92
283.696	21.35
283.91	20.34
284.123	20.84
284.337	19.33
284.551	18.29
284.764	20.17
284.978	19.65
285.192	19.49
285.405	19.33
285.619	19.35
285.833	19.42
286.046	18.11
286.26	18.63
286.473	17.66
286.687	18.45
286.9	20.53
287.114	19.64
287.327	20.82
287.541	20.02
287.754	19.06
287.968	18.51
288.181	19.58
288.395	19.44
288.608	19.98
288.822	21.52
289.035	22.25
289.248	21.07
289.462	21.5
289.675	21.7
289.889	22.33
290.102	21.25
290.315	22.08
290.529	21.25
290.742	22.44
290.955	21.85
291.169	21.49
291.382	20.42
291.595	21.42
291.808	20.92
292.022	19.89
292.235	20.56
292.448	22.62
292.661	21.6
292.875	22.67
293.088	22.49
293.301	22.52
293.514	22.08
293.727	22.08
293.94	20.25
294.153	21.36
294.367	21.97
294.58	21.24
294.793	20.48
295.006	21.61
295.219	19.78
295.432	19.55
295.645	19.26
295.858	18.89
296.071	18.94
296.284	18.93
296.497	17.64
296.71	17.89
296.923	17.99
297.136	17.24
297.349	16.48
297.562	17.21
297.775	17.95
297.988	17.6
298.201	18.23
298.414	17.84
298.626	18.74
298.839	19.26
299.052	19
299.265	19.13
299.478	20.51
299.691	20.49
299.903	20.12
300.116	19.4
300.329	19.42
300.542	19.46
300.755	21.54
300.967	21.87
301.18	22.39
301.393	22.86
301.605	23.26
301.818	22.53
302.031	23.52
302.243	23.84
302.456	23.66
302.669	24.95
302.881	24.76
303.094	23.5
303.307	22.26
303.519	22.83
303.732	22.99
303.944	21.72
304.157	21.96
304.37	22.75
304.582	24
304.795	23.95
305.007	23.72
305.22	24.41
305.432	24.71
305.645	25.83
305.857	26.31
306.069	25.24
306.282	25.85
306.494	25.8
306.707	24.54
306.919	23.25
307.132	22.37
307.344	22.42
307.556	21.45
307.769	21.68
307.981	21.28
308.193	19.38
308.406	19.64
308.618	20.53
308.83	20.31
309.043	19.64
309.255	20.58
309.467	21.64
309.679	21.53
309.892	21.83
310.104	20.96
310.316	20.57
310.528	21.41
310.74	20.96
310.953	20.07
311.165	20.93
311.377	20.8
311.589	19.95
311.801	19.5
312.013	19.6
312.225	21.05
312.437	21.1
312.649	22.23
312.862	24
313.074	24.03
313.286	25.34
313.498	25.6
313.71	25.51
313.922	27.27
314.134	28.37
314.346	28.3
314.558	25.84
314.77	25.6
314.982	24.2
315.193	23.02
315.405	23.51
315.617	22.92
315.829	22.93
316.041	25.2
316.253	23.06
316.465	23.33
316.677	22.67
316.888	23.8
317.1	24.18
317.312	24.22
317.524	22.65
317.736	23.42
317.947	24.05
318.159	24.6
318.371	23.41
318.583	23.89
318.794	24.15
319.006	24.37
319.218	23.29
319.43	24.85
319.641	26.82
319.853	28.16
320.064	28.42
320.276	28.27
320.488	27.16
320.699	28.61
320.911	29.91
321.123	30.36
321.334	32.06
321.546	33.86
321.757	32.76
321.969	31.95
322.18	31
322.392	29.47
322.603	28.2
322.815	26.92
323.026	25.86
323.238	25.16
323.449	23.14
323.661	22.38
323.872	21.88
324.083	21.12
324.295	20.63
324.506	21.05
324.718	20.3
324.929	20.67
325.14	21.3
325.352	21.96
325.563	21.83
325.774	22.52
325.986	21.74
326.197	21.78
326.408	22.22
326.62	22.4
326.831	22.52
327.042	23.63
327.253	23.23
327.464	23.45
327.676	22.76
327.887	23.65
328.098	23.27
328.309	23.46
328.52	24.12
328.732	25
328.943	25.34
329.154	24.93
329.365	25.35
329.576	26.47
329.787	26.88
329.998	27.93
330.209	27.08
330.42	28.29
330.631	29.79
330.842	28.92
331.053	29.7
331.264	30.21
331.475	28.86
331.686	29.16
331.897	27.99
332.108	28.66
332.319	27.61
332.53	27.11
332.741	26.5
332.952	26.16
333.163	26.53
333.374	24.7
333.585	23.62
333.795	25.36
334.006	24.51
334.217	24.14
334.428	23.02
334.639	22.49
334.849	22.28
335.06	22.47
335.271	21.75
335.482	22.4
335.692	22.44
335.903	23.05
336.114	24.09
336.325	24.45
336.535	26.06
336.746	26.97
336.957	27.75
337.167	27.36
337.378	27.52
337.589	27.12
337.799	27.09
338.01	28.02
338.22	26.98
338.431	26.38
338.642	25.03
338.852	24.43
339.063	24.9
339.273	23.6
339.484	24.96
339.694	24
339.905	24.34
340.115	23.84
340.326	22.88
340.536	24.28
340.746	24.49
340.957	25.3
341.167	24.87
341.378	24.11
341.588	24.95
341.799	23.94
342.009	23.94
342.219	23.15
342.43	23.46
342.64	23.4
342.85	22.61
343.061	21.19
343.271	21.19
343.481	20.6
343.691	20.53
343.902	20.36
344.112	19.72
344.322	19.14
344.532	20.33
344.743	20.11
344.953	20.51
345.163	20.31
345.373	20.76
345.583	21.81
345.793	22.05
346.004	20.71
346.214	19.84
346.424	19.85
346.634	19.67
346.844	19.43
347.054	19.53
347.264	19.13
347.474	19.96
347.684	19.7
347.894	18.24
348.104	18.75
348.314	20.34
348.524	21.33
348.734	22.31
348.944	23.34
349.154	22.87
349.364	22.7
349.574	22.91
349.784	23.18
349.994	22.87
350.204	23.17
350.413	22.47
350.623	21.3
350.833	21.12
351.043	20.1
351.253	19.76
351.463	19.86
351.672	19.45
351.882	19.4
352.092	19.25
352.302	19.84
352.511	20.56
352.721	20.66
352.931	20.92
353.141	21.05
353.35	21.01
353.56	20.73
353.77	20.82
353.979	20.9
354.189	19.87
354.399	18.1
354.608	17.98
354.818	17.55
355.027	17.38
355.237	17.38
355.447	17.11
355.656	17.46
355.866	17.01
356.075	16.54
356.285	16.13
356.494	15.85
356.704	15.78
356.913	15.43
357.123	15.39
357.332	14.97
357.542	14.96
357.751	14.45
357.96	14.51
358.17	14.06
358.379	14.68
358.589	14.61
358.798	15.07
359.007	15.68
359.217	14.87
359.426	14.41
359.635	15.05
359.845	13.77
360.054	13.31
360.263	13.49
360.472	13.42
360.682	13
360.891	13.42
361.1	13.37
361.309	12.6
361.519	13.02
361.728	13.65
361.937	13.36
362.146	14.39
362.355	15.46
362.564	15.61
362.774	16.15
362.983	16.17
363.192	16.21
363.401	16.74
363.61	17.15
363.819	17.5
364.028	17
364.237	17.29
364.446	17.31
364.655	17.04
364.864	17.84
365.073	19.19
365.282	19.21
365.491	18.91
365.7	18.51
365.909	18.91
366.118	18.27
366.327	18.52
366.536	18.64
366.745	18.77
366.954	19.69
367.162	18.79
367.371	17.63
367.58	17.72
367.789	17.78
367.998	17.63
368.207	17.57
368.415	18.53
368.624	17.86
368.833	17.87
369.042	17.9
369.25	17.37
369.459	17.87
369.668	18.08
369.877	18.38
370.085	18.12
370.294	17.95
370.503	18.16
370.711	18.25
370.92	18.57
371.129	19
371.337	19.02
371.546	18.31
371.754	17.93
371.963	17.76
372.171	17.45
372.38	17.45
372.589	18.15
372.797	18.39
373.006	17.64
373.214	17.73
373.423	17.17
373.631	17.02
373.84	17.16
374.048	16.36
374.256	15.96
374.465	16.02
374.673	16.29
374.882	14.98
375.09	13.17
375.298	13.93
375.507	13.07
375.715	12.63
375.923	11.68
376.132	11.86
376.34	12.1
376.548	12.56
376.757	12.6
376.965	12.27
377.173	12.95
377.381	14.44
377.59	14.3
377.798	14.29
378.006	14.38
378.214	14.54
378.423	14.75
378.631	14.51
378.839	14.03
379.047	13.89
379.255	14.11
379.463	14.45
379.671	14.35
379.879	14.03
380.088	14.81
380.296	15.22
380.504	15.74
380.712	14.32
380.92	15.23
381.128	15.1
381.336	14.99
381.544	14.25
381.752	13.77
381.96	13.73
382.168	13.9
382.376	13.27
382.584	13
382.791	12.27
382.999	13.77
383.207	12.61
383.415	13.33
383.623	13.18
383.831	12.87
384.039	13.14
384.247	13.48
384.454	13.68
384.662	13.82
384.87	13.37
385.078	14.02
385.285	13.73
385.493	13.89
385.701	13.65
385.909	13.76
386.116	14.19
386.324	14.11
386.532	14.18
386.739	13.23
386.947	13.32
387.155	14.09
387.362	13.72
387.57	13.47
387.778	13.82
387.985	13.4
388.193	13.56
388.4	13.9
388.608	13.83
388.816	12.75
389.023	12.71
389.231	12.88
389.438	12.28
389.646	12.88
389.853	13.14
390.061	12.77
390.268	12.66
390.475	11.94
390.683	11.52
390.89	11.7
391.098	11.08
391.305	11.89
391.512	11.2
391.72	10.47
391.927	10.33
392.135	10.12
392.342	10.04
392.549	10.23
392.756	10.9
392.964	11.22
393.171	10.99
393.378	11.5
393.586	10.76
393.793	10.7
394	11.81
394.207	11.7
394.414	11.41
394.622	11.66
394.829	11.46
395.036	10.97
395.243	11.28
395.45	11.83
395.657	12.49
395.864	13.29
396.072	14.17
396.279	13.88
396.486	14.2
396.693	15.16
396.9	14.96
397.107	15.37
397.314	15.94
397.521	15.45
397.728	14.95
397.935	14.77
398.142	14.21
398.349	14.12
398.556	13.85
398.763	13.62
398.97	13.06
399.177	13.02
399.383	13.38
399.59	13.33
399.797	13.55
400.004	13.89
400.211	13.67
400.418	14.19
400.625	14.43
400.831	14.17
401.038	13.7
401.245	13.89
401.452	13.98
401.658	13.18
401.865	12.99
402.072	12.58
402.279	12.33
402.485	12.73
402.692	11.78
402.899	11.13
403.105	11.5
403.312	11.95
403.519	11.84
403.725	11.38
403.932	11.47
404.138	10.89
404.345	11.27
404.552	11.13
404.758	10.91
404.965	10.95
405.171	10.98
405.378	11.06
405.584	10.74
405.791	10.69
405.997	11.01
406.204	10.7
406.41	10.93
406.617	10.13
406.823	10.6
407.029	10.14
407.236	10.09
407.442	10.15
407.649	10.16
407.855	10.59
408.061	10.67
408.268	11.02
408.474	11.6
408.68	10.84
408.887	10.98
409.093	10.83
409.299	11.16
409.505	11.46
409.712	10.83
409.918	10.16
410.124	9.69
410.33	8.84
410.537	8.43
410.743	8.07
410.949	8.67
411.155	8.84
411.361	8.78
411.567	8.83
411.773	8.43
411.98	8.91
412.186	9.51
412.392	9.67
412.598	9.39
412.804	9.13
413.01	9.07
413.216	10
413.422	10.33
413.628	9.92
413.834	9.52
414.04	10.51
414.246	10.6
414.452	10.73
414.658	10.93
414.864	11.76
415.07	12.42
415.275	12.55
415.481	12.08
415.687	12
415.893	11.98
416.099	11.83
416.305	11.36
416.511	11.05
416.716	10.22
416.922	9.8
417.128	9.2
417.334	8.72
417.539	8.2
417.745	7.9
417.951	7.37
418.157	7.01
418.362	6.94
418.568	6.33
418.774	5.55
418.979	5.66
419.185	5.46
419.391	5.79
419.596	5.62
419.802	5.76
420.008	5.61
420.213	5.65
420.419	5.73
420.624	5.63
420.83	5.92
421.035	6.35
421.241	6.22
421.446	6.19
421.652	5.83
421.857	5.84
422.063	5.98
422.268	5.87
422.474	6.03
422.679	5.95
422.885	6.03
423.09	5.85
423.295	5.78
423.501	5.96
423.706	6.01
423.911	6.26
424.117	6.25
424.322	5.95
424.527	6.06
424.733	5.94
424.938	6.1
425.143	6.03
425.349	6.05
425.554	6.46
425.759	6.43
425.964	6.45
426.169	6.43
426.375	6.63
426.58	6.87
426.785	6.86
426.99	7.06
427.195	7.04
427.4	6.96
427.605	7.5
427.811	7
428.016	7.04
428.221	7.1
428.426	7.31
428.631	7.38
428.836	7.3
429.041	7.61
429.246	7.86
429.451	8.25
429.656	8.44
429.861	8.17
430.066	8.57
430.271	9.05
430.476	8.84
430.681	8.62
430.886	8.42
431.09	8.24
431.295	7.96
431.5	7.75
431.705	7.32
431.91	7.04
432.115	6.79
432.32	6.98
432.524	6.73
432.729	6.89
432.934	6.59
433.139	6.55
433.343	6.7
433.548	6.17
433.753	6.08
433.958	6.33
434.162	6.29
434.367	6.19
434.572	5.9
434.776	5.92
434.981	5.89
435.186	5.82
435.39	6.04
435.595	6.45
435.799	6.65
436.004	6.2
436.209	5.88
436.413	6.05
436.618	6.3
436.822	6.58
437.027	6.16
437.231	5.8
437.436	6.3
437.64	5.81
437.845	5.3
438.049	5.48
438.253	5.86
438.458	5.78
438.662	5.88
438.867	5.68
439.071	5.32
439.275	5.43
439.48	5.68
439.684	5.41
439.888	5.39
440.093	5.99
440.297	6
440.501	5.94
440.706	5.96
440.91	5.88
441.114	6.01
441.318	6.22
441.523	6.28
441.727	6.4
441.931	6.37
442.135	6.88
442.339	6.54
442.543	6.66
442.748	6.77
442.952	7.02
443.156	7.02
443.36	6.61
443.564	6.75
443.768	6.25
443.972	6.41
444.176	6.17
444.38	5.99
444.584	5.78
444.788	5.29
444.992	4.89
445.196	4.78
445.4	4.63
445.604	4.89
445.808	4.53
446.012	4.82
446.216	4.45
446.42	4.6
446.624	4.57
446.828	4.45
447.032	4.7
447.235	5.12
447.439	5.04
447.643	5.3
447.847	5.44
448.051	5.7
448.254	5.94
448.458	5.85
448.662	5.96
448.866	6.43
449.069	6.54
449.273	6.74
449.477	6.38
449.681	6.52
449.884	6.26
450.088	6.41
450.292	6.05
450.495	5.88
450.699	6.42
450.902	6.39
451.106	5.88
451.31	6.35
451.513	6.49
451.717	6.64
451.92	6.73
452.124	6.84
452.327	6.75
452.531	6.93
452.734	6.79
452.938	6.77
453.141	6.73
453.345	6.68
453.548	6.21
453.752	6.3
453.955	6.7
454.158	6.28
454.362	6.65
454.565	6.75
454.769	6.62
454.972	6.95
455.175	6.77
455.379	7.06
455.582	6.79
