Data from JASIL_3271_Reflection_1.txt Node
Date: Tue Nov 17 18:53:31 EST 2015
User: Geneva
Spectrometer: USB4E03002
Autoset integration time: false
Trigger mode: 4
Integration Time (sec): 1.000000E-1
Scans to average: 10
Electric dark correction enabled: false
Nonlinearity correction enabled: false
Boxcar width: 5
Stray light correction enabled: false
XAxis mode: Wavelengths
Stop averaging: false
Number of Pixels in Spectrum: 3648
>>>>>Begin Spectral Data<<<<<
177.575	231.25
177.794	182.73
178.014	276.85
178.233	174.24
178.452	202.54
178.672	248.84
178.891	259.79
179.11	301.83
179.33	361.86
179.549	322.22
179.768	262.99
179.987	264.88
180.207	337.74
180.426	250.43
180.645	417.67
180.864	452.52
181.084	619.9
181.303	-59300
181.522	-1228
181.741	-813.59
181.96	-300.4
182.179	-272.82
182.398	-438.86
182.618	-930.84
182.837	-3458.82
183.056	-1807.25
183.275	1404.08
183.494	606.14
183.713	614.41
183.932	422.92
184.151	412.24
184.37	332.44
184.589	340.64
184.808	409.03
185.027	475.26
185.246	846.83
185.465	790.45
185.684	1072.79
185.903	2176.47
186.122	1070.92
186.341	-2769.39
186.56	-518.95
186.779	-671.98
186.998	-620.18
187.216	-840.23
187.435	-422.36
187.654	-363.78
187.873	-398.12
188.092	-321.34
188.311	-650.66
188.53	-1859.72
188.748	-2293.65
188.967	780.73
189.186	-1730.14
189.405	4876.92
189.623	-125400
189.842	806.83
190.061	359.3
190.28	492.58
190.498	549.55
190.717	3659.26
190.936	123700
191.154	1431.4
191.373	1301.05
191.592	518.97
191.81	544.21
192.029	481.97
192.248	-712.84
192.466	-665.92
192.685	-455.95
192.904	-529.77
193.122	-1003.88
193.341	-761.18
193.559	-560.45
193.778	-537.76
193.996	-1306.42
194.215	-2024.62
194.433	-1211.11
194.652	631.25
194.87	746.87
195.089	545.8
195.307	1587.65
195.526	-43900
195.744	126500
195.963	-1486.05
196.181	-606.12
196.399	-323.55
196.618	-278.75
196.836	-600
197.055	-563.75
197.273	-1733.33
197.491	-701.58
197.71	-1034.09
197.928	2887.76
198.146	-1750
198.365	-975.22
198.583	5020.83
198.801	8212.5
199.019	-2560.78
199.238	-1200
199.456	4280
199.674	-850.68
199.892	1845.95
200.111	-1199.06
200.329	-562.44
200.547	-3121.05
200.765	663.59
200.983	-13675
201.202	-2936.36
201.42	46800
201.638	-1041.35
201.856	-271.08
202.074	-240.93
202.292	-168.73
202.51	-348.05
202.728	-373.99
202.946	-412.09
203.165	-354.2
203.383	-622.37
203.601	-570.37
203.819	-463.16
204.037	-467.13
204.255	-6112.5
204.473	1196.69
204.691	693.87
204.909	639.51
205.127	588.66
205.345	1295.54
205.562	-2508.2
205.78	-9712.5
205.998	1333.9
206.216	1237.98
206.434	1223.58
206.652	6326.09
206.87	2608
207.088	-2300
207.306	6404.35
207.523	-8388.24
207.741	7552.94
207.959	1017.5
208.177	1111.21
208.395	1069.92
208.612	-2797.96
208.83	2566.13
209.048	1033.55
209.266	1401.71
209.483	844.02
209.701	678.63
209.919	877.46
210.136	576.57
210.354	911.57
210.572	960
210.79	-36940
211.007	945.45
211.225	1772.04
211.442	1191.91
211.66	880.68
211.878	1680.37
212.095	4597.37
212.313	3037.04
212.53	-1015.44
212.748	4448.48
212.966	-1070.08
213.183	-3220
213.401	-1119.09
213.618	25140
213.836	-884.33
214.053	-569.5
214.271	-421.03
214.488	-402.02
214.705	-789.55
214.923	-1039.64
215.14	-1632.91
215.358	-2469.81
215.575	14150
215.793	-1794.87
216.01	-912.74
216.227	-613.92
216.445	-431.37
216.662	-1689.89
216.879	-1045.83
217.097	-640.65
217.314	-565.4
217.531	-575.47
217.749	2390.74
217.966	3205.13
218.183	321.04
218.4	382.38
218.618	295.09
218.835	300.61
219.052	277.63
219.269	228.55
219.487	230.97
219.704	227.51
219.921	195.94
220.138	311.16
220.355	310.94
220.572	490.7
220.79	297.84
221.007	324.2
221.224	240
221.441	233.51
221.658	274.62
221.875	297.99
222.092	295.29
222.309	324.8
222.526	198.12
222.743	184.47
222.96	203.79
223.177	242.36
223.394	187.09
223.611	224.01
223.828	242.47
224.045	192.43
224.262	182.57
224.479	148.9
224.696	156.99
224.913	184.83
225.13	220.25
225.347	255.27
225.564	202.39
225.781	219.39
225.997	186.93
226.214	144.32
226.431	128.12
226.648	112.65
226.865	112.82
227.082	90.19
227.298	78.7
227.515	66.86
227.732	57.33
227.949	53.97
228.165	50.55
228.382	49.21
228.599	48.62
228.816	49.29
229.032	49.69
229.249	51.66
229.466	55.59
229.682	61.3
229.899	69.18
230.116	77.41
230.332	75.61
230.549	83.27
230.765	98.12
230.982	97.39
231.199	95.7
231.415	107.2
231.632	111.05
231.848	105.11
232.065	102.68
232.281	92.89
232.498	93.89
232.714	108.03
232.931	107.78
233.147	91.55
233.364	92.69
233.58	86.71
233.797	94.24
234.013	92.12
234.23	96.95
234.446	93.21
234.662	88.12
234.879	76.07
235.095	69.59
235.312	69.26
235.528	73.83
235.744	78.56
235.961	91.84
236.177	77.76
236.393	83.55
236.61	79.19
236.826	82.21
237.042	90.58
237.258	94.92
237.475	83.3
237.691	87.99
237.907	77.13
238.123	67.54
238.339	61.79
238.556	57.97
238.772	54.37
238.988	52.03
239.204	51.91
239.42	46.26
239.636	41.08
239.853	44.13
240.069	38.69
240.285	34.36
240.501	31.85
240.717	28.87
240.933	28.89
241.149	29.13
241.365	29.01
241.581	22.42
241.797	24.78
242.013	28.05
242.229	26.08
242.445	26.56
242.661	33.12
242.877	33.62
243.093	35.98
243.309	32.84
243.525	31.6
243.741	30.75
243.957	36.38
244.173	35.04
244.388	31.3
244.604	29.38
244.82	28.86
245.036	22.47
245.252	24.03
245.468	22.81
245.683	22.87
245.899	21.18
246.115	21.43
246.331	20.47
246.547	20.5
246.762	19.67
246.978	20.02
247.194	20.94
247.409	21.63
247.625	20.81
247.841	20.95
248.057	22.52
248.272	24.44
248.488	27.47
248.703	29.13
248.919	28.76
249.135	34.08
249.35	31.96
249.566	31.27
249.782	33.62
249.997	37.66
250.213	38.55
250.428	36.79
250.644	35
250.859	32.51
251.075	31.71
251.29	29.03
251.506	31.73
251.721	37.76
251.937	36.43
252.152	38.48
252.368	36.84
252.583	39.35
252.798	41.7
253.014	41.97
253.229	40.93
253.445	44.1
253.66	49.4
253.875	45.75
254.091	46.51
254.306	52
254.521	48.14
254.737	49.22
254.952	43
255.167	41.46
255.383	42.69
255.598	42.53
255.813	39.04
256.028	38.94
256.244	39.19
256.459	32.82
256.674	30.49
256.889	24.93
257.104	21.91
257.32	20.29
257.535	18.52
257.75	19.19
257.965	18.27
258.18	18.26
258.395	16.85
258.61	16.14
258.826	15.27
259.041	14.65
259.256	15.91
259.471	14.61
259.686	15.06
259.901	15.61
260.116	15.75
260.331	16.68
260.546	17.07
260.761	18.71
260.976	19.35
261.191	21.93
261.406	23.13
261.621	27.06
261.836	32.01
262.05	30.95
262.265	34.16
262.48	35.21
262.695	35.84
262.91	36.42
263.125	38.27
263.34	37.67
263.555	36.98
263.769	37.7
263.984	33.97
264.199	32.4
264.414	36.76
264.629	33.54
264.843	33.92
265.058	30.14
265.273	29.97
265.488	27.79
265.702	25.52
265.917	21.48
266.132	21.75
266.346	23.46
266.561	21.11
266.776	18.14
266.99	17.52
267.205	12.4
267.42	14.08
267.634	14.36
267.849	14.86
268.063	17.06
268.278	19.03
268.492	17.06
268.707	15.27
268.922	16.21
269.136	15.8
269.351	17.5
269.565	20.1
269.78	21.12
269.994	18.63
270.209	19.08
270.423	18.92
270.637	18.57
270.852	19.56
271.066	21.06
271.281	23.36
271.495	24.22
271.709	23.34
271.924	23.18
272.138	21.39
272.353	22.9
272.567	21.98
272.781	20.94
272.996	22.12
273.21	23.14
273.424	21.38
273.638	20.82
273.853	21.7
274.067	21.75
274.281	22.72
274.495	26.79
274.71	26.33
274.924	25.88
275.138	26.15
275.352	25.01
275.566	21.41
275.781	20.48
275.995	18.35
276.209	19.01
276.423	18.92
276.637	17.96
276.851	13.96
277.065	12.85
277.279	14.27
277.493	16.69
277.707	17.03
277.921	17.7
278.135	19.24
278.349	21.4
278.563	18.75
278.777	18.31
278.991	17.67
279.205	18.15
279.419	20.07
279.633	20.88
279.847	18.8
280.061	21.03
280.275	20.86
280.489	20.31
280.703	20.39
280.917	21.66
281.131	20.69
281.344	22.96
281.558	23.34
281.772	22.56
281.986	20.85
282.2	20.17
282.414	17.58
282.627	18.54
282.841	20.53
283.055	19.63
283.269	19.03
283.482	19.93
283.696	19.16
283.91	19.48
284.123	18.77
284.337	19.07
284.551	19.43
284.764	19.11
284.978	19.63
285.192	18.09
285.405	18.06
285.619	18.93
285.833	19.2
286.046	18.07
286.26	17.73
286.473	18.14
286.687	18.31
286.9	19.97
287.114	21.26
287.327	20.11
287.541	19.89
287.754	19.69
287.968	18.59
288.181	18.48
288.395	18.42
288.608	18.79
288.822	17.82
289.035	18.27
289.248	17.27
289.462	17.43
289.675	18
289.889	17.61
290.102	17.69
290.315	19.11
290.529	18.25
290.742	19.87
290.955	20.02
291.169	21.2
291.382	20.33
291.595	20.86
291.808	20.86
292.022	20.52
292.235	20.78
292.448	20.52
292.661	18.93
292.875	18.99
293.088	17.02
293.301	16.82
293.514	15.62
293.727	14.93
293.94	13.77
294.153	14.46
294.367	14
294.58	14.02
294.793	13.31
295.006	12.33
295.219	13.06
295.432	12.84
295.645	12.64
295.858	13.57
296.071	14.19
296.284	14.33
296.497	13.05
296.71	12.63
296.923	12.51
297.136	13.12
297.349	14.42
297.562	14.23
297.775	16.72
297.988	16.6
298.201	17.63
298.414	16.31
298.626	16.99
298.839	16.41
299.052	17.14
299.265	19.04
299.478	18.28
299.691	17.4
299.903	17.02
300.116	15.84
300.329	16.4
300.542	15.16
300.755	15.57
300.967	15.73
301.18	18.97
301.393	20.36
301.605	19.43
301.818	19.62
302.031	20.13
302.243	20.76
302.456	18.73
302.669	17.96
302.881	19.31
303.094	21.66
303.307	21.13
303.519	19.91
303.732	19.62
303.944	20.32
304.157	20.42
304.37	20.28
304.582	20.18
304.795	21.59
305.007	23.18
305.22	20.96
305.432	19.65
305.645	19.07
305.857	17.33
306.069	17.12
306.282	16.87
306.494	16.67
306.707	15.66
306.919	14.35
307.132	15.2
307.344	13.64
307.556	13.22
307.769	13.46
307.981	14.11
308.193	15.71
308.406	14.46
308.618	12.69
308.83	13.24
309.043	15.02
309.255	15.96
309.467	15.56
309.679	15.13
309.892	16.12
310.104	16.1
310.316	15.85
310.528	14.12
310.74	14.35
310.953	16.36
311.165	16.36
311.377	15.6
311.589	15.44
311.801	14.51
312.013	15.46
312.225	14.31
312.437	14.48
312.649	13.62
312.862	14.84
313.074	15.61
313.286	15.82
313.498	15.89
313.71	13.59
313.922	13.01
314.134	13.87
314.346	14.53
314.558	16.74
314.77	16.61
314.982	18.4
315.193	18.8
315.405	17.08
315.617	14.92
315.829	15.75
316.041	18.45
316.253	19.75
316.465	19.55
316.677	18.63
316.888	18.31
317.1	18.49
317.312	19.31
317.524	18.67
317.736	21.1
317.947	22.25
318.159	24.21
318.371	22.45
318.583	23.03
318.794	22.71
319.006	24.04
319.218	24.45
319.43	24.84
319.641	23.8
319.853	24.52
320.064	23.51
320.276	24.88
320.488	21.79
320.699	22.57
320.911	21.63
321.123	24.1
321.334	22.57
321.546	20.65
321.757	19.87
321.969	20.02
322.18	19.67
322.392	19.51
322.603	18.09
322.815	17.89
323.026	18.83
323.238	18.9
323.449	18.03
323.661	17.53
323.872	19.56
324.083	18.9
324.295	18.86
324.506	20.68
324.718	21.9
324.929	22.18
325.14	21.43
325.352	20.59
325.563	20.47
325.774	20.24
325.986	21.49
326.197	20.44
326.408	22.12
326.62	21.87
326.831	19.73
327.042	18.54
327.253	19.54
327.464	21.2
327.676	21.86
327.887	21.56
328.098	21.97
328.309	21.2
328.52	21.43
328.732	20.25
328.943	21.83
329.154	21.86
329.365	22.22
329.576	21.04
329.787	20.44
329.998	20.8
330.209	23.19
330.42	21.28
330.631	20.9
330.842	21.89
331.053	23.59
331.264	22.84
331.475	23.49
331.686	24.56
331.897	23.96
332.108	24.13
332.319	25.52
332.53	24.51
332.741	25.44
332.952	26.55
333.163	26.58
333.374	25.23
333.585	24.77
333.795	25.82
334.006	24.97
334.217	24.62
334.428	25.54
334.639	24.77
334.849	25.69
335.06	25.9
335.271	25.38
335.482	24.28
335.692	24.74
335.903	24.39
336.114	23.86
336.325	23.45
336.535	25.13
336.746	23.55
336.957	23.75
337.167	23.71
337.378	23.24
337.589	23.38
337.799	21.51
338.01	21.43
338.22	23.14
338.431	22.77
338.642	22.74
338.852	21.82
339.063	22.13
339.273	22.09
339.484	20.31
339.694	21.1
339.905	21.6
340.115	23.58
340.326	23.5
340.536	23
340.746	22.5
340.957	23.74
341.167	24.62
341.378	24.5
341.588	24.83
341.799	25
342.009	25.53
342.219	26.41
342.43	26.01
342.64	25.83
342.85	25.38
343.061	25.78
343.271	25
343.481	23.65
343.691	24.29
343.902	23.54
344.112	23.55
344.322	22.09
344.532	20.7
344.743	20.78
344.953	20.93
345.163	20.68
345.373	21.25
345.583	21.79
345.793	22.17
346.004	22.18
346.214	22.31
346.424	22.74
346.634	23.28
346.844	23.01
347.054	21.7
347.264	21.49
347.474	23.19
347.684	22.54
347.894	21.93
348.104	22.03
348.314	21.59
348.524	20.45
348.734	20.32
348.944	20.78
349.154	21.78
349.364	22.79
349.574	22.72
349.784	21.2
349.994	21.94
350.204	21.67
350.413	20.55
350.623	20.08
350.833	20.13
351.043	20.08
351.253	20.63
351.463	20.3
351.672	21.38
351.882	20.54
352.092	19.61
352.302	18.96
352.511	19.34
352.721	19.68
352.931	20.16
353.141	19.47
353.35	19.36
353.56	18.75
353.77	17.28
353.979	16.37
354.189	17.47
354.399	18.21
354.608	17.93
354.818	16.52
355.027	17.33
355.237	17.1
355.447	18.4
355.656	18.86
355.866	18.02
356.075	19.47
356.285	19.85
356.494	20.17
356.704	19.96
356.913	19.65
357.123	21.34
357.332	21.02
357.542	22.15
357.751	21.58
357.96	20.64
358.17	20.93
358.379	20.17
358.589	19.84
358.798	18.62
359.007	19.05
359.217	19.21
359.426	19.05
359.635	18.9
359.845	17.89
360.054	18.12
360.263	18.68
360.472	19.29
360.682	19.12
360.891	18.77
361.1	18.98
361.309	19
361.519	18.76
361.728	18.29
361.937	18.15
362.146	17.9
362.355	19.05
362.564	18.01
362.774	17.94
362.983	18.64
363.192	18.92
363.401	18.98
363.61	17.7
363.819	18.23
364.028	18.35
364.237	19.49
364.446	19.51
364.655	17.65
364.864	19.16
365.073	18.07
365.282	17.21
365.491	17.46
365.7	17.81
365.909	18.94
366.118	19.21
366.327	19.7
366.536	18.01
366.745	17.8
366.954	19.13
367.162	18.7
367.371	19.52
367.58	20.65
367.789	20.7
367.998	20.17
368.207	20.51
368.415	20.12
368.624	19.93
368.833	20.4
369.042	21.31
369.25	21.06
369.459	21.24
369.668	20.76
369.877	20.13
370.085	20.02
370.294	20.5
370.503	19.85
370.711	19.21
370.92	19.03
371.129	19.47
371.337	18.79
371.546	17.95
371.754	18.03
371.963	18.22
372.171	19.01
372.38	18.93
372.589	19.43
372.797	18.91
373.006	18.92
373.214	18.56
373.423	18.37
373.631	19.01
373.84	19.82
374.048	19.41
374.256	19.54
374.465	18.63
374.673	18.53
374.882	17.6
375.09	17.98
375.298	18.12
375.507	18.34
375.715	18.17
375.923	17.44
376.132	17.21
376.34	17.43
376.548	16.57
376.757	16.61
376.965	15.91
377.173	16.47
377.381	17.01
377.59	17.31
377.798	16.76
378.006	17
378.214	18.1
378.423	17.67
378.631	16.78
378.839	17.67
379.047	17.96
379.255	18.21
379.463	17.58
379.671	17.4
379.879	18
380.088	18.97
380.296	18.82
380.504	18.59
380.712	19.03
380.92	19.34
381.128	19.07
381.336	19.22
381.544	19.9
381.752	20.5
381.96	20.2
382.168	19.57
382.376	19.32
382.584	19.43
382.791	18.01
382.999	18.12
383.207	18.16
383.415	18.18
383.623	17.51
383.831	18.1
384.039	18
384.247	17.74
384.454	17.6
384.662	17.22
384.87	17.71
385.078	18.71
385.285	18.36
385.493	18.64
385.701	17.92
385.909	17.99
386.116	17.21
386.324	16.71
386.532	18.03
386.739	18.24
386.947	18.24
387.155	17.22
387.362	16.97
387.57	16.69
387.778	16.72
387.985	17.71
388.193	17.78
388.4	17.32
388.608	17.36
388.816	16.09
389.023	16.32
389.231	16.52
389.438	16.81
389.646	16.87
389.853	16.7
390.061	16.51
390.268	16.39
390.475	16.47
390.683	16.95
390.89	17.15
391.098	17.32
391.305	17.22
391.512	17.46
391.72	17.88
391.927	17.58
392.135	18.12
392.342	18.08
392.549	18.04
392.756	18.15
392.964	18.28
393.171	18.51
393.378	18.92
393.586	18.65
393.793	18.57
394	17.9
394.207	18.54
394.414	18.11
394.622	17.81
394.829	17.77
395.036	17.78
395.243	17.38
395.45	17.77
395.657	17.03
395.864	17.39
396.072	16.72
396.279	17.73
396.486	17.82
396.693	18.46
396.9	18.23
397.107	18.4
397.314	18.32
397.521	18.06
397.728	17.35
397.935	18.01
398.142	17.7
398.349	17.81
398.556	17.53
398.763	16.91
398.97	16.6
399.177	17.47
399.383	17.42
399.59	17.81
399.797	18.16
400.004	18.85
400.211	17.85
400.418	18.13
400.625	18.28
400.831	18.62
401.038	18.55
401.245	18.23
401.452	18.19
401.658	18.51
401.865	18.26
402.072	18.19
402.279	17.76
402.485	18.56
402.692	18.31
402.899	18.04
403.105	16.91
403.312	16.95
403.519	17.85
403.725	17.76
403.932	17.29
404.138	17.19
404.345	17.34
404.552	17.61
404.758	17.44
404.965	17.67
405.171	18.02
405.378	18.51
405.584	18.7
405.791	17.85
405.997	17.97
406.204	18.5
406.41	18.15
406.617	18.53
406.823	18.48
407.029	18.51
407.236	17.79
407.442	17.56
407.649	18.02
407.855	17.42
408.061	17.97
408.268	17.45
408.474	16.54
408.68	16.97
408.887	16.38
409.093	15.6
409.299	15.99
409.505	16.62
409.712	16.73
409.918	16.72
410.124	17.44
410.33	17.27
410.537	17.9
410.743	18.41
410.949	19.07
411.155	19.09
411.361	19.57
411.567	19.23
411.773	19.01
411.98	19.02
412.186	18.51
412.392	17.95
412.598	17.89
412.804	17.31
413.01	16.93
413.216	15.92
413.422	17
413.628	16.32
413.834	16.57
414.04	16.92
414.246	16.57
414.452	16.96
414.658	17.56
414.864	17.62
415.07	18.06
415.275	18.38
415.481	18.29
415.687	17.65
415.893	18.5
416.099	18.34
416.305	18.35
416.511	18.77
416.716	18.79
416.922	18.91
417.128	18.92
417.334	18.94
417.539	18.54
417.745	18.61
417.951	18.4
418.157	17.85
418.362	17.56
418.568	17.01
418.774	16.92
418.979	16.46
419.185	16.13
419.391	15.83
419.596	15.54
419.802	15.51
420.008	15.36
420.213	13.17
420.419	13.47
420.624	13.61
420.83	13.7
421.035	13.75
421.241	13.64
421.446	13.83
421.652	13.87
421.857	13.87
422.063	14.22
422.268	14.21
422.474	16.47
422.679	16.28
422.885	16.19
423.09	16.12
423.295	16.05
423.501	16.34
423.706	16.08
423.911	15.91
424.117	16.03
424.322	15.89
424.527	16.02
424.733	15.98
424.938	16.07
425.143	16.37
425.349	16.77
425.554	16.8
425.759	16.67
425.964	16.95
426.169	17.05
426.375	16.96
426.58	17.07
426.785	17.16
426.99	17.2
427.195	17.69
427.4	17.82
427.605	17.94
427.811	17.41
428.016	17.68
428.221	17.72
428.426	17.84
428.631	17.69
428.836	17.74
429.041	17.9
429.246	17.44
429.451	17.21
429.656	17.01
429.861	16.48
430.066	17.23
430.271	17.12
430.476	17.33
430.681	17.49
430.886	17.43
431.09	17.51
431.295	17.32
431.5	18.11
431.705	18
431.91	17.94
432.115	18.05
432.32	17.79
432.524	18.12
432.729	17.82
432.934	18.02
433.139	18.47
433.343	18.33
433.548	18.42
433.753	17.86
433.958	18.06
434.162	18.17
434.367	17.96
434.572	18.23
434.776	17.91
434.981	17.73
435.186	17.83
435.39	17.63
435.595	17.35
435.799	17.29
436.004	17.35
436.209	16.75
436.413	16.51
436.618	16.7
436.822	16.51
437.027	16.44
437.231	16.86
437.436	16.31
437.64	16.28
437.845	16.6
438.049	16.64
438.253	16.72
438.458	16.95
438.662	17.1
438.867	17.24
439.071	17.13
439.275	17.33
439.48	17.11
439.684	17.22
439.888	17.21
440.093	16.91
440.297	16.96
440.501	17
440.706	16.98
440.91	16.73
441.114	16.71
441.318	16.65
441.523	16.57
441.727	16.53
441.931	16.85
442.135	16.75
442.339	16.91
442.543	17.04
442.748	16.94
442.952	16.89
443.156	17.01
443.36	16.89
443.564	17.23
443.768	16.79
443.972	16.66
444.176	16.07
444.38	16.48
444.584	16.57
444.788	16.36
444.992	16.25
445.196	16.24
445.4	16.15
445.604	16.25
445.808	16.11
446.012	16.36
446.216	16.44
446.42	16.6
446.624	16.32
446.828	16.36
447.032	16.33
447.235	16.62
447.439	16.62
447.643	16.63
447.847	16.45
448.051	16.29
448.254	16.1
448.458	16.01
448.662	16.28
448.866	16.24
449.069	16.39
449.273	16.35
449.477	16.26
449.681	16.29
449.884	16.36
450.088	16.58
450.292	16.95
450.495	17.12
450.699	17.64
450.902	17.62
451.106	17.3
451.31	16.97
451.513	17.34
451.717	17.32
451.92	17.41
