Data from JASIL_3085_Reflection_01.txt Node
Date: Mon Nov 09 12:03:49 EST 2015
User: Geneva
Spectrometer: USB4E03002
Autoset integration time: false
Trigger mode: 4
Integration Time (sec): 1.000000E-1
Scans to average: 10
Electric dark correction enabled: false
Nonlinearity correction enabled: false
Boxcar width: 5
Stray light correction enabled: false
XAxis mode: Wavelengths
Stop averaging: false
Number of Pixels in Spectrum: 3648
>>>>>Begin Spectral Data<<<<<
177.575	403.15
177.794	-2268.42
178.014	1108.16
178.233	368.79
178.452	501.45
178.672	464.71
178.891	382.24
179.11	863.54
179.33	427.93
179.549	228.01
179.768	351.04
179.987	187.23
180.207	141.4
180.426	139.7
180.645	192.51
180.864	154.59
181.084	149.22
181.303	112.8
181.522	87.6
181.741	990.91
181.96	-142.11
182.179	-266.15
182.398	-70.74
182.618	-32.79
182.837	-77.73
183.056	-52.91
183.275	8.33
183.494	11.59
183.713	1400
183.932	1036.36
184.151	91.5
184.37	30.08
184.589	22.08
184.808	20.48
185.027	44.43
185.246	65.29
185.465	101.7
185.684	165.92
185.903	550
186.122	584.91
186.341	418.6
186.56	878.95
186.779	-239.44
186.998	-520.22
187.216	-1556
187.435	-179.71
187.654	4942.86
187.873	507.84
188.092	417
188.311	242.98
188.53	259.48
188.748	240.91
188.967	190.19
189.186	168.71
189.405	171.93
189.623	185.61
189.842	212.02
190.061	297.67
190.28	350.69
190.498	996.97
190.717	420.3
190.936	230
191.154	205.51
191.373	237.39
191.592	312.59
191.81	505.75
192.029	195.07
192.248	154.99
192.466	131.93
192.685	109.93
192.904	92.15
193.122	110.86
193.341	123.9
193.559	126.72
193.778	159.61
193.996	219.91
194.215	285.99
194.433	417.8
194.652	353.2
194.87	338.22
195.089	415.94
195.307	955.67
195.526	1470.37
195.744	2185.71
195.963	592.31
196.181	844.09
196.399	277.15
196.618	214.53
196.836	147.31
197.055	147.46
197.273	190.34
197.491	173.75
197.71	143.85
197.928	146.52
198.146	161.36
198.365	165.59
198.583	191.58
198.801	151.91
199.019	179.71
199.238	532.41
199.456	619.27
199.674	1352.08
199.892	-5109.09
200.111	-619.48
200.329	19733.33
200.547	300
200.765	164.41
200.983	162.71
201.202	248.86
201.42	203.85
201.638	173.72
201.856	152
202.074	134.6
202.292	147.69
202.51	141.32
202.728	146.17
202.946	176.59
203.165	185.07
203.383	185.16
203.601	163.6
203.819	145.01
204.037	140.61
204.255	195.19
204.473	229.56
204.691	189.74
204.909	225.5
205.127	178.24
205.345	178.79
205.562	205.74
205.78	162.15
205.998	148.71
206.216	204.19
206.434	173.29
206.652	131.31
206.87	125.64
207.088	112.29
207.306	101.69
207.523	89.08
207.741	100.78
207.959	551.52
208.177	-256.25
208.395	1156.25
208.612	3644.44
208.83	639.02
209.048	642.72
209.266	20766.67
209.483	-645.45
209.701	-240.55
209.919	-233.24
210.136	-423.39
210.354	1854.84
210.572	2164.71
210.79	-836.52
211.007	-1423.44
211.225	-394.71
211.442	-165.36
211.66	-261.24
211.878	-198.52
212.095	-825.81
212.313	494.87
212.53	684.85
212.748	-103.33
212.966	-371.43
213.183	741.67
213.401	107.69
213.618	114.93
213.836	207.48
214.053	176.69
214.271	0
214.488	9.81
214.705	11.14
214.923	-32.53
215.14	-85.65
215.358	-39.16
215.575	-51.55
215.793	-165.57
216.01	-364.89
216.227	-184.39
216.445	-195.9
216.662	-231.88
216.879	-339.1
217.097	-318.12
217.314	-398.21
217.531	642.05
217.749	1187.5
217.966	-2720
218.183	41500
218.4	-398.15
218.618	604.9
218.835	-1414.71
219.052	-247.29
219.269	-285.43
219.487	-402.84
219.704	-2772
219.921	-1213.64
220.138	985.96
220.355	2187.1
220.572	588.73
220.79	352.88
221.007	389.16
221.224	354.52
221.441	298.07
221.658	236.6
221.875	201.97
222.092	243.92
222.309	253.83
222.526	189.38
222.743	137.05
222.96	132.53
223.177	127.04
223.394	121.26
223.611	110.57
223.828	105.93
224.045	93.53
224.262	72.89
224.479	83.67
224.696	59.4
224.913	86.42
225.13	63.99
225.347	78.28
225.564	56.77
225.781	47.41
225.997	37.96
226.214	38.51
226.431	45.07
226.648	44.86
226.865	32.51
227.082	30.34
227.298	21.43
227.515	24.62
227.732	19.64
227.949	22.88
228.165	16.88
228.382	24.09
228.599	25.12
228.816	23.49
229.032	22.19
229.249	22.68
229.466	30.45
229.682	35.83
229.899	36.7
230.116	42.26
230.332	40.59
230.549	48.64
230.765	45.95
230.982	45.44
231.199	43.6
231.415	65.44
231.632	73.24
231.848	70.89
232.065	81.68
232.281	82.06
232.498	66.86
232.714	65.9
232.931	57.44
233.147	55.58
233.364	56.77
233.58	59.5
233.797	40.81
234.013	38.36
234.23	42.74
234.446	41.36
234.662	34.45
234.879	33.21
235.095	24.36
235.312	26.17
235.528	38.19
235.744	32.48
235.961	26.87
236.177	40.36
236.393	34.09
236.61	29.81
236.826	27.92
237.042	37.89
237.258	36.05
237.475	42.49
237.691	50.87
237.907	37.8
238.123	35.22
238.339	40.45
238.556	36.66
238.772	33.15
238.988	33.58
239.204	28.25
239.42	26.02
239.636	31.33
239.853	27.19
240.069	22.36
240.285	16.9
240.501	16.39
240.717	15.04
240.933	15.95
241.149	16.32
241.365	12.83
241.581	13.77
241.797	12.54
242.013	12.2
242.229	18.54
242.445	20.52
242.661	27.55
242.877	30.73
243.093	31.17
243.309	34.14
243.525	37.43
243.741	41.53
243.957	41.54
244.173	37.24
244.388	32.18
244.604	20.53
244.82	22.7
245.036	19.3
245.252	19.69
245.468	16.71
245.683	14.02
245.899	14.97
246.115	15.55
246.331	15.83
246.547	16.1
246.762	15.51
246.978	17.94
247.194	16.16
247.409	13.27
247.625	12.4
247.841	14.27
248.057	16.87
248.272	14.93
248.488	7.56
248.703	2.98
248.919	11.92
249.135	18.76
249.35	13.08
249.566	13.44
249.782	20.72
249.997	16.32
250.213	16.7
250.428	15.25
250.644	12.11
250.859	17.75
251.075	21.45
251.29	17.58
251.506	15.44
251.721	18.7
251.937	17.07
252.152	21.18
252.368	24.75
252.583	27.77
252.798	25.22
253.014	33.29
253.229	34.52
253.445	30.66
253.66	23.44
253.875	21.58
254.091	24.69
254.306	26.92
254.521	21.77
254.737	21.26
254.952	22.12
255.167	26.08
255.383	18.27
255.598	17.8
255.813	24.31
256.028	28.57
256.244	27.13
256.459	22.71
256.674	20.56
256.889	20.07
257.104	20.87
257.32	15.99
257.535	15.9
257.75	12.74
257.965	11.97
258.18	7.82
258.395	5.44
258.61	6.43
258.826	6.17
259.041	7.53
259.256	6.4
259.471	4.74
259.686	5.59
259.901	4.14
260.116	7.49
260.331	6.26
260.546	7.13
260.761	11.45
260.976	7.09
261.191	9.27
261.406	9.25
261.621	11.78
261.836	16.18
262.05	13.94
262.265	16.48
262.48	22.33
262.695	24.56
262.91	28.39
263.125	30.6
263.34	36.07
263.555	32.44
263.769	32.44
263.984	32.38
264.199	28.43
264.414	25.21
264.629	20.45
264.843	14.24
265.058	14.45
265.273	15.24
265.488	10.58
265.702	11.53
265.917	12.81
266.132	11.25
266.346	10.18
266.561	10.81
266.776	14.88
266.99	14.67
267.205	16.17
267.42	16.36
267.634	13.52
267.849	15.81
268.063	12.78
268.278	12.82
268.492	9.61
268.707	11.66
268.922	12.84
269.136	7.29
269.351	11.66
269.565	11.88
269.78	11.43
269.994	12.26
270.209	10.78
270.423	17.37
270.637	16.08
270.852	15.38
271.066	14.56
271.281	14.97
271.495	17.36
271.709	14.05
271.924	11.43
272.138	12.02
272.353	13.7
272.567	13.47
272.781	7.65
272.996	8.86
273.21	13.6
273.424	11.95
273.638	12.29
273.853	14.02
274.067	16.61
274.281	20.17
274.495	19.1
274.71	17.71
274.924	18.31
275.138	19.6
275.352	15.72
275.566	12.7
275.781	11.64
275.995	11.4
276.209	9.09
276.423	8.84
276.637	7.47
276.851	4.79
277.065	7.11
277.279	7.11
277.493	6.64
277.707	9.92
277.921	7.47
278.135	11.25
278.349	11.94
278.563	13.23
278.777	13.36
278.991	11.55
279.205	15.93
279.419	11.25
279.633	8.01
279.847	8.23
280.061	10.53
280.275	14.47
280.489	14.57
280.703	9.39
280.917	12.29
281.131	12.42
281.344	12.63
281.558	9.16
281.772	9.88
281.986	12.91
282.2	11.12
282.414	9.44
282.627	6.37
282.841	4.01
283.055	4.2
283.269	1.32
283.482	0.46
283.696	3.22
283.91	6.91
284.123	6.3
284.337	3.98
284.551	4.68
284.764	5.36
284.978	7.93
285.192	6.56
285.405	9.29
285.619	6.83
285.833	9.45
286.046	8.17
286.26	5.61
286.473	6.68
286.687	10.48
286.9	13.49
287.114	12.59
287.327	10.81
287.541	12.74
287.754	13.72
287.968	16.24
288.181	11.78
288.395	11.02
288.608	12.68
288.822	12.23
289.035	10.73
289.248	8.28
289.462	7.11
289.675	7.65
289.889	5.88
290.102	5.43
290.315	5.14
290.529	6.77
290.742	7.65
290.955	7.3
291.169	9.79
291.382	10.74
291.595	9.8
291.808	10.57
292.022	9.87
292.235	12.83
292.448	10.99
292.661	10.24
292.875	11.27
293.088	10.49
293.301	10.15
293.514	8.85
293.727	9.15
293.94	8.58
294.153	8.89
294.367	9.84
294.58	9.2
294.793	10.28
295.006	8.42
295.219	7.19
295.432	8.31
295.645	9.01
295.858	8.65
296.071	8.68
296.284	10.3
296.497	12.25
296.71	13.41
296.923	12.82
297.136	13.51
297.349	15.8
297.562	16.19
297.775	13.95
297.988	16.22
298.201	16.36
298.414	16.41
298.626	16.33
298.839	15.8
299.052	14.51
299.265	14.66
299.478	13.54
299.691	12.5
299.903	14.21
300.116	15.35
300.329	11.52
300.542	12.78
300.755	12.76
300.967	12.19
301.18	10.27
301.393	9.02
301.605	9.18
301.818	9.74
302.031	8.8
302.243	8.28
302.456	9.99
302.669	10.68
302.881	9.23
303.094	6.85
303.307	8.13
303.519	9.83
303.732	8.93
303.944	9.19
304.157	9.99
304.37	11.36
304.582	9.22
304.795	9.17
305.007	5.83
305.22	7.12
305.432	9.15
305.645	9.06
305.857	7.52
306.069	10.23
306.282	10.46
306.494	10.25
306.707	7.4
306.919	7.66
307.132	6.19
307.344	9.58
307.556	9.94
307.769	8.58
307.981	7.47
308.193	6.91
308.406	7.35
308.618	7.5
308.83	5.56
309.043	7
309.255	8.29
309.467	7.41
309.679	7.24
309.892	7.51
310.104	9.6
310.316	9.77
310.528	9.38
310.74	8.68
310.953	8.74
311.165	10.92
311.377	11.72
311.589	13.29
311.801	13.28
312.013	12.9
312.225	11.32
312.437	8.2
312.649	10.16
312.862	10.93
313.074	10.18
313.286	8.99
313.498	6.5
313.71	8.04
313.922	7.54
314.134	10.02
314.346	10.57
314.558	11.15
314.77	12.74
314.982	10.02
315.193	8.44
315.405	7.1
315.617	9.23
315.829	9.55
316.041	11.78
316.253	11.78
316.465	11.48
316.677	12.08
316.888	10.77
317.1	13.46
317.312	14.04
317.524	12.79
317.736	14.23
317.947	14.21
318.159	13.42
318.371	7.74
318.583	8.46
318.794	8.84
319.006	10.02
319.218	12.93
319.43	12.04
319.641	13.11
319.853	18.72
320.064	21.72
320.276	20.85
320.488	21.34
320.699	25.75
320.911	23.6
321.123	23.33
321.334	22.24
321.546	22.11
321.757	21.61
321.969	20.6
322.18	19.63
322.392	19.58
322.603	17.3
322.815	17.8
323.026	18.04
323.238	19.97
323.449	18.1
323.661	18.46
323.872	16.81
324.083	16.99
324.295	16.87
324.506	17.07
324.718	15.53
324.929	17.38
325.14	18.86
325.352	16.3
325.563	15.71
325.774	19.59
325.986	18.94
326.197	19.42
326.408	21.47
326.62	21.9
326.831	21.5
327.042	21.61
327.253	21.61
327.464	20.75
327.676	25.76
327.887	24.87
328.098	23.64
328.309	22.9
328.52	23.64
328.732	17.56
328.943	19.49
329.154	19.11
329.365	19.53
329.576	17.9
329.787	17.57
329.998	14
330.209	15.19
330.42	15.18
330.631	17.29
330.842	17.75
331.053	21.3
331.264	20.46
331.475	20.77
331.686	22.36
331.897	24.99
332.108	25.22
332.319	24.74
332.53	23.16
332.741	23.2
332.952	23.05
333.163	25.53
333.374	27.77
333.585	26.38
333.795	27.21
334.006	26.11
334.217	26.59
334.428	27.61
334.639	28.6
334.849	30.36
335.06	27.19
335.271	27.94
335.482	25.5
335.692	23.07
335.903	24.86
336.114	25.29
336.325	25.44
336.535	24.12
336.746	24.23
336.957	23.67
337.167	22.16
337.378	25.71
337.589	23.53
337.799	24.49
338.01	24.31
338.22	23.09
338.431	21.32
338.642	19.13
338.852	18.54
339.063	17.24
339.273	16.06
339.484	17.45
339.694	19
339.905	18.65
340.115	19.57
340.326	20.23
340.536	19.99
340.746	21.12
340.957	21.86
341.167	21.95
341.378	21.98
341.588	23.97
341.799	25.14
342.009	25.34
342.219	26.97
342.43	24
342.64	23.03
342.85	22.63
343.061	21.96
343.271	23.4
343.481	27.07
343.691	27.89
343.902	26.97
344.112	23.99
344.322	22.35
344.532	21
344.743	22.22
344.953	23.91
345.163	26.27
345.373	27.3
345.583	26.26
345.793	21.64
346.004	21.18
346.214	21.78
346.424	24.02
346.634	24.24
346.844	27.48
347.054	28.44
347.264	26.07
347.474	25.4
347.684	22.44
347.894	21.62
348.104	23.32
348.314	22.92
348.524	20.48
348.734	20.37
348.944	19.47
349.154	18.51
349.364	17.78
349.574	18.96
349.784	17.93
349.994	19.07
350.204	20.6
350.413	21.34
350.623	21.09
350.833	23.06
351.043	22.6
351.253	23.44
351.463	23.16
351.672	23.08
351.882	24.02
352.092	25.4
352.302	25.57
352.511	25.85
352.721	24.02
352.931	22.79
353.141	22.42
353.35	20.88
353.56	21.02
353.77	19.85
353.979	20.08
354.189	18.94
354.399	16.78
354.608	17.46
354.818	18.03
355.027	20.12
355.237	21.44
355.447	22.86
355.656	23.52
355.866	23.79
356.075	24.53
356.285	25.57
356.494	27.12
356.704	28.53
356.913	27.85
357.123	26.85
357.332	23.81
357.542	20.79
357.751	18.77
357.96	18.61
358.17	18.9
358.379	18.54
358.589	17.61
358.798	16.75
359.007	16.22
359.217	17.05
359.426	17.54
359.635	21.15
359.845	24.05
360.054	23.9
360.263	23.75
360.472	22.14
360.682	21.99
360.891	22.37
361.1	21.14
361.309	20.33
361.519	19.76
361.728	20.14
361.937	17.9
362.146	18.53
362.355	18.49
362.564	19.43
362.774	19.84
362.983	21.35
363.192	20.7
363.401	21.98
363.61	23.62
363.819	25.65
364.028	24.68
364.237	24.83
364.446	23.55
364.655	24.1
364.864	23.13
365.073	23.43
365.282	21.28
365.491	20.21
365.7	19.6
365.909	19.5
366.118	18.11
366.327	19.02
366.536	20.34
366.745	19.46
366.954	20.42
367.162	22.05
367.371	21.05
367.58	22.12
367.789	23.46
367.998	23.23
368.207	22.74
368.415	22.42
368.624	20.85
368.833	20.31
369.042	20.39
369.25	19.48
369.459	19.2
369.668	21.58
369.877	22.08
370.085	20.77
370.294	21.24
370.503	21.58
370.711	22.74
370.92	24.18
371.129	24.98
371.337	25.46
371.546	24.45
371.754	25.11
371.963	24.67
372.171	24.69
372.38	25.95
372.589	26.97
372.797	26.83
373.006	25.89
373.214	25.01
373.423	24.94
373.631	25.35
373.84	26.07
374.048	25.1
374.256	24.83
374.465	23.49
374.673	24.4
374.882	22.81
375.09	21.74
375.298	20.28
375.507	21.23
375.715	20.93
375.923	22.46
376.132	22.69
376.34	21.91
376.548	21.83
376.757	22.49
376.965	23.34
377.173	24.94
377.381	26.09
377.59	27.31
377.798	27.29
378.006	25.85
378.214	24.51
378.423	24.37
378.631	25.16
378.839	24.89
379.047	24.81
379.255	22.2
379.463	20.89
379.671	20.86
379.879	21.83
380.088	21.72
380.296	23.02
380.504	22.73
380.712	23.21
380.92	21.89
381.128	21.84
381.336	21.1
381.544	20.82
381.752	19.95
381.96	20.36
382.168	18.82
382.376	18.58
382.584	18.08
382.791	17.85
382.999	16.75
383.207	18.17
383.415	18.09
383.623	18.22
383.831	19.1
384.039	19.83
384.247	19.35
384.454	19.03
384.662	19.85
384.87	20.51
385.078	20.73
385.285	20.51
385.493	20.46
385.701	20.23
385.909	20.78
386.116	21.56
386.324	22.9
386.532	22.51
386.739	23.1
386.947	22.23
387.155	22.73
387.362	23.8
387.57	24.87
387.778	25.08
387.985	25.21
388.193	25.26
388.4	23.55
388.608	22.43
388.816	22.57
389.023	23.57
389.231	23.1
389.438	22.46
389.646	22.91
389.853	21.74
390.061	21.81
390.268	22.57
390.475	22.05
390.683	22.71
390.89	22.22
391.098	21.98
391.305	21.04
391.512	21.59
391.72	22.59
391.927	21.63
392.135	22.54
392.342	22.24
392.549	22.11
392.756	21.29
392.964	21.43
393.171	21.78
393.378	21.33
393.586	22.18
393.793	21.85
394	20.8
394.207	20.21
394.414	20.85
394.622	20.71
394.829	19.72
395.036	20.49
395.243	20.51
395.45	20.32
395.657	21.62
395.864	20.55
396.072	20.05
396.279	19
396.486	20.5
396.693	19.99
396.9	19.9
397.107	21.16
397.314	21.89
397.521	21.44
397.728	20.86
397.935	20.88
398.142	21.6
398.349	22.61
398.556	23.86
398.763	23.29
398.97	23.42
399.177	23.93
399.383	23.17
399.59	22.65
399.797	22.94
400.004	25.14
400.211	24.91
400.418	24.86
400.625	24.21
400.831	24.3
401.038	23.86
401.245	25.32
401.452	24.93
401.658	25.1
401.865	25.44
402.072	25.21
402.279	24.14
402.485	24.08
402.692	22.94
402.899	23.19
403.105	22.28
403.312	22.76
403.519	20.79
403.725	21.07
403.932	21.28
404.138	21.78
404.345	22.14
404.552	22.74
404.758	23.13
404.965	24.33
405.171	24.67
405.378	25.7
405.584	25.83
405.791	26.12
405.997	26.08
406.204	26.15
406.41	25.33
406.617	25.35
406.823	25.26
407.029	25.16
407.236	24.87
407.442	24.55
407.649	23.71
407.855	22.72
408.061	23.84
408.268	23.91
408.474	24.53
408.68	25.39
408.887	25.51
409.093	24.91
409.299	24.17
409.505	24.43
409.712	24.72
409.918	24.53
410.124	25.43
410.33	25
410.537	24.47
410.743	24.14
410.949	23.69
411.155	23.66
411.361	23.65
411.567	24.58
411.773	25.67
411.98	25.93
412.186	26.64
412.392	25.66
412.598	26.35
412.804	26.44
413.01	26.05
413.216	25.8
413.422	26.88
413.628	27.13
413.834	27.32
414.04	26.2
414.246	25.28
414.452	25.06
414.658	25.39
414.864	24.05
415.07	25.48
415.275	25.56
415.481	25.75
415.687	24.64
415.893	24.69
416.099	23.99
416.305	23.48
416.511	23.7
416.716	24.52
416.922	24.65
417.128	25.39
417.334	24.47
417.539	24.65
417.745	24.95
417.951	24.85
418.157	24.46
418.362	24.15
418.568	24.13
418.774	23.56
418.979	22.86
419.185	22.53
419.391	21.48
419.596	21.88
419.802	21.26
420.008	21.32
420.213	21.52
420.419	21.69
420.624	21.84
420.83	22.07
421.035	23.04
421.241	22.9
421.446	23.16
421.652	24.1
421.857	23.56
422.063	23.47
422.268	23.09
422.474	22.55
422.679	22.86
422.885	22.78
423.09	22.57
423.295	22.01
423.501	21.84
423.706	21.87
423.911	21.27
424.117	21.63
424.322	21.81
424.527	21.92
424.733	22.52
424.938	21.9
425.143	22.53
425.349	23.04
425.554	23.14
425.759	24.14
425.964	24.06
426.169	24.65
426.375	24.17
426.58	24.47
426.785	24.77
426.99	24.86
427.195	24.84
427.4	24.9
427.605	24.95
427.811	25.38
428.016	24.74
428.221	25.07
428.426	25.04
428.631	25.3
428.836	25.59
429.041	25.13
429.246	25.06
429.451	25.28
429.656	25.12
429.861	24.82
430.066	24.29
430.271	24.25
430.476	24.55
430.681	24.47
430.886	24.6
431.09	23.85
431.295	24.43
431.5	24.66
431.705	24.89
431.91	24.49
432.115	24.48
432.32	24.31
432.524	24.47
432.729	24.46
432.934	24.91
433.139	24.81
433.343	25
433.548	24.67
433.753	25.03
433.958	25.14
434.162	24.91
434.367	24.35
434.572	24.82
434.776	24.9
434.981	24.98
435.186	24.62
435.39	25.26
435.595	25.65
435.799	25.69
436.004	25.21
436.209	25.2
436.413	25.24
436.618	25.73
436.822	25.72
437.027	26.05
437.231	25.43
437.436	25.59
437.64	25.08
437.845	25.05
438.049	24.98
438.253	24.73
438.458	24.8
438.662	25.77
438.867	25.8
439.071	25.63
439.275	25.08
439.48	25.83
439.684	25.81
439.888	25.71
440.093	25.72
440.297	25.67
440.501	25.81
440.706	25.39
440.91	24.79
441.114	24.63
441.318	24.78
441.523	25.24
441.727	24.5
441.931	24.57
442.135	24.49
442.339	25.02
442.543	24.71
442.748	24.39
442.952	24.88
443.156	24.85
443.36	24.77
443.564	24.75
443.768	24.56
443.972	24.88
444.176	24.78
444.38	25.17
444.584	24.39
444.788	24.26
444.992	24.35
445.196	24.34
445.4	24.49
445.604	24.55
445.808	24.52
446.012	24.36
446.216	23.79
446.42	23.81
446.624	23.44
446.828	23.92
447.032	23.96
447.235	24.01
447.439	23.6
447.643	23.6
447.847	23.84
448.051	23.56
448.254	23.85
448.458	24.44
448.662	24.3
448.866	24.36
449.069	24.19
449.273	24.33
449.477	24.2
449.681	24.96
449.884	24.99
450.088	24.83
450.292	24.95
450.495	24.6
450.699	24.28
450.902	23.95
451.106	23.98
451.31	24.34
451.513	25.17
451.717	25.38
451.92	25.16
452.124	24.6
452.327	24.35
452.531	24.53
452.734	23.91
452.938	24.06
453.141	23.87
453.345	24.29
453.548	23.85
453.752	23.18
453.955	23.52
454.158	23.87
454.362	24.41
454.565	24.83
454.769	24.73
454.972	24.91
455.175	24.63
455.379	25.5
455.582	25.27
