Data from JASIL_3142_Reflection_1.txt Node
Date: Thu Nov 12 21:00:24 EST 2015
User: Geneva
Spectrometer: USB4E03002
Autoset integration time: false
Trigger mode: 4
Integration Time (sec): 1.000000E-1
Scans to average: 10
Electric dark correction enabled: true
Nonlinearity correction enabled: false
Boxcar width: 5
Stray light correction enabled: false
XAxis mode: Wavelengths
Stop averaging: false
Number of Pixels in Spectrum: 3648
>>>>>Begin Spectral Data<<<<<
177.575	182.37
177.794	113.87
178.014	24.15
178.233	-57.34
178.452	-15.38
178.672	-76.07
178.891	188.13
179.11	37.79
179.33	28.7
179.549	20.98
179.768	6.15
179.987	175.42
180.207	-7357.69
180.426	204.19
180.645	225.09
180.864	194.69
181.084	147.03
181.303	213.7
181.522	222.54
181.741	204.03
181.96	268.44
182.179	293.73
182.398	312.28
182.618	176.24
182.837	307.46
183.056	663.4
183.275	-1490.38
183.494	848.64
183.713	296.12
183.932	345.22
184.151	465.33
184.37	278.27
184.589	322.2
184.808	607.21
185.027	817.87
185.246	440.47
185.465	-537.36
185.684	489.08
185.903	-291.66
186.122	-167.86
186.341	-262.35
186.56	-199.61
186.779	-66.7
186.998	-1.33
187.216	28.93
187.435	-25.77
187.654	-61.44
187.873	-18557.69
188.092	-203.88
188.311	331.89
188.53	-585.31
188.748	20.37
188.967	97.51
189.186	88.07
189.405	106.36
189.623	339.53
189.842	-31.62
190.061	18.25
190.28	1.13
190.498	-22.48
190.717	-21.05
190.936	-45.94
191.154	-121.38
191.373	-218.62
191.592	-496.18
191.81	-224.87
192.029	-346.07
192.248	-507.57
192.466	1724.09
192.685	16003.85
192.904	2939.74
193.122	358.99
193.341	314.64
193.559	149.19
193.778	141.62
193.996	183.93
194.215	256.54
194.433	270.15
194.652	337.98
194.87	335.12
195.089	356.02
195.307	236.23
195.526	302.44
195.744	494.48
195.963	-3489.14
196.181	958.42
196.399	600.13
196.618	331.2
196.836	285.5
197.055	162.37
197.273	159.35
197.491	140.51
197.71	149.52
197.928	125.96
198.146	118.67
198.365	119.05
198.583	127.95
198.801	135.96
199.019	132.52
199.238	129.84
199.456	137.72
199.674	134.17
199.892	136.5
200.111	136.62
200.329	156.8
200.547	159.82
200.765	151.3
200.983	116.23
201.202	116.26
201.42	89.56
201.638	85.63
201.856	106.73
202.074	99.4
202.292	953.85
202.51	-4.48
202.728	25.11
202.946	37.88
203.165	18.07
203.383	41.96
203.601	66.95
203.819	39.09
204.037	-27.37
204.255	-85.08
204.473	-224.15
204.691	-329.58
204.909	182.05
205.127	174.34
205.345	195
205.562	246.03
205.78	1285.21
205.998	-2000.96
206.216	674.18
206.434	-164.3
206.652	35.3
206.87	29.38
207.088	2.62
207.306	30.02
207.523	456.83
207.741	-856.41
207.959	750.81
208.177	-24084.62
208.395	-96.45
208.612	-39.77
208.83	54.88
209.048	63.06
209.266	58.62
209.483	70.25
209.701	122.8
209.919	137.07
210.136	149.36
210.354	150.03
210.572	155.85
210.79	224.32
211.007	255.91
211.225	212.85
211.442	440.55
211.66	1234.62
211.878	-2593.85
212.095	-223.43
212.313	-182.54
212.53	-265.51
212.748	-600.97
212.966	-380.11
213.183	-199.56
213.401	-12.87
213.618	-18.85
213.836	-6.32
214.053	24.47
214.271	49.45
214.488	55.08
214.705	94.79
214.923	1615.38
215.14	-68.47
215.358	54.24
215.575	38.58
215.793	83.58
216.01	89.06
216.227	128.04
216.445	96.47
216.662	60.76
216.879	141.08
217.097	-310.37
217.314	-1379.81
217.531	-86.69
217.749	10.96
217.966	3.43
218.183	-10.62
218.4	-650.64
218.618	81
218.835	108.16
219.052	78.9
219.269	56.13
219.487	42.82
219.704	63.5
219.921	74.94
220.138	74.44
220.355	74.96
220.572	93.07
220.79	97.73
221.007	154.39
221.224	140.92
221.441	170.73
221.658	200.78
221.875	174.2
222.092	183.61
222.309	173.94
222.526	209.53
222.743	181.24
222.96	186.86
223.177	156.61
223.394	143.1
223.611	227.05
223.828	38715.38
224.045	211.43
224.262	-1692.9
224.479	491.49
224.696	4562.72
224.913	-335.04
225.13	-350.44
225.347	-274.04
225.564	-719.96
225.781	-781.1
225.997	-363.38
226.214	-261.19
226.431	-76.29
226.648	-103.95
226.865	-61.33
227.082	-49.17
227.298	-55.72
227.515	-37.91
227.732	-30.22
227.949	1.57
228.165	-4.23
228.382	-10.53
228.599	-13.99
228.816	-19.51
229.032	-23.83
229.249	-19.88
229.466	-22.34
229.682	-19.97
229.899	-37.42
230.116	-27.99
230.332	-32.07
230.549	-41.82
230.765	-50.74
230.982	-49.06
231.199	-66.42
231.415	-73.89
231.632	-64.35
231.848	-56.36
232.065	-70.44
232.281	-46
232.498	-51.89
232.714	-72.99
232.931	-39.34
233.147	-28.01
233.364	-35.2
233.58	-31.14
233.797	-18.53
234.013	-9.34
234.23	-17.46
234.446	-10.43
234.662	-18.66
234.879	-19.6
235.095	-25.45
235.312	-23.9
235.528	-46.34
235.744	-37.52
235.961	-33.58
236.177	-41.7
236.393	-88.46
236.61	-76.64
236.826	-102.1
237.042	-76.56
237.258	-98.02
237.475	-90.16
237.691	-139.03
237.907	-91.7
238.123	-95.33
238.339	-86.06
238.556	-81.46
238.772	-76.04
238.988	-71.46
239.204	-53.54
239.42	-41.35
239.636	-45.67
239.853	-47.46
240.069	-26.81
240.285	-14.84
240.501	-15.54
240.717	-22.18
240.933	-17.9
241.149	-14
241.365	-5.85
241.581	-4.84
241.797	-7.25
242.013	2.35
242.229	6.83
242.445	8.64
242.661	3.08
242.877	11.3
243.093	14.21
243.309	16.4
243.525	19.67
243.741	16.7
243.957	14.56
244.173	12.44
244.388	7.51
244.604	6.12
244.82	2.18
245.036	3.1
245.252	-5.52
245.468	-5.59
245.683	-9.37
245.899	-14.01
246.115	-16.51
246.331	-14.04
246.547	-13.75
246.762	-15.97
246.978	-16.31
247.194	-16.16
247.409	-15.33
247.625	-13.58
247.841	-12.14
248.057	-9.71
248.272	-8.12
248.488	-7.24
248.703	-6.4
248.919	-6.71
249.135	-9.92
249.35	-6.19
249.566	-12.84
249.782	-13.36
249.997	-9.08
250.213	-11.13
250.428	-8.33
250.644	-4.49
250.859	0.81
251.075	-1.95
251.29	-3.98
251.506	3.75
251.721	2.4
251.937	3.16
252.152	2.25
252.368	0.69
252.583	-5.73
252.798	-5.61
253.014	-7.56
253.229	-12.4
253.445	-10.41
253.66	-6.11
253.875	-7.82
254.091	-18.69
254.306	-9.68
254.521	-12.86
254.737	-19.23
254.952	-13.03
255.167	-18.38
255.383	-20.46
255.598	-12.72
255.813	-15.96
256.028	-18.01
256.244	-25.82
256.459	-10.82
256.674	-18.79
256.889	-16.21
257.104	-12.36
257.32	-12.09
257.535	-8.21
257.75	-3.14
257.965	-2.32
258.18	2.74
258.395	3.6
258.61	4.89
258.826	1.86
259.041	3.12
259.256	1.92
259.471	1.5
259.686	1.46
259.901	-1.39
260.116	-2.46
260.331	-2.47
260.546	-6.39
260.761	-9.34
260.976	-11.24
261.191	-12.08
261.406	-16.12
261.621	-15.59
261.836	-14.1
262.05	-14.83
262.265	-10.36
262.48	-11.28
262.695	-18.79
262.91	-15.03
263.125	-10.37
263.34	-10.43
263.555	-2.83
263.769	2.66
263.984	3.83
264.199	-0.96
264.414	3.74
264.629	4.57
264.843	3.67
265.058	6.93
265.273	5.29
265.488	7.1
265.702	11.87
265.917	9.96
266.132	6.86
266.346	5.65
266.561	5.82
266.776	2.87
266.99	4.19
267.205	2.28
267.42	-1.67
267.634	3.37
267.849	-1.44
268.063	-7.46
268.278	-7.28
268.492	-4.75
268.707	-4.74
268.922	-2.49
269.136	0.75
269.351	-2
269.565	0.37
269.78	1.35
269.994	-2.83
270.209	-2.21
270.423	1.36
270.637	1.22
270.852	-4.2
271.066	-2.77
271.281	0.47
271.495	-0.25
271.709	1.82
271.924	-0.24
272.138	0.27
272.353	2.58
272.567	2.43
272.781	3.64
272.996	3.42
273.21	5.11
273.424	4.19
273.638	2.78
273.853	5.49
274.067	3.65
274.281	5.26
274.495	4.91
274.71	-0.1
274.924	-1.2
275.138	-4.05
275.352	-6.07
275.566	-2.24
275.781	-5.6
275.995	-6.71
276.209	-12.34
276.423	-11.8
276.637	-11.14
276.851	-11.03
277.065	-5.47
277.279	-5.24
277.493	-1.9
277.707	0.09
277.921	-5.96
278.135	-2.89
278.349	-3.84
278.563	-2.25
278.777	-2.17
278.991	-5.52
279.205	-5.97
279.419	-4.65
279.633	-3.52
279.847	-6.9
280.061	-7.03
280.275	-4.75
280.489	-4.92
280.703	-4.08
280.917	-6.84
281.131	-8.01
281.344	-7.09
281.558	-8.8
281.772	-15.23
281.986	-14.44
282.2	-14.72
282.414	-13.72
282.627	-11.6
282.841	-8.86
283.055	-9.79
283.269	-8.37
283.482	-8.29
283.696	-4.72
283.91	-2.62
284.123	-4.53
284.337	-5.18
284.551	-6.05
284.764	-6.92
284.978	-6.74
285.192	-11.07
285.405	-9.54
285.619	-9.86
285.833	-7.77
286.046	-9.65
286.26	-5.98
286.473	-2.98
286.687	-4.72
286.9	-2.63
287.114	-2.39
287.327	-1.09
287.541	-0.37
287.754	-1.72
287.968	-1.39
288.181	-1.56
288.395	0.9
288.608	-3.34
288.822	-3.17
289.035	-0.67
289.248	0.65
289.462	2.22
289.675	-1.85
289.889	-1.03
290.102	1.09
290.315	2.14
290.529	1.18
290.742	-1.1
290.955	-0.82
291.169	-0.85
291.382	-1.53
291.595	-5.37
291.808	-4.39
292.022	-1.03
292.235	3.85
292.448	2.79
292.661	1.95
292.875	0.8
293.088	-1.67
293.301	-0.08
293.514	0.18
293.727	0.82
293.94	3.46
294.153	3.12
294.367	1.92
294.58	-2
294.793	-1.03
295.006	0.26
295.219	0.7
295.432	2.98
295.645	2.35
295.858	2.93
296.071	1.47
296.284	0.25
296.497	-2.3
296.71	-2.18
296.923	-1.65
297.136	-2.91
297.349	-3.45
297.562	-2.39
297.775	-3.28
297.988	-2.46
298.201	-3.52
298.414	-3.43
298.626	-3.68
298.839	-1.7
299.052	-0.56
299.265	0.59
299.478	1.08
299.691	0.84
299.903	-0.67
300.116	-0.25
300.329	1.21
300.542	2.61
300.755	3.2
300.967	4.19
301.18	3.44
301.393	0.27
301.605	-0.75
301.818	-3.61
302.031	-5.54
302.243	-2.41
302.456	-2.61
302.669	-3.77
302.881	-5.44
303.094	-4.17
303.307	-4.12
303.519	-2.4
303.732	-0.03
303.944	-1.33
304.157	0.17
304.37	1.96
304.582	0.42
304.795	0.26
305.007	-2.06
305.22	-3.47
305.432	-5
305.645	-8.86
305.857	-11.55
306.069	-11.25
306.282	-11
306.494	-9.99
306.707	-8.67
306.919	-9.62
307.132	-9.6
307.344	-8.12
307.556	-7.37
307.769	-5.53
307.981	-0.85
308.193	1.15
308.406	1.45
308.618	3.15
308.83	5.51
309.043	6.15
309.255	6.42
309.467	7.66
309.679	7.82
309.892	7.97
310.104	8.89
310.316	8.14
310.528	8.62
310.74	8.25
310.953	7.32
311.165	5.52
311.377	5.19
311.589	6.97
311.801	8.01
312.013	7.43
312.225	8.89
312.437	7.54
312.649	8.3
312.862	8.33
313.074	8.68
313.286	11.06
313.498	8.47
313.71	8.78
313.922	7.89
314.134	5.75
314.346	6.53
314.558	6.24
314.77	6.8
314.982	6.19
315.193	5.47
315.405	4.84
315.617	3.35
315.829	7.47
316.041	6.02
316.253	5.19
316.465	2.22
316.677	1.62
316.888	0.77
317.1	1.93
317.312	1.25
317.524	-1.49
317.736	1.15
317.947	2.82
318.159	4.34
318.371	4.49
318.583	3.57
318.794	6.17
319.006	6.74
319.218	6.86
319.43	5.87
319.641	7.48
319.853	8.29
320.064	6.9
320.276	3.58
320.488	1.52
320.699	1.93
320.911	1.75
321.123	4.72
321.334	1.62
321.546	2.09
321.757	3.96
321.969	1.33
322.18	3.69
322.392	2.46
322.603	4.52
322.815	7.39
323.026	8.01
323.238	10.34
323.449	8.34
323.661	10.59
323.872	10.27
324.083	9.9
324.295	11.22
324.506	7.83
324.718	7.86
324.929	4.8
325.14	4.35
325.352	3.26
325.563	1.03
325.774	2.55
325.986	3.53
326.197	2.66
326.408	1.95
326.62	-0.54
326.831	2.43
327.042	5.44
327.253	8.47
327.464	6.38
327.676	5.85
327.887	5.95
328.098	7.14
328.309	7.68
328.52	10.23
328.732	10.39
328.943	11.64
329.154	10.05
329.365	8.22
329.576	8.15
329.787	8.6
329.998	9.38
330.209	10.84
330.42	9.84
330.631	5.84
330.842	5.57
331.053	5.2
331.264	6.85
331.475	9.8
331.686	9.1
331.897	6.91
332.108	5.25
332.319	2.89
332.53	4.32
332.741	5.32
332.952	9.81
333.163	7.07
333.374	6.74
333.585	6.92
333.795	4.39
334.006	4.64
334.217	6.7
334.428	10.45
334.639	11.66
334.849	7.03
335.06	2.75
335.271	2.27
335.482	3.76
335.692	5.27
335.903	7.16
336.114	9.58
336.325	9.76
336.535	11.26
336.746	8.08
336.957	8.79
337.167	10.85
337.378	13.74
337.589	12.37
337.799	12.9
338.01	10.94
338.22	7.22
338.431	5.95
338.642	4.24
338.852	1.12
339.063	4.1
339.273	3.32
339.484	7.32
339.694	7.42
339.905	6.03
340.115	7.42
340.326	8.41
340.536	10.7
340.746	11.3
340.957	13.01
341.167	16.46
341.378	14.78
341.588	13.01
341.799	12.02
342.009	11.28
342.219	14.13
342.43	12.68
342.64	10.74
342.85	9.95
343.061	10.16
343.271	9.96
343.481	8.66
343.691	8.41
343.902	11.19
344.112	10.41
344.322	10.17
344.532	10.23
344.743	10
344.953	10.39
345.163	11.59
345.373	10.94
345.583	12.03
345.793	10.56
346.004	10.4
346.214	10.89
346.424	10.54
346.634	11.92
346.844	12.15
347.054	12.26
347.264	13.37
347.474	10.77
347.684	11.7
347.894	12.28
348.104	12.82
348.314	12.49
348.524	12.24
348.734	10.72
348.944	11.17
349.154	8.9
349.364	10.69
349.574	10.2
349.784	11.69
349.994	11.38
350.204	10.21
350.413	8.45
350.623	11.48
350.833	11.39
351.043	11.67
351.253	11.57
351.463	13.91
351.672	11.9
351.882	13.4
352.092	11.84
352.302	11.91
352.511	12.71
352.721	15.03
352.931	13.71
353.141	13.38
353.35	15.82
353.56	13.84
353.77	13.04
353.979	13.64
354.189	14.02
354.399	14.45
354.608	13.54
354.818	13.2
355.027	12.44
355.237	10.97
355.447	12.15
355.656	11.35
355.866	13.42
356.075	13.45
356.285	13.21
356.494	11.77
356.704	11.73
356.913	11.81
357.123	12.36
357.332	11.88
357.542	13.74
357.751	12.25
357.96	11.41
358.17	10.41
358.379	9.91
358.589	10.74
358.798	10.57
359.007	10.44
359.217	12.06
359.426	11.89
359.635	12.81
359.845	12.26
360.054	13.09
360.263	13.3
360.472	12.63
360.682	12.56
360.891	11.86
361.1	11.81
361.309	12.23
361.519	11.35
361.728	9.79
361.937	9.73
362.146	8.74
362.355	7.9
362.564	7.22
362.774	6.77
362.983	7.21
363.192	6.5
363.401	7.52
363.61	6.84
363.819	8.07
364.028	8.79
364.237	8.73
364.446	9.13
364.655	9.55
364.864	10.93
365.073	11.42
365.282	9.89
365.491	10.15
365.7	10.49
365.909	11.36
366.118	9.14
366.327	9.58
366.536	9.51
366.745	7.44
366.954	8.35
367.162	7.19
367.371	7.74
367.58	9.6
367.789	8.97
367.998	7.01
368.207	7.52
368.415	10.34
368.624	9.96
368.833	11.26
369.042	14
369.25	13.63
369.459	13.76
369.668	14.08
369.877	12.9
370.085	14.07
370.294	14.99
370.503	14.33
370.711	12.87
370.92	12.16
371.129	11.73
371.337	11
371.546	9.62
371.754	10.14
371.963	9.29
372.171	9.7
372.38	9.29
372.589	10.29
372.797	10.79
373.006	10.07
373.214	11.93
373.423	10.78
373.631	10.81
373.84	11.71
374.048	10.19
374.256	10.86
374.465	11.67
374.673	13.02
374.882	12.67
375.09	13.23
375.298	13.12
375.507	12.77
375.715	14.08
375.923	12.99
376.132	13.38
376.34	13.84
376.548	13.65
376.757	13.01
376.965	11.81
377.173	10.9
377.381	10.62
377.59	10.15
377.798	8.69
378.006	8.12
378.214	10.27
378.423	10.1
378.631	10.44
378.839	11.99
379.047	12.23
379.255	11.6
379.463	11.89
379.671	10.59
379.879	11.54
380.088	12.2
380.296	11.66
380.504	9.63
380.712	9.26
380.92	10.03
381.128	8.64
381.336	8.92
381.544	10.03
381.752	9.31
381.96	9.57
382.168	10.17
382.376	10.49
382.584	10.42
382.791	10.62
382.999	10.59
383.207	10.78
383.415	11.38
383.623	10.02
383.831	9.58
384.039	9.38
384.247	8.37
384.454	7.37
384.662	7.71
384.87	7.39
385.078	7.38
385.285	6.56
385.493	5.91
385.701	3.48
385.909	3.66
386.116	5.82
386.324	6.94
386.532	8.53
386.739	8.86
386.947	8.21
387.155	8.85
387.362	9.6
387.57	10.26
387.778	11.09
387.985	11.99
388.193	12.95
388.4	9.16
388.608	8.43
388.816	8.66
389.023	7.49
389.231	7.31
389.438	7.47
389.646	7.89
389.853	6.84
390.061	7.33
390.268	7.52
390.475	8.63
390.683	11.27
390.89	11.9
391.098	11.98
391.305	12.64
391.512	13.19
391.72	12.18
391.927	12.12
392.135	12.25
392.342	11.34
392.549	11.88
392.756	9.9
392.964	10.31
393.171	9.81
393.378	9.3
393.586	10.25
393.793	10.27
394	10.82
394.207	11.2
394.414	11.88
394.622	11.29
394.829	11.81
395.036	10.84
395.243	9.21
395.45	9.47
395.657	10.2
395.864	9.64
396.072	9.35
396.279	10.09
396.486	9.66
396.693	8.7
396.9	8.42
397.107	8.28
397.314	10.44
397.521	11.08
397.728	10.69
397.935	8.83
398.142	8.96
398.349	10.1
398.556	8.74
398.763	8.81
398.97	10.48
399.177	11.75
399.383	10.73
399.59	10.14
399.797	10.35
400.004	10.62
400.211	12.21
400.418	11.85
400.625	11.46
400.831	13.12
401.038	13.73
401.245	13.4
401.452	13.52
401.658	14.21
401.865	14.48
402.072	14.54
402.279	14.87
402.485	14.53
402.692	14.96
402.899	14.71
403.105	13.4
403.312	13.07
403.519	13.18
403.725	11
403.932	10.37
404.138	11.43
404.345	11.03
404.552	11.18
404.758	11.42
404.965	11.62
405.171	11.08
405.378	11.27
405.584	10.28
405.791	9.46
405.997	11.44
406.204	11.88
406.41	10.58
406.617	10.9
406.823	10.48
407.029	9.71
407.236	9.24
407.442	9.64
407.649	11.07
407.855	11.14
408.061	11.25
408.268	10.16
408.474	9.84
408.68	10.11
408.887	10.04
409.093	10.25
409.299	11.13
409.505	10.25
409.712	10.22
409.918	8.32
410.124	8.68
410.33	9.1
410.537	10.56
410.743	11.43
410.949	11.21
411.155	10.73
411.361	9.56
411.567	9.73
411.773	10.68
411.98	10.75
412.186	11.29
412.392	12.34
412.598	13.07
412.804	11.84
413.01	11.25
413.216	11.69
413.422	12.36
413.628	13.54
413.834	13.32
414.04	13.55
414.246	13.56
414.452	14.21
414.658	13.05
414.864	11.9
415.07	12.72
415.275	12.59
415.481	12.79
415.687	13.09
415.893	12.77
416.099	12.73
416.305	12.38
416.511	12.16
416.716	12.11
416.922	13.28
417.128	13.95
417.334	13.83
417.539	13.71
417.745	13.56
417.951	13.27
418.157	13.74
418.362	13.85
418.568	14.05
418.774	14.36
418.979	14.28
419.185	13.96
419.391	13.5
419.596	13.61
419.802	13.68
420.008	13.46
420.213	17.65
420.419	17.06
420.624	16.77
420.83	16.46
421.035	16.44
421.241	16.25
421.446	16.07
421.652	16.3
421.857	15.87
422.063	15.83
422.268	15.96
422.474	11.65
422.679	12.14
422.885	11.91
423.09	12.01
423.295	11.79
423.501	12.1
423.706	12.32
423.911	12.08
424.117	12.74
424.322	12.69
424.527	12.98
424.733	13.2
424.938	13.17
425.143	13.15
425.349	13.12
425.554	13.57
425.759	13.03
425.964	12.64
426.169	12.59
426.375	11.91
426.58	12.08
426.785	11.39
426.99	11.26
427.195	10.57
427.4	11.05
427.605	11.43
427.811	10.74
428.016	10.85
428.221	10.65
428.426	11.36
428.631	11.99
428.836	11.68
429.041	12.35
429.246	12.46
429.451	13.23
429.656	13.29
429.861	13.24
430.066	12.85
430.271	12.46
430.476	12.5
430.681	12.33
430.886	11.93
431.09	12.27
431.295	12.03
431.5	12.32
431.705	12.31
431.91	12.15
432.115	12.19
432.32	12.55
432.524	13.01
432.729	13.04
432.934	12.7
433.139	12.9
433.343	13.17
433.548	13.18
433.753	12.52
433.958	12.29
434.162	12.44
434.367	12.2
434.572	11.99
434.776	12.23
434.981	12.01
435.186	12.85
435.39	12.77
435.595	12.5
435.799	11.91
436.004	12.65
436.209	12.45
436.413	11.84
436.618	11.87
436.822	12.4
437.027	12.66
437.231	12.16
437.436	11.4
437.64	12.19
437.845	12.1
438.049	12.4
438.253	12.13
438.458	12.19
438.662	12.32
438.867	12.14
439.071	12.03
439.275	12.05
439.48	12.6
439.684	12.6
439.888	11.66
440.093	11.28
440.297	11.45
440.501	11.59
440.706	11.29
440.91	11.53
441.114	11.7
441.318	11.7
441.523	11.8
441.727	12.24
441.931	11.81
442.135	12.28
442.339	12.92
442.543	13.1
442.748	12.3
442.952	12.45
443.156	12.55
443.36	12.47
443.564	12.57
443.768	11.8
443.972	11.59
444.176	12.23
444.38	11.69
444.584	11.64
444.788	10.78
444.992	11.27
445.196	11.44
445.4	11.24
445.604	11.6
445.808	11.35
446.012	11.62
446.216	11.49
446.42	11.15
446.624	11.77
446.828	11.6
447.032	11.68
447.235	11.4
447.439	11.24
447.643	11.54
447.847	11.33
448.051	11.28
448.254	11.1
448.458	10.59
448.662	11.09
448.866	10.6
449.069	11.22
449.273	11.67
449.477	11.89
449.681	11.85
449.884	11.31
450.088	10.86
450.292	11.33
450.495	12.17
450.699	12.8
450.902	13.13
451.106	12.69
451.31	12.26
451.513	12.37
451.717	12.44
451.92	12.42
452.124	12.63
452.327	12.66
452.531	12.17
452.734	11.4
452.938	11.66
453.141	11.4
453.345	12.33
453.548	11.92
453.752	12.17
453.955	12.34
454.158	12.73
454.362	12.42
454.565	13.06
454.769	13.29
454.972	13.88
455.175	13.57
455.379	13.03
455.582	12.9
455.785	12.4
455.988	11.67
456.192	11.82
456.395	11.67
456.598	11.71
456.801	10.94
