Data from JASIL_3054_Reflection_02.txt Node
Date: Mon Nov 09 11:23:57 EST 2015
User: Geneva
Spectrometer: USB4E03002
Autoset integration time: false
Trigger mode: 4
Integration Time (sec): 1.000000E-1
Scans to average: 10
Electric dark correction enabled: false
Nonlinearity correction enabled: false
Boxcar width: 5
Stray light correction enabled: false
XAxis mode: Wavelengths
Stop averaging: false
Number of Pixels in Spectrum: 3648
>>>>>Begin Spectral Data<<<<<
177.575	-200
177.794	-80.49
178.014	-13.92
178.233	22.35
178.452	27.34
178.672	35.74
178.891	59.31
179.11	69.28
179.33	67.56
179.549	98.44
179.768	86.71
179.987	75.61
180.207	91.07
180.426	195.97
180.645	-177.03
180.864	-84.48
181.084	121.74
181.303	112.12
181.522	-137.5
181.741	119.12
181.96	-166.22
182.179	712.5
182.398	137.27
182.618	290.09
182.837	1805
183.056	284.44
183.275	178.43
183.494	142.48
183.713	158.71
183.932	135.65
184.151	136.02
184.37	94.41
184.589	183.87
184.808	124.46
185.027	-108.64
185.246	-151.47
185.465	136.19
185.684	25
185.903	75.24
186.122	79.72
186.341	37.5
186.56	-105.93
186.779	-22.08
186.998	-452.78
187.216	-153.66
187.435	-149.59
187.654	-95.54
187.873	-710.81
188.092	-89.43
188.311	-83.87
188.53	-85.64
188.748	-25.39
188.967	32.17
189.186	-38.46
189.405	-800
189.623	-247.37
189.842	58.76
190.061	-6.78
190.28	-16.11
190.498	-302.56
190.717	-527.03
190.936	195.15
191.154	78.31
191.373	54.06
191.592	77.21
191.81	182.49
192.029	116.94
192.248	99.05
192.466	129.13
192.685	41.8
192.904	28.72
193.122	52.15
193.341	37.8
193.559	95.56
193.778	-622.22
193.996	-5.11
194.215	27.78
194.433	29.36
194.652	-102.41
194.87	40.26
195.089	48.8
195.307	57.22
195.526	-53.03
195.744	-342.31
195.963	-132.63
196.181	-79.03
196.399	-176.97
196.618	-224.35
196.836	-840.48
197.055	301.39
197.273	435.44
197.491	481.48
197.71	252.19
197.928	377.14
198.146	550
198.365	268.5
198.583	112.63
198.801	99.46
199.019	74.88
199.238	37.84
199.456	-51.6
199.674	-59.15
199.892	-76.35
200.111	-116.39
200.329	-46
200.547	-11.94
200.765	-7.08
200.983	49.6
201.202	10.53
201.42	47.91
201.638	172.09
201.856	-450
202.074	-46.85
202.292	-49.59
202.51	3875
202.728	156.82
202.946	31.82
203.165	-211.11
203.383	-680
203.601	96.24
203.819	61.05
204.037	600
204.255	-114.44
204.473	115.87
204.691	85.33
204.909	116.09
205.127	757.14
205.345	73.89
205.562	53.33
205.78	-191.67
205.998	103.25
206.216	478.79
206.434	-62.9
206.652	310.64
206.87	36.78
207.088	64.62
207.306	109.35
207.523	325
207.741	116.25
207.959	428.57
208.177	1.96
208.395	31.07
208.612	42.29
208.83	-91.91
209.048	-43.9
209.266	-96.56
209.483	-72.82
209.701	-89.25
209.919	-26.35
210.136	-75.08
210.354	-32.31
210.572	-30.04
210.79	267.86
211.007	-8700
211.225	-93.1
211.442	-3550
211.66	-33.16
211.878	20.17
212.095	211.92
212.313	261.36
212.53	368.01
212.748	349.3
212.966	393.81
213.183	4959.09
213.401	-3618.52
213.618	565.17
213.836	620.27
214.053	685.71
214.271	28100
214.488	175.76
214.705	-107.21
214.923	-27.36
215.14	-21.51
215.358	22.38
215.575	37.81
215.793	17.98
216.01	28.85
216.227	62.5
216.445	55.39
216.662	36.46
216.879	12.01
217.097	102.47
217.314	281.82
217.531	70.59
217.749	97.58
217.966	55.87
218.183	-14.93
218.4	-1.11
218.618	74.58
218.835	-2.82
219.052	0.91
219.269	-74.68
219.487	-604.17
219.704	-179.63
219.921	-43.33
220.138	-17.39
220.355	-3.15
220.572	57.94
220.79	81.55
221.007	41.94
221.224	-195.31
221.441	-918.18
221.658	85.57
221.875	62.45
222.092	96.47
222.309	342.86
222.526	-4057.14
222.743	287.3
222.96	122.62
223.177	91.99
223.394	86.57
223.611	46.68
223.828	38.52
224.045	55.38
224.262	58.53
224.479	46.35
224.696	50.06
224.913	46.04
225.13	48.38
225.347	54.6
225.564	52.83
225.781	40.86
225.997	38.93
226.214	35.06
226.431	20.14
226.648	20.66
226.865	11.28
227.082	-0.52
227.298	-0.89
227.515	-13.08
227.732	-4.67
227.949	1.36
228.165	-0.13
228.382	-3.31
228.599	6.56
228.816	14.69
229.032	15.37
229.249	23.16
229.466	26.86
229.682	17.85
229.899	24.63
230.116	19.1
230.332	17.06
230.549	19.94
230.765	27.18
230.982	20.58
231.199	17.17
231.415	12.17
231.632	10
231.848	20.82
232.065	36.51
232.281	40.34
232.498	35.25
232.714	25.27
232.931	25.66
233.147	20.84
233.364	6.49
233.58	6.45
233.797	-0.72
234.013	-10.05
234.23	-21.5
234.446	-38.34
234.662	-64.88
234.879	-35.08
235.095	-20.38
235.312	-2.87
235.528	5.9
235.744	2.39
235.961	13.47
236.177	14.56
236.393	-2.12
236.61	8.24
236.826	14.45
237.042	17.72
237.258	12.49
237.475	14.85
237.691	15.61
237.907	18.29
238.123	39.06
238.339	28.1
238.556	15.02
238.772	31.4
238.988	13.86
239.204	12.7
239.42	7.66
239.636	16.69
239.853	13.79
240.069	13.84
240.285	12.12
240.501	8.56
240.717	13.5
240.933	20.97
241.149	23.12
241.365	24.99
241.581	26.86
241.797	26.09
242.013	18.42
242.229	23.89
242.445	21.18
242.661	19.24
242.877	22.24
243.093	11.34
243.309	6.73
243.525	2.69
243.741	0.65
243.957	7.58
244.173	11.09
244.388	10.66
244.604	11.83
244.82	12.81
245.036	12.82
245.252	10.81
245.468	15.08
245.683	11.66
245.899	11.87
246.115	10.51
246.331	6.46
246.547	3.67
246.762	4.69
246.978	3.77
247.194	1.97
247.409	-2.92
247.625	-4.38
247.841	-10.46
248.057	-2.36
248.272	-1.39
248.488	4.09
248.703	10.3
248.919	11
249.135	9.75
249.35	6.29
249.566	8.32
249.782	11.24
249.997	13.06
250.213	18.51
250.428	16.25
250.644	14.05
250.859	13.29
251.075	12.47
251.29	10.27
251.506	21.02
251.721	23.49
251.937	23.68
252.152	27.61
252.368	26.95
252.583	25.18
252.798	23.87
253.014	23.58
253.229	15.21
253.445	11.11
253.66	23.88
253.875	12.69
254.091	6.02
254.306	3.65
254.521	0.96
254.737	-0.59
254.952	2.94
255.167	8.25
255.383	9.01
255.598	13.37
255.813	11.5
256.028	6.52
256.244	5.78
256.459	10.17
256.674	12.08
256.889	11.19
257.104	14.84
257.32	11.11
257.535	9.65
257.75	10.35
257.965	11.43
258.18	9.1
258.395	8.39
258.61	7.11
258.826	4.42
259.041	3.91
259.256	2.41
259.471	0.46
259.686	-0.13
259.901	-1.91
260.116	-3.6
260.331	-5.13
260.546	-2.91
260.761	-4.14
260.976	-4.05
261.191	-0.93
261.406	3.99
261.621	7.12
261.836	9.31
262.05	8.81
262.265	8.39
262.48	12.7
262.695	9.54
262.91	8.87
263.125	3.42
263.34	8
263.555	4.72
263.769	-7.97
263.984	-6.56
264.199	-9.97
264.414	-6.25
264.629	-4.04
264.843	-3.72
265.058	1.12
265.273	3.33
265.488	7.31
265.702	5.23
265.917	7.48
266.132	12.25
266.346	10.41
266.561	10.07
266.776	14.28
266.99	14.83
267.205	13.25
267.42	11.86
267.634	10.3
267.849	12.18
268.063	11.63
268.278	7.89
268.492	6.48
268.707	12.99
268.922	12.31
269.136	6.92
269.351	8.8
269.565	5.1
269.78	3.13
269.994	5.22
270.209	3.68
270.423	2.56
270.637	5.13
270.852	3.36
271.066	0.89
271.281	4.22
271.495	5.72
271.709	3.15
271.924	4
272.138	4.6
272.353	3.12
272.567	4.63
272.781	6.86
272.996	3.93
273.21	5.86
273.424	6.59
273.638	1.02
273.853	-2.15
274.067	-2.87
274.281	-4.04
274.495	-0.05
274.71	0.04
274.924	-0.98
275.138	-2.12
275.352	-1.34
275.566	-2.62
275.781	-4.44
275.995	-2.9
276.209	0
276.423	0.57
276.637	0.45
276.851	-1.27
277.065	-4.69
277.279	-3.19
277.493	-2.19
277.707	-0.26
277.921	0.85
278.135	5.21
278.349	4.91
278.563	5.79
278.777	5.23
278.991	8.43
279.205	4.95
279.419	8.54
279.633	8.74
279.847	6.98
280.061	4.64
280.275	8.39
280.489	2.93
280.703	4.83
280.917	2.19
281.131	1.14
281.344	0.08
281.558	1.34
281.772	0.24
281.986	3.62
282.2	4.41
282.414	3.76
282.627	3.83
282.841	6.59
283.055	6.34
283.269	8.28
283.482	7.56
283.696	8.33
283.91	7.75
284.123	8.13
284.337	6.02
284.551	6.14
284.764	8.18
284.978	3.32
285.192	0.83
285.405	-0.29
285.619	-0.84
285.833	0.92
286.046	1.46
286.26	1.5
286.473	2.89
286.687	-1.98
286.9	0.77
287.114	-0.24
287.327	1.12
287.541	2.36
287.754	6.21
287.968	7.73
288.181	9.89
288.395	8.04
288.608	7.74
288.822	7.33
289.035	11.62
289.248	8.03
289.462	7.87
289.675	10.67
289.889	10.22
290.102	6.4
290.315	4.24
290.529	3.08
290.742	2.95
290.955	0.43
291.169	1.59
291.382	-1.18
291.595	0.54
291.808	4.49
292.022	5.5
292.235	7.58
292.448	9.08
292.661	8.89
292.875	11.15
293.088	12.11
293.301	15.61
293.514	13.41
293.727	14.19
293.94	12.79
294.153	7.64
294.367	7.36
294.58	6.7
294.793	6.87
295.006	5.34
295.219	4.39
295.432	5.27
295.645	1.94
295.858	2.41
296.071	2.95
296.284	4.46
296.497	8.06
296.71	7.01
296.923	7.6
297.136	6.92
297.349	5.39
297.562	5.26
297.775	5.26
297.988	10.27
298.201	10
298.414	8.05
298.626	9.2
298.839	4.5
299.052	3.07
299.265	2.68
299.478	3.3
299.691	5.17
299.903	4.33
300.116	3.73
300.329	-0.8
300.542	-0.19
300.755	-0.97
300.967	-3.26
301.18	0.74
301.393	1.95
301.605	3.68
301.818	2.93
302.031	2.86
302.243	5.34
302.456	5.41
302.669	8.08
302.881	7.79
303.094	10.37
303.307	11.62
303.519	9.13
303.732	9.59
303.944	6.02
304.157	7.26
304.37	8.66
304.582	6.57
304.795	3.99
305.007	2.86
305.22	2.11
305.432	1.78
305.645	-0.99
305.857	3.02
306.069	3.42
306.282	5.95
306.494	1.46
306.707	0.39
306.919	-2.67
307.132	1.23
307.344	1.35
307.556	0.23
307.769	2.99
307.981	5.97
308.193	3.29
308.406	1.38
308.618	1.91
308.83	6.95
309.043	7.48
309.255	8.46
309.467	6.46
309.679	7.04
309.892	8.99
310.104	6.67
310.316	6.74
310.528	7.66
310.74	9.34
310.953	7.83
311.165	4.43
311.377	6.26
311.589	5.81
311.801	8.2
312.013	6.65
312.225	4.12
312.437	7.54
312.649	7.6
312.862	6.4
313.074	6.74
313.286	8.07
313.498	11.3
313.71	10.68
313.922	9.69
314.134	8.2
314.346	7.47
314.558	11.08
314.77	8.07
314.982	8.87
315.193	8.38
315.405	7.75
315.617	5.7
315.829	3.58
316.041	1.78
316.253	3.16
316.465	0.32
316.677	5.16
316.888	1.56
317.1	2.56
317.312	-0.24
317.524	-0.54
317.736	-3.04
317.947	-0.09
318.159	1.61
318.371	2.07
318.583	2.8
318.794	5.71
319.006	2.66
319.218	0.99
319.43	3.97
319.641	4.23
319.853	7.93
320.064	9.79
320.276	8.48
320.488	8.19
320.699	8.78
320.911	10.98
321.123	11.29
321.334	10.37
321.546	14.13
321.757	11.66
321.969	12.03
322.18	8.7
322.392	7.98
322.603	4.97
322.815	5.93
323.026	5.61
323.238	4.41
323.449	0.94
323.661	4.51
323.872	6.11
324.083	2.8
324.295	1.34
324.506	1.41
324.718	3.02
324.929	5.6
325.14	2.44
325.352	2.21
325.563	-0.98
325.774	4.66
325.986	0.72
326.197	-1.4
326.408	0.26
326.62	-0.59
326.831	0.52
327.042	-1.11
327.253	-0.17
327.464	4.02
327.676	5.04
327.887	9.96
328.098	6.09
328.309	7.9
328.52	10.29
328.732	8.8
328.943	7.19
329.154	8.49
329.365	7.74
329.576	8.33
329.787	8.21
329.998	8.63
330.209	2.71
330.42	7.88
330.631	6.91
330.842	7.41
331.053	9.23
331.264	11.06
331.475	9.86
331.686	12.15
331.897	11.88
332.108	9.29
332.319	10.07
332.53	15.72
332.741	14.77
332.952	14.09
333.163	12.36
333.374	11.36
333.585	14.1
333.795	14.95
334.006	11.34
334.217	8.74
334.428	11.5
334.639	10.76
334.849	6.51
335.06	5.98
335.271	5.08
335.482	5.09
335.692	6.1
335.903	3.53
336.114	2.51
336.325	4.58
336.535	6.49
336.746	1.41
336.957	0.75
337.167	4.47
337.378	3.23
337.589	7.64
337.799	5.72
338.01	4.55
338.22	3.97
338.431	3.97
338.642	4.7
338.852	5.51
339.063	8.92
339.273	8.28
339.484	4.41
339.694	3.81
339.905	1.65
340.115	4.48
340.326	6.9
340.536	7.38
340.746	9.31
340.957	7.78
341.167	8.38
341.378	9.08
341.588	10.15
341.799	11.49
342.009	13.03
342.219	14.5
342.43	14.26
342.64	13.18
342.85	13.36
343.061	12.71
343.271	13.41
343.481	10.89
343.691	10.68
343.902	10.46
344.112	11.89
344.322	9.86
344.532	8.28
344.743	7.91
344.953	8.69
345.163	9.64
345.373	6.53
345.583	6.51
345.793	7.76
346.004	6.09
346.214	4.71
346.424	3.6
346.634	3.84
346.844	2.84
347.054	5.01
347.264	3.1
347.474	3.39
347.684	6.94
347.894	5.79
348.104	4.56
348.314	4.84
348.524	5.79
348.734	5.4
348.944	6.08
349.154	6.82
349.364	3.6
349.574	4.96
349.784	5.3
349.994	3.66
350.204	5.51
350.413	7.56
350.623	8.85
350.833	9.5
351.043	9.04
351.253	9.85
351.463	9.43
351.672	9.98
351.882	9.55
352.092	8.45
352.302	8.26
352.511	9.42
352.721	6.34
352.931	6.29
353.141	6.76
353.35	6.73
353.56	5.99
353.77	5.52
353.979	4.62
354.189	6.06
354.399	5.56
354.608	7.95
354.818	6.56
355.027	9
355.237	9.24
355.447	8.96
355.656	8.93
355.866	10.44
356.075	10.44
356.285	12.87
356.494	11.56
356.704	11.46
356.913	11.29
357.123	11.37
357.332	11.62
357.542	10.41
357.751	10.6
357.96	11.74
358.17	9.89
358.379	12.36
358.589	11.63
358.798	12.58
359.007	13.12
359.217	11.56
359.426	11.3
359.635	11.07
359.845	11.72
360.054	12.79
360.263	11.52
360.472	11.41
360.682	10.25
360.891	8.55
361.1	9.95
361.309	9.97
361.519	10.22
361.728	9.11
361.937	9.05
362.146	8.96
362.355	6.74
362.564	8.2
362.774	8.08
362.983	7.41
363.192	10.71
363.401	9.19
363.61	9.9
363.819	9.99
364.028	12.41
364.237	12.19
364.446	10.8
364.655	11.6
364.864	10.97
365.073	10.85
365.282	10.34
365.491	6.68
365.7	7.64
365.909	5.77
366.118	5.42
366.327	4.26
366.536	4.49
366.745	6.58
366.954	6.26
367.162	6.23
367.371	7.62
367.58	8.45
367.789	8.9
367.998	6.1
368.207	6.71
368.415	6.95
368.624	7.21
368.833	6.77
369.042	5.87
369.25	6.2
369.459	6.39
369.668	5.67
369.877	4.49
370.085	5.25
370.294	7.12
370.503	8.17
370.711	8.29
370.92	7.94
371.129	9.44
371.337	9.93
371.546	10.86
371.754	9.79
371.963	10.61
372.171	10.71
372.38	11.01
372.589	11.3
372.797	11.81
373.006	11.91
373.214	12.87
373.423	12.05
373.631	10.92
373.84	9.83
374.048	9.41
374.256	9.01
374.465	11.62
374.673	10.31
374.882	9.54
375.09	8.46
375.298	9.12
375.507	10.61
375.715	10.65
375.923	10.99
376.132	12.03
376.34	11.88
376.548	11.14
376.757	10.49
376.965	11.97
377.173	13
377.381	13.85
377.59	13.87
377.798	11.85
378.006	11.1
378.214	11.42
378.423	10.28
378.631	10.59
378.839	11.24
379.047	9.82
379.255	9.97
379.463	7.61
379.671	7.71
379.879	7.24
380.088	7.36
380.296	6.99
380.504	6.77
380.712	6.3
380.92	7.04
381.128	7.26
381.336	7.64
381.544	8.6
381.752	10.24
381.96	9.94
382.168	9.06
382.376	7.49
382.584	9.52
382.791	10.1
382.999	9.76
383.207	10.66
383.415	9.62
383.623	8.81
383.831	7.29
384.039	5.98
384.247	5.67
384.454	5.83
384.662	6.38
384.87	6.17
385.078	6.66
385.285	6.88
385.493	7.25
385.701	8.36
385.909	9.06
386.116	8.69
386.324	9.84
386.532	9.83
386.739	10.71
386.947	10.89
387.155	10.5
387.362	9.69
387.57	11.04
387.778	9.76
387.985	9.61
388.193	9.38
388.4	9.48
388.608	10.08
388.816	10.37
389.023	10.11
389.231	12.2
389.438	13.73
389.646	13.5
389.853	12.61
390.061	11.85
390.268	10.63
390.475	10.77
390.683	11.68
390.89	10.48
391.098	10.64
391.305	10.37
391.512	9.08
391.72	6.14
391.927	6.2
392.135	6.31
392.342	6.25
392.549	9.07
392.756	9.45
392.964	8.56
393.171	9.56
393.378	9.77
393.586	9.65
393.793	9.24
394	10.31
394.207	10.85
394.414	11.39
394.622	12.21
394.829	9.93
395.036	9.59
395.243	9.9
395.45	9.38
395.657	8.66
395.864	9.85
396.072	10.3
396.279	11.1
396.486	10.33
396.693	10.24
396.9	10.52
397.107	12.09
397.314	12.72
397.521	12.67
397.728	12.53
397.935	13.03
398.142	12.96
398.349	11.85
398.556	11.72
398.763	11.79
398.97	10.44
399.177	11.27
399.383	10.15
399.59	8.68
399.797	9.28
400.004	9.68
400.211	8.85
400.418	8.8
400.625	8.59
400.831	8.41
401.038	9.33
401.245	9.04
401.452	9.02
401.658	9.83
401.865	11.48
402.072	10.77
402.279	10.3
402.485	11.03
402.692	11.31
402.899	13.16
403.105	12.49
403.312	12.16
403.519	13.74
403.725	12.63
403.932	13.13
404.138	12.23
404.345	12.81
404.552	13.42
404.758	13.53
404.965	12.85
405.171	13.51
405.378	14
405.584	14.06
405.791	13.49
405.997	14.45
406.204	13.19
406.41	13.61
406.617	12.88
406.823	12.77
407.029	12.17
407.236	12.22
407.442	10.98
407.649	11.29
407.855	11.38
408.061	11.33
408.268	12.05
408.474	12.4
408.68	12.46
408.887	12.9
409.093	12.97
409.299	13.41
409.505	14.33
409.712	14.27
409.918	12.91
410.124	13.38
410.33	13.77
410.537	12.76
410.743	13.74
410.949	14.82
411.155	14.89
411.361	14.7
411.567	14.11
411.773	14.14
411.98	14.48
412.186	15.96
412.392	16.76
412.598	16.55
412.804	17.5
413.01	16.63
413.216	16.87
413.422	16.23
413.628	17.16
413.834	18.07
414.04	16.85
414.246	16.03
414.452	15.95
414.658	14.32
414.864	14.77
415.07	13.72
415.275	14.13
415.481	13.47
415.687	14.53
415.893	13.87
416.099	13.33
416.305	13.81
416.511	14.6
416.716	14.99
416.922	15.57
417.128	15.69
417.334	15.91
417.539	16.17
417.745	15.96
417.951	15.33
418.157	15.66
418.362	15.92
418.568	16.04
418.774	16.11
418.979	16.11
419.185	16.15
419.391	16.11
419.596	16.03
419.802	15.53
420.008	15.37
420.213	15.2
420.419	14.51
420.624	14.44
420.83	14.24
421.035	13.92
421.241	13.76
421.446	13.8
421.652	13.37
421.857	13.36
422.063	13.49
422.268	13.39
422.474	13.75
422.679	13.83
422.885	13.75
423.09	13.69
423.295	13.87
423.501	13.42
423.706	13.48
423.911	13.89
424.117	14.03
424.322	13.78
424.527	13.74
424.733	14.03
424.938	14.56
425.143	14.75
425.349	14.73
425.554	14.86
425.759	15.29
425.964	14.93
426.169	14.67
426.375	14.99
426.58	14.48
426.785	15.04
426.99	14.95
427.195	14.3
427.4	13.88
427.605	14.02
427.811	13.82
428.016	13.57
428.221	13.93
428.426	14.11
428.631	14.2
428.836	15.55
429.041	15.29
429.246	14.9
429.451	15.22
429.656	16
429.861	16.6
430.066	17.1
430.271	17.31
430.476	17.32
430.681	17.1
430.886	16.34
431.09	16.14
431.295	15.98
431.5	16.01
431.705	16.65
431.91	15.86
432.115	15.11
432.32	14.81
432.524	15.11
432.729	15.22
432.934	14.54
433.139	14.63
433.343	15.16
433.548	15.5
433.753	15.91
433.958	15.08
434.162	15.02
434.367	15.48
434.572	15.43
434.776	15.14
434.981	15.11
435.186	15.64
435.39	16.33
435.595	15.54
435.799	15.11
436.004	15.26
436.209	15.1
436.413	15.84
436.618	15.55
436.822	15.33
437.027	15.31
437.231	15.16
437.436	15.3
437.64	14.72
437.845	14.79
438.049	15.65
438.253	15.35
438.458	15.87
438.662	15.12
438.867	15.22
439.071	15.65
439.275	15.61
439.48	15.61
439.684	15.39
439.888	15.53
440.093	15.56
440.297	14.69
440.501	14.87
440.706	14.59
440.91	15.08
441.114	15.25
441.318	15.28
441.523	15.45
441.727	15.43
441.931	15.8
442.135	16.09
442.339	16.48
442.543	17.29
442.748	16.66
442.952	16.86
443.156	16.67
443.36	16.92
443.564	16.7
443.768	16.36
443.972	16.03
444.176	15.52
444.38	15.49
444.584	14.77
444.788	13.96
444.992	14.09
445.196	13.71
445.4	13.86
445.604	13.34
445.808	13.42
446.012	13.39
446.216	13.33
446.42	13.79
446.624	13.64
446.828	14.15
447.032	14.87
447.235	14.75
447.439	14.96
447.643	14.9
447.847	14.57
448.051	14.42
448.254	14.8
448.458	15.08
448.662	15.16
448.866	15.46
449.069	15.46
449.273	15.07
449.477	16.17
449.681	16.83
449.884	16.61
450.088	17.22
450.292	16.62
450.495	16.05
450.699	16.39
450.902	16.78
451.106	15.88
451.31	15.77
451.513	15.89
451.717	15.18
451.92	14.52
452.124	14.29
452.327	14.32
452.531	14.46
452.734	14.73
452.938	14.73
453.141	13.76
453.345	14.52
453.548	13.91
453.752	14.46
453.955	15
454.158	15.34
454.362	15.83
454.565	15.95
454.769	16.41
454.972	16.34
455.175	16.06
455.379	16.48
455.582	15.87
455.785	16.45
455.988	15.93
456.192	15.67
456.395	16.06
456.598	15.95
456.801	15.33
457.005	15.85
457.208	15.89
457.411	15.52
457.614	15.34
457.817	15.51
458.021	15.85
458.224	15.57
458.427	15.27
458.63	14.58
458.833	14.48
459.036	14.55
459.239	13.85
459.442	14.11
459.645	13.96
459.848	14.46
460.051	14.72
460.254	14.14
460.457	14.57
460.66	14.94
460.863	15.29
461.066	15.49
461.269	16.17
461.472	16.38
