Data from JASIL_3267_Reflection_2.txt Node
Date: Mon Nov 16 21:03:06 EST 2015
User: Geneva
Spectrometer: USB4E03002
Autoset integration time: false
Trigger mode: 4
Integration Time (sec): 1.000000E-1
Scans to average: 10
Electric dark correction enabled: false
Nonlinearity correction enabled: false
Boxcar width: 5
Stray light correction enabled: false
XAxis mode: Wavelengths
Stop averaging: false
Number of Pixels in Spectrum: 3648
>>>>>Begin Spectral Data<<<<<
177.575	-781.2
177.794	-869.29
178.014	-879.52
178.233	-1489.72
178.452	-2128.92
178.672	-1490.15
178.891	-2044.34
179.11	6137.84
179.33	2145.54
179.549	-10740.91
179.768	2007.63
179.987	2409.68
180.207	1398.71
180.426	764.81
180.645	785.12
180.864	1427.92
181.084	580.98
181.303	499.54
181.522	980
181.741	2942.25
181.96	647.58
182.179	870.26
182.398	1099.56
182.618	1089.83
182.837	1053.78
183.056	976.59
183.275	604.18
183.494	625.81
183.713	659.75
183.932	539.01
184.151	548.14
184.37	572.75
184.589	459.08
184.808	376.9
185.027	381.92
185.246	477.23
185.465	702.93
185.684	786.46
185.903	3175.86
186.122	1277.58
186.341	1611.24
186.56	792.89
186.779	1484.46
186.998	2052.31
187.216	2060.63
187.435	1516.17
187.654	1411.89
187.873	672.26
188.092	557.6
188.311	528.96
188.53	821.31
188.748	793.48
188.967	1848.8
189.186	930.65
189.405	1034.63
189.623	1100
189.842	992.18
190.061	1037.32
190.28	2730.77
190.498	-2627.5
190.717	1704.76
190.936	-3630.51
191.154	-1680.36
191.373	-38316.67
191.592	-20736.36
191.81	-1297.13
192.029	-1696.95
192.248	-592.51
192.466	-575.85
192.685	-623.04
192.904	-873.99
193.122	-648.27
193.341	-1292.43
193.559	-1236.55
193.778	-1378.79
193.996	-1708.4
194.215	61950
194.433	-5776.19
194.652	1155.67
194.87	1036.36
195.089	1055.46
195.307	1268.95
195.526	3684.75
195.744	2064.04
195.963	1347.8
196.181	30000
196.399	-2064.1
196.618	11500
196.836	38666.67
197.055	-1922.13
197.273	-3679.31
197.491	-2243.33
197.71	-3919.61
197.928	2732.5
198.146	4930.95
198.365	-21160
198.583	993.07
198.801	1309.94
199.019	2948.05
199.238	-5250
199.456	2280.19
199.674	1057.2
199.892	800
200.111	1044.23
200.329	1043.02
200.547	801.41
200.765	719.11
200.983	807.83
201.202	645.95
201.42	1012.6
201.638	644.81
201.856	743.18
202.074	2206.61
202.292	2731.31
202.51	1904.08
202.728	2872.16
202.946	-7142.5
203.165	9081.82
203.383	-2917.53
203.601	-3339.53
203.819	6228
204.037	31740
204.255	3270.1
204.473	1444.86
204.691	2064
204.909	1286.94
205.127	1408.84
205.345	1653.98
205.562	1433.17
205.78	961.41
205.998	1155.1
206.216	996.79
206.434	952.36
206.652	825.15
206.87	632.97
207.088	484.34
207.306	616.24
207.523	542.23
207.741	425
207.959	424.23
208.177	487.09
208.395	392.31
208.612	415.32
208.83	376.12
209.048	451.53
209.266	561.81
209.483	628
209.701	472.63
209.919	561.59
210.136	574.9
210.354	1427
210.572	1312.67
210.79	2008.89
211.007	1187.34
211.225	1968.22
211.442	-10923.81
211.66	-3086.11
211.878	-1449.31
212.095	524.52
212.313	546.55
212.53	801.39
212.748	448.34
212.966	419.44
213.183	371.82
213.401	402.27
213.618	373.56
213.836	442.64
214.053	448.27
214.271	411.84
214.488	2332.77
214.705	1270.18
214.923	891.94
215.14	944.48
215.358	825.23
215.575	1291.04
215.793	1246.58
216.01	1739.88
216.227	607.23
216.445	459.1
216.662	531.65
216.879	544.62
217.097	464.39
217.314	525.52
217.531	646.01
217.749	702.73
217.966	884
218.183	718.46
218.4	790.55
218.618	956.69
218.835	1023.55
219.052	695.48
219.269	622.62
219.487	982.64
219.704	677.26
219.921	492.99
220.138	377.44
220.355	376.09
220.572	416.14
220.79	475.46
221.007	559.2
221.224	790.58
221.441	719.13
221.658	799.66
221.875	535.47
222.092	545.6
222.309	840.94
222.526	900.4
222.743	781.63
222.96	1102.36
223.177	529.51
223.394	587.9
223.611	411.29
223.828	481.87
224.045	502.47
224.262	588.78
224.479	397.8
224.696	314.56
224.913	387.65
225.13	318.32
225.347	245.11
225.564	230.63
225.781	179.6
225.997	165.65
226.214	138.64
226.431	117.84
226.648	101.22
226.865	100.33
227.082	96.65
227.298	82.88
227.515	72.02
227.732	69.96
227.949	64.94
228.165	62.84
228.382	60.37
228.599	59.65
228.816	59.69
229.032	59.62
229.249	57.37
229.466	56.01
229.682	57.43
229.899	62.87
230.116	61.93
230.332	68.09
230.549	73.73
230.765	74.24
230.982	74.08
231.199	80.02
231.415	87.32
231.632	93.62
231.848	96.62
232.065	102.64
232.281	105.41
232.498	119.59
232.714	117.28
232.931	115.29
233.147	115.93
233.364	121.43
233.58	119.58
233.797	122.53
234.013	118.88
234.23	119.76
234.446	119.61
234.662	109.64
234.879	101.01
235.095	102.37
235.312	103.91
235.528	105
235.744	106.44
235.961	109.87
236.177	97.44
236.393	102.93
236.61	111.42
236.826	111.4
237.042	117.55
237.258	118.17
237.475	113.57
237.691	110.28
237.907	113.13
238.123	117.5
238.339	100.42
238.556	101.6
238.772	93.59
238.988	81.94
239.204	79.9
239.42	81.42
239.636	80.78
239.853	77.62
240.069	76.17
240.285	69.65
240.501	62.45
240.717	58.64
240.933	52.85
241.149	49.8
241.365	47.26
241.581	45.31
241.797	40.85
242.013	38.66
242.229	37.08
242.445	36.27
242.661	35.52
242.877	36.68
243.093	38.23
243.309	41.63
243.525	44.39
243.741	44.24
243.957	43.03
244.173	42.81
244.388	43.21
244.604	44.69
244.82	42.92
245.036	40.94
245.252	36.07
245.468	33.3
245.683	30.22
245.899	28.71
246.115	27.02
246.331	25.52
246.547	24
246.762	22.39
246.978	23.23
247.194	22.9
247.409	23.47
247.625	24.67
247.841	25.46
248.057	25.83
248.272	26.14
248.488	30.32
248.703	33.67
248.919	37.06
249.135	40.33
249.35	40.79
249.566	42.92
249.782	42.88
249.997	41.85
250.213	43.22
250.428	44.59
250.644	44.27
250.859	41.82
251.075	36.41
251.29	37.14
251.506	37.06
251.721	36.82
251.937	36.68
252.152	38.12
252.368	43.03
252.583	45.05
252.798	46.54
253.014	48.79
253.229	50.18
253.445	57.92
253.66	59.7
253.875	61.87
254.091	65.4
254.306	67.44
254.521	73.26
254.737	69.55
254.952	67.96
255.167	64.4
255.383	63.49
255.598	58.3
255.813	54.94
256.028	55.12
256.244	56.02
256.459	52.49
256.674	48.54
256.889	43.82
257.104	40.06
257.32	36.43
257.535	32.63
257.75	28.86
257.965	27.53
258.18	26.1
258.395	23.44
258.61	19.92
258.826	18.68
259.041	18.88
259.256	18.53
259.471	17.9
259.686	18.26
259.901	19.01
260.116	19.16
260.331	20.14
260.546	19.74
260.761	20.75
260.976	22.17
261.191	23.42
261.406	24.04
261.621	25.21
261.836	28.56
262.05	28.16
262.265	30.23
262.48	31.96
262.695	33.35
262.91	35.13
263.125	35.77
263.34	37.28
263.555	38.67
263.769	41.52
263.984	40.98
264.199	41.68
264.414	43.85
264.629	41.98
264.843	38.76
265.058	38.37
265.273	35.36
265.488	33.42
265.702	32.93
265.917	31.7
266.132	28.86
266.346	28.78
266.561	25.93
266.776	26.04
266.99	27.13
267.205	29.37
267.42	28.54
267.634	30.7
267.849	30.52
268.063	31.66
268.278	32.38
268.492	33.57
268.707	33.1
268.922	33.6
269.136	32.02
269.351	30.41
269.565	28.29
269.78	27.78
269.994	25.79
270.209	24.43
270.423	22.1
270.637	21.34
270.852	19.48
271.066	18.55
271.281	20.89
271.495	20.62
271.709	20.86
271.924	22.16
272.138	22.73
272.353	24.68
272.567	25.39
272.781	26.03
272.996	25.78
273.21	26.27
273.424	27.41
273.638	25.97
273.853	28.59
274.067	28.86
274.281	29.47
274.495	29.07
274.71	27.81
274.924	29.63
275.138	29.48
275.352	29.41
275.566	31.32
275.781	30.83
275.995	30.29
276.209	28.81
276.423	31.1
276.637	30.23
276.851	31.34
277.065	31.23
277.279	30.6
277.493	30.35
277.707	30.81
277.921	30.17
278.135	32.08
278.349	33.81
278.563	33.59
278.777	31.84
278.991	31.79
279.205	31.19
279.419	29.87
279.633	29.46
279.847	29.48
280.061	29.91
280.275	28.02
280.489	27.3
280.703	25.32
280.917	25.19
281.131	23.9
281.344	24.05
281.558	23.37
281.772	24.34
281.986	24.83
282.2	24.85
282.414	22.98
282.627	23.48
282.841	22.01
283.055	22.45
283.269	22.81
283.482	23.43
283.696	23.3
283.91	23.97
284.123	23.43
284.337	23.15
284.551	22.34
284.764	22.86
284.978	22.28
285.192	23.19
285.405	22.92
285.619	22.11
285.833	21.25
286.046	20.7
286.26	19.55
286.473	18.71
286.687	19.1
286.9	20.12
287.114	20.55
287.327	21.23
287.541	20.08
287.754	20.11
287.968	19.91
288.181	21.37
288.395	21.1
288.608	21.78
288.822	22.77
289.035	22.2
289.248	22.17
289.462	21.69
289.675	22.52
289.889	22.62
290.102	21.53
290.315	22.58
290.529	21.98
290.742	22.46
290.955	22.67
291.169	22.67
291.382	21.91
291.595	22.95
291.808	23.69
292.022	22.21
292.235	23.93
292.448	25.03
292.661	23.77
292.875	24.84
293.088	24.41
293.301	23.54
293.514	21.74
293.727	21.72
293.94	18.91
294.153	18.76
294.367	20.49
294.58	18.49
294.793	18.09
295.006	18.55
295.219	17.22
295.432	17.61
295.645	17.4
295.858	18.62
296.071	18.43
296.284	18.84
296.497	18.38
296.71	17.83
296.923	19.51
297.136	19.33
297.349	19.02
297.562	19.25
297.775	19.77
297.988	19.4
298.201	20.86
298.414	21.59
298.626	22.88
298.839	22.65
299.052	22.3
299.265	22.07
299.478	23.31
299.691	23.51
299.903	23.68
300.116	23.48
300.329	24.56
300.542	22.53
300.755	23.84
300.967	23.41
301.18	23.36
301.393	23.87
301.605	23.55
301.818	22.81
302.031	24.02
302.243	25.43
302.456	25.26
302.669	25.49
302.881	27.72
303.094	26.62
303.307	26.97
303.519	28.66
303.732	28.49
303.944	28.23
304.157	29.27
304.37	29.3
304.582	28.83
304.795	28.45
305.007	28.34
305.22	26.73
305.432	26.28
305.645	26.12
305.857	26.81
306.069	27.35
306.282	27.96
306.494	26.42
306.707	25.61
306.919	24.31
307.132	24.05
307.344	25.56
307.556	25.93
307.769	27.11
307.981	26.26
308.193	24.19
308.406	23.57
308.618	23.24
308.83	23.17
309.043	22.75
309.255	24.23
309.467	25.22
309.679	23.52
309.892	23.36
310.104	22.14
310.316	22.22
310.528	22.26
310.74	21.66
310.953	21.49
311.165	23.1
311.377	23.16
311.589	23.16
311.801	22.43
312.013	23.14
312.225	23.98
312.437	23.97
312.649	24.3
312.862	25.16
313.074	25.55
313.286	26.66
313.498	28.11
313.71	27.15
313.922	27.33
314.134	28.88
314.346	28.11
314.558	27.34
314.77	28.11
314.982	29.37
315.193	29.78
315.405	30.24
315.617	29.04
315.829	28.18
316.041	29.13
316.253	28.43
316.465	28.81
316.677	30.4
316.888	31.18
317.1	30.38
317.312	28.73
317.524	28.28
317.736	29.7
317.947	31.52
318.159	31.05
318.371	31.92
318.583	31.32
318.794	30.58
319.006	30.3
319.218	30.72
319.43	32.53
319.641	33.44
319.853	34.01
320.064	32.03
320.276	31.89
320.488	31.12
320.699	31.38
320.911	34.42
321.123	36.49
321.334	36.58
321.546	37.22
321.757	38.51
321.969	37.55
322.18	36.82
322.392	36.75
322.603	35.61
322.815	34.58
323.026	33.35
323.238	31.44
323.449	28.43
323.661	28.89
323.872	27.55
324.083	25.32
324.295	26.25
324.506	26.45
324.718	25.59
324.929	24.94
325.14	25.61
325.352	26.79
325.563	27.11
325.774	27.23
325.986	26.6
326.197	26.5
326.408	26.84
326.62	26.5
326.831	26.44
327.042	27.55
327.253	28.21
327.464	29.46
327.676	29.18
327.887	29.49
328.098	30.17
328.309	30.62
328.52	31.18
328.732	32.31
328.943	32.95
329.154	34
329.365	34.52
329.576	35.38
329.787	34.22
329.998	34.91
330.209	33.85
330.42	34.08
330.631	35.15
330.842	35.65
331.053	36.44
331.264	37.09
331.475	35.87
331.686	36.32
331.897	35.45
332.108	36.01
332.319	35.3
332.53	36.17
332.741	35.29
332.952	34.1
333.163	32.74
333.374	30.83
333.585	29.8
333.795	30.46
334.006	29.76
334.217	30.57
334.428	29.56
334.639	31.17
334.849	30.54
335.06	30.28
335.271	31.04
335.482	31.97
335.692	31.8
335.903	30.44
336.114	30.81
336.325	30.7
336.535	29.7
336.746	30.55
336.957	29.86
337.167	29.75
337.378	31.66
337.589	30.43
337.799	29.66
338.01	31.33
338.22	33.22
338.431	32.11
338.642	32.66
338.852	32.95
339.063	32.16
339.273	31.88
339.484	32.88
339.694	30.83
339.905	31.95
340.115	31.94
340.326	30.11
340.536	29.88
340.746	30.59
340.957	29.79
341.167	29.74
341.378	30.21
341.588	29.43
341.799	27.98
342.009	28.96
342.219	27.93
342.43	29.03
342.64	30
342.85	29.39
343.061	28.75
343.271	29.52
343.481	28.49
343.691	27.88
343.902	27.77
344.112	28.33
344.322	27.77
344.532	27.79
344.743	27.83
344.953	27.79
345.163	27.68
345.373	27.35
345.583	28.01
345.793	28.39
346.004	30.02
346.214	30.51
346.424	29.48
346.634	29.45
346.844	30.14
347.054	30.39
347.264	29.56
347.474	30.48
347.684	31.07
347.894	29.41
348.104	30.02
348.314	29.18
348.524	29.05
348.734	29.03
348.944	29.49
349.154	29.44
349.364	28.45
349.574	27.84
349.784	28.64
349.994	28.19
350.204	29.03
350.413	28.63
350.623	27.38
350.833	27.5
351.043	28.31
351.253	28.74
351.463	28.03
351.672	27.76
351.882	29.81
352.092	28.29
352.302	29.1
352.511	28.82
352.721	28.61
352.931	29.15
353.141	29.22
353.35	29.07
353.56	28.97
353.77	29.58
353.979	29.74
354.189	29.26
354.399	29.69
354.608	30.32
354.818	29.58
355.027	29.86
355.237	29.86
355.447	28.56
355.656	28.77
355.866	28.13
356.075	28.19
356.285	28.05
356.494	27.25
356.704	26.49
356.913	25.64
357.123	27
357.332	26.37
357.542	26.61
357.751	26.6
357.96	26.97
358.17	26.07
358.379	25.6
358.589	25.46
358.798	25.41
359.007	25.1
359.217	24.08
359.426	22.49
359.635	22.54
359.845	21.1
360.054	21.67
360.263	21.32
360.472	21.74
360.682	21.32
360.891	21.22
361.1	20.67
361.309	20.68
361.519	20.89
361.728	21.61
361.937	21.54
362.146	21.98
362.355	21.83
362.564	21.86
362.774	21.37
362.983	21.4
363.192	22.27
363.401	22.87
363.61	23.01
363.819	24.23
364.028	23.34
364.237	23.05
364.446	23.13
364.655	22.96
364.864	22.83
365.073	23.78
365.282	23.17
365.491	22.15
365.7	22.46
365.909	22.94
366.118	22.06
366.327	22.9
366.536	24.21
366.745	24.06
366.954	24.95
367.162	25.52
367.371	25.44
367.58	25.86
367.789	26.45
367.998	25.79
368.207	25.17
368.415	25.57
368.624	25.16
368.833	24.77
369.042	25.37
369.25	25.35
369.459	24.6
369.668	24.76
369.877	25.29
370.085	24.87
370.294	25.09
370.503	25.03
370.711	24.26
370.92	23.81
371.129	23.9
371.337	23.94
371.546	23.06
371.754	23.23
371.963	23.1
372.171	23.16
372.38	23.31
372.589	24.1
372.797	24.17
373.006	24.31
373.214	24.9
373.423	24.46
373.631	24
373.84	23.39
374.048	22.73
374.256	22.23
374.465	21.47
374.673	21.65
374.882	20.65
375.09	20.69
375.298	21.18
375.507	21.03
375.715	20.16
375.923	19.23
376.132	19.91
376.34	19.77
376.548	20.63
376.757	20.73
376.965	20.72
377.173	21.04
377.381	21.52
377.59	21.71
377.798	21.28
378.006	22.16
378.214	23.56
378.423	23.66
378.631	23.18
378.839	22.46
379.047	22.83
379.255	22.24
379.463	21.56
379.671	21.05
379.879	19.85
380.088	20.4
380.296	19.99
380.504	19.98
380.712	20.17
380.92	20.5
381.128	20.59
381.336	20.64
381.544	21.83
381.752	21.8
381.96	21.53
382.168	22.24
382.376	21.77
382.584	21.13
382.791	20.14
382.999	20.13
383.207	20.24
383.415	20.65
383.623	19.88
383.831	18.22
384.039	18.84
384.247	18.97
384.454	19.17
384.662	18.68
384.87	18.82
385.078	19.41
385.285	18.98
385.493	19.22
385.701	18.28
385.909	18.35
386.116	18.83
386.324	18.75
386.532	18.45
386.739	17.7
386.947	18.02
387.155	18.82
387.362	18.02
387.57	17.69
387.778	17.98
387.985	18.54
388.193	18.46
388.4	18.49
388.608	18.24
388.816	17.84
389.023	17.69
389.231	17.7
389.438	17.31
389.646	18.21
389.853	18.56
390.061	17.8
390.268	16.97
390.475	17.13
390.683	16.11
390.89	16.09
391.098	15.73
391.305	16.08
391.512	16.44
391.72	15.77
391.927	15.24
392.135	15.52
392.342	15.47
392.549	15.95
392.756	16.01
392.964	16.62
393.171	16.42
393.378	16.91
393.586	16.56
393.793	15.62
394	16.4
394.207	16.52
394.414	15.99
394.622	16.4
394.829	15.76
395.036	15.66
395.243	15.55
395.45	16.39
395.657	16.9
395.864	17.23
396.072	18.11
396.279	17.67
396.486	17.7
396.693	18.09
396.9	17.87
397.107	18.91
397.314	19.12
397.521	19.42
397.728	18.64
397.935	17.54
398.142	16.94
398.349	16.58
398.556	16.29
398.763	15.85
398.97	15.35
399.177	15.26
399.383	14.97
399.59	14.94
399.797	15.02
400.004	15.3
400.211	15.92
400.418	16.71
400.625	17.65
400.831	18
401.038	18.11
401.245	18.43
401.452	18.29
401.658	18.31
401.865	18.18
402.072	17.54
402.279	17.08
402.485	16.85
402.692	16.22
402.899	14.98
403.105	14.33
403.312	14.61
403.519	14.52
403.725	14.61
403.932	13.99
404.138	13.67
404.345	13.42
404.552	13.52
404.758	13.6
404.965	13.13
405.171	13.43
405.378	13.57
405.584	13.38
405.791	12.85
405.997	12.81
406.204	12.89
406.41	13.4
406.617	13.35
406.823	12.93
407.029	12.78
407.236	12.64
407.442	12.4
407.649	13.03
407.855	13.19
408.061	13.83
408.268	13.79
408.474	14.46
408.68	13.28
408.887	13.47
409.093	13.45
409.299	13.4
409.505	13.84
409.712	13.86
409.918	13.38
410.124	12.71
410.33	12.56
410.537	12.3
410.743	12.19
410.949	13.1
411.155	13.03
411.361	13.86
411.567	13.9
411.773	13.81
411.98	13.75
412.186	13.51
412.392	14.17
412.598	13.55
412.804	13.98
413.01	13.84
413.216	13.64
413.422	14.17
413.628	13.58
413.834	13.38
414.04	14.04
414.246	14.16
414.452	14.7
414.658	14.8
414.864	15.25
415.07	15.53
415.275	15.63
415.481	15.4
415.687	14.92
415.893	14.78
416.099	14.87
416.305	14.58
416.511	14.35
416.716	13.71
416.922	13.32
417.128	12.94
417.334	12.42
417.539	11.81
417.745	11.4
417.951	11.36
418.157	11.03
418.362	10.73
418.568	10.28
418.774	9.84
418.979	9.84
419.185	9.34
419.391	9.39
419.596	9.09
419.802	8.87
420.008	8.97
420.213	8.72
420.419	8.91
420.624	8.63
420.83	8.64
421.035	8.82
421.241	8.72
421.446	9.12
421.652	8.81
421.857	8.73
422.063	8.97
422.268	8.73
422.474	8.9
422.679	8.69
422.885	9.07
423.09	8.9
423.295	8.75
423.501	8.74
423.706	8.45
423.911	8.54
424.117	8.61
424.322	8.41
424.527	8.56
424.733	8.57
424.938	8.84
425.143	8.62
425.349	8.8
425.554	9.05
425.759	9.19
425.964	9.35
426.169	9.51
426.375	9.76
426.58	9.81
426.785	9.86
426.99	9.93
427.195	9.92
427.4	9.85
427.605	9.84
427.811	9.62
428.016	9.87
428.221	9.98
428.426	10.04
428.631	10.06
428.836	10.44
429.041	10.93
429.246	11.25
429.451	11.58
429.656	11.85
429.861	12.07
430.066	12.35
430.271	12.47
430.476	12.38
430.681	12.4
430.886	12.23
431.09	11.71
431.295	11.44
431.5	10.81
431.705	9.81
431.91	9.46
432.115	9.23
432.32	9.59
432.524	9.18
432.729	8.89
432.934	8.56
433.139	8.81
433.343	9.06
433.548	8.66
433.753	8.66
433.958	9.24
434.162	9.53
434.367	9.73
434.572	9.27
434.776	9.38
434.981	9.72
435.186	9.94
435.39	9.71
435.595	10.08
435.799	10.19
436.004	10.17
436.209	10.16
436.413	10.36
436.618	10.33
436.822	10.38
437.027	10.04
437.231	9.43
437.436	9.4
437.64	9.43
437.845	9.23
438.049	9.4
438.253	9.76
438.458	9.19
438.662	8.95
438.867	8.68
439.071	8.55
439.275	8.51
439.48	8.88
439.684	8.88
439.888	8.77
440.093	8.79
440.297	8.62
440.501	8.4
440.706	8.69
440.91	8.68
441.114	8.69
441.318	9.19
441.523	9.71
441.727	9.84
441.931	9.81
442.135	9.92
442.339	10.01
442.543	10.37
442.748	10.67
442.952	10.72
443.156	10.72
443.36	10.84
443.564	10.51
443.768	9.79
443.972	9.92
444.176	9.68
444.38	9.53
444.584	9.24
444.788	8.82
444.992	8.23
445.196	8.2
445.4	8.21
445.604	7.9
445.808	7.79
446.012	8
446.216	7.63
446.42	7.6
446.624	7.74
446.828	7.78
447.032	7.93
447.235	8.38
447.439	8.22
447.643	8.23
447.847	8.65
448.051	8.88
448.254	9.26
448.458	9.36
448.662	9.63
448.866	9.74
449.069	9.83
449.273	9.87
449.477	9.76
449.681	10.26
449.884	10.34
450.088	10.46
450.292	10.38
450.495	10.03
450.699	10.18
450.902	10.15
451.106	10.02
451.31	10.13
451.513	10.21
451.717	10.25
451.92	10.25
452.124	10.19
452.327	10
452.531	9.89
452.734	9.73
452.938	9.57
453.141	9.66
453.345	9.61
453.548	9.38
