Data from JASIL_3169_Reflection_1.txt Node
Date: Thu Nov 12 22:53:53 EST 2015
User: Geneva
Spectrometer: USB4E03002
Autoset integration time: false
Trigger mode: 4
Integration Time (sec): 1.000000E-1
Scans to average: 10
Electric dark correction enabled: true
Nonlinearity correction enabled: false
Boxcar width: 5
Stray light correction enabled: false
XAxis mode: Wavelengths
Stop averaging: false
Number of Pixels in Spectrum: 3648
>>>>>Begin Spectral Data<<<<<
177.575	-51.82
177.794	38.28
178.014	37.75
178.233	-268.25
178.452	42.32
178.672	-108.61
178.891	6.74
179.11	8.85
179.33	272.8
179.549	278.19
179.768	-2030.34
179.987	-536.01
180.207	-324.45
180.426	-986.41
180.645	1189.77
180.864	677.33
181.084	569.01
181.303	2925.68
181.522	598.52
181.741	259.34
181.96	418.98
182.179	305.91
182.398	917.98
182.618	834.65
182.837	-161.93
183.056	-93.19
183.275	-36.2
183.494	-53.16
183.713	-48.65
183.932	-25.63
184.151	-23.92
184.37	12.25
184.589	-27.51
184.808	-37.67
185.027	-16.18
185.246	-71.29
185.465	-52.35
185.684	-73.3
185.903	-60.58
186.122	-71.65
186.341	-114.3
186.56	-139.44
186.779	-1556.92
186.998	-736.33
187.216	-324.41
187.435	-658.2
187.654	-1532.21
187.873	-1356.34
188.092	955.66
188.311	2010.4
188.53	6289.87
188.748	-8438.26
188.967	-387.46
189.186	-170.53
189.405	-221.88
189.623	-147.48
189.842	-121.67
190.061	-117.6
190.28	-141.95
190.498	-71.02
190.717	-79.07
190.936	-151.79
191.154	-95.3
191.373	-366.9
191.592	-138.48
191.81	-184.23
192.029	-1356.22
192.248	-559.36
192.466	-466.97
192.685	-549.88
192.904	-653.07
193.122	-624.73
193.341	-389.37
193.559	-686.18
193.778	-209.88
193.996	-367.06
194.215	-171.4
194.433	-153.05
194.652	-293.59
194.87	-226.04
195.089	-330.35
195.307	-420.92
195.526	-956.24
195.744	4515.15
195.963	532
196.181	247.36
196.399	207.94
196.618	132.69
196.836	161.79
197.055	248.58
197.273	233.13
197.491	223.75
197.71	122.2
197.928	128.04
198.146	211.18
198.365	459.22
198.583	558.73
198.801	352.78
199.019	-105.97
199.238	6.27
199.456	-93.22
199.674	-28.54
199.892	-206
200.111	-248.97
200.329	-240.02
200.547	-136.38
200.765	-282.01
200.983	-117.65
201.202	-92.06
201.42	-177.71
201.638	-92.6
201.856	-101.53
202.074	-134.41
202.292	-32.42
202.51	-63.83
202.728	-83.84
202.946	-94.07
203.165	-90
203.383	-166.57
203.601	-132.86
203.819	-98.11
204.037	-108.55
204.255	-91.21
204.473	-117.62
204.691	-139.01
204.909	-71.45
205.127	-50.6
205.345	-52.74
205.562	-69.6
205.78	-55.95
205.998	-40.35
206.216	-54.53
206.434	-147.58
206.652	-191.46
206.87	-124.77
207.088	-5082.81
207.306	-898.39
207.523	1031.41
207.741	907.08
207.959	-2790.45
208.177	-480.9
208.395	-782.51
208.612	-352.63
208.83	-155.31
209.048	-203.37
209.266	-234.1
209.483	-77.42
209.701	-76.69
209.919	-50.72
210.136	-18.9
210.354	-19.48
210.572	-51.73
210.79	-15.91
211.007	-0.75
211.225	-20.52
211.442	-12.35
211.66	-8.54
211.878	-30.24
212.095	49.68
212.313	34.1
212.53	51.92
212.748	51.67
212.966	46.92
213.183	50.48
213.401	70.91
213.618	71.51
213.836	74.31
214.053	72.73
214.271	67.95
214.488	-4731.17
214.705	-881.05
214.923	-619.1
215.14	-257.61
215.358	-332.31
215.575	-165.18
215.793	-109.4
216.01	394.58
216.227	-3836.36
216.445	68.03
216.662	11.84
216.879	-7.25
217.097	-38.04
217.314	-27.9
217.531	-65.23
217.749	9.61
217.966	-17.56
218.183	-41.98
218.4	-43.42
218.618	-60.24
218.835	-89.62
219.052	-81.09
219.269	-69.78
219.487	-66.02
219.704	-90.79
219.921	-139.86
220.138	-223.31
220.355	-314.4
220.572	-159.74
220.79	-79.07
221.007	-66.09
221.224	-97.35
221.441	-99.61
221.658	-91.38
221.875	-54.86
222.092	-67.74
222.309	-28.32
222.526	-45.5
222.743	-59.61
222.96	-71.59
223.177	-106.26
223.394	-178.18
223.611	-79.45
223.828	-88.08
224.045	-64.64
224.262	-130.56
224.479	-122.47
224.696	-100.4
224.913	-70.34
225.13	-57.3
225.347	-24.53
225.564	-5.43
225.781	5.16
225.997	4.98
226.214	-2.19
226.431	-15.21
226.648	-6.78
226.865	1.62
227.082	-10.32
227.298	-1.08
227.515	-1.71
227.732	-5.4
227.949	-16.55
228.165	-14.76
228.382	-17.82
228.599	-18.28
228.816	-29.78
229.032	-26.23
229.249	-34.82
229.466	-9.45
229.682	-22.97
229.899	-32.75
230.116	-32.79
230.332	-40.92
230.549	-42.72
230.765	-16.65
230.982	-8.48
231.199	3.45
231.415	-7.8
231.632	14.4
231.848	-11.97
232.065	-0.05
232.281	13.5
232.498	7.52
232.714	1.62
232.931	-6.05
233.147	-27.57
233.364	-31.15
233.58	-37.3
233.797	-31.73
234.013	-49.7
234.23	-38.88
234.446	-69.95
234.662	-87.66
234.879	-70.83
235.095	-78.06
235.312	-89.73
235.528	-61.02
235.744	-59.62
235.961	-61.45
236.177	-75.36
236.393	-88.5
236.61	-82.51
236.826	-48.31
237.042	-46.17
237.258	-61.02
237.475	-59.49
237.691	-55.4
237.907	-59.87
238.123	-66.91
238.339	-59.45
238.556	-56.34
238.772	-46.56
238.988	-25.14
239.204	-36.12
239.42	-31.42
239.636	-22.46
239.853	-13.29
240.069	-13.88
240.285	-15.22
240.501	-13.56
240.717	-9.46
240.933	-4.8
241.149	-5.57
241.365	-8.86
241.581	-9.76
241.797	-3.89
242.013	-3.12
242.229	-1.57
242.445	2.82
242.661	3.38
242.877	-2.26
243.093	-0.67
243.309	-2.73
243.525	0.49
243.741	-4.77
243.957	-0.73
244.173	-7.21
244.388	-7.57
244.604	-0.17
244.82	-11.19
245.036	-10.99
245.252	-2.29
245.468	1.67
245.683	2.54
245.899	2.34
246.115	5.26
246.331	6.15
246.547	6.26
246.762	4.47
246.978	1.08
247.194	4.33
247.409	3.17
247.625	0.89
247.841	-2.75
248.057	-2.06
248.272	0.91
248.488	1.57
248.703	2.15
248.919	5.12
249.135	8.22
249.35	7.36
249.566	9.56
249.782	7.9
249.997	14.14
250.213	12.4
250.428	11.98
250.644	3.09
250.859	2.39
251.075	-6.69
251.29	-8.16
251.506	-8.32
251.721	-7.72
251.937	-8.63
252.152	-9.24
252.368	-13.49
252.583	-19.99
252.798	-19.65
253.014	-18.39
253.229	-32.17
253.445	-23.27
253.66	-26.69
253.875	-33.38
254.091	-38.87
254.306	-36.87
254.521	-38.05
254.737	-33.42
254.952	-26.97
255.167	-32.82
255.383	-28.18
255.598	-22.93
255.813	-19.13
256.028	-16.52
256.244	-14.1
256.459	-11.05
256.674	-8.74
256.889	-7.84
257.104	-4.57
257.32	2.62
257.535	3.91
257.75	0.62
257.965	3.81
258.18	0.1
258.395	-1.62
258.61	1.77
258.826	2.7
259.041	2.73
259.256	2.6
259.471	0.91
259.686	-4
259.901	-2.35
260.116	-1.44
260.331	-2.05
260.546	1.11
260.761	2.2
260.976	-0.06
261.191	-1.64
261.406	-1.59
261.621	-5.08
261.836	-3.4
262.05	-1.42
262.265	-3.28
262.48	3.45
262.695	5.85
262.91	5.37
263.125	5.01
263.34	6.09
263.555	5.37
263.769	-2.42
263.984	0.7
264.199	-4.38
264.414	-5.63
264.629	-3.27
264.843	-11.94
265.058	-17.04
265.273	-18.68
265.488	-19.17
265.702	-14.99
265.917	-12.77
266.132	-10.8
266.346	-5.54
266.561	-6.98
266.776	-3.32
266.99	-8.4
267.205	-3.35
267.42	-1.64
267.634	-0.21
267.849	0.09
268.063	-1.52
268.278	-0.68
268.492	-1.04
268.707	-0.25
268.922	3.15
269.136	5.41
269.351	13.03
269.565	12.04
269.78	10.05
269.994	8.53
270.209	8.15
270.423	5.56
270.637	3.63
270.852	4.93
271.066	3.65
271.281	1.69
271.495	-0.85
271.709	-7.2
271.924	-10.4
272.138	-8.17
272.353	-13.46
272.567	-15.14
272.781	-15.38
272.996	-15.93
273.21	-14.97
273.424	-14.15
273.638	-8.74
273.853	-9.32
274.067	-8.25
274.281	-5.85
274.495	-11.53
274.71	-2.66
274.924	-2.19
275.138	-0.04
275.352	-1.19
275.566	-2.71
275.781	-5.04
275.995	-9.28
276.209	-13.63
276.423	-13.29
276.637	-13.6
276.851	-8.61
277.065	-13.93
277.279	-14.02
277.493	-12.16
277.707	-6.49
277.921	-5.38
278.135	-4.08
278.349	4.69
278.563	6.89
278.777	6.2
278.991	5.11
279.205	2.93
279.419	4.99
279.633	4.26
279.847	1.21
280.061	-0.87
280.275	-0.75
280.489	-3.9
280.703	-15.01
280.917	-11.4
281.131	-11.07
281.344	-13.21
281.558	-11.46
281.772	-14.2
281.986	-14.34
282.2	-14.32
282.414	-12.83
282.627	-14.02
282.841	-10.56
283.055	-5.39
283.269	-6.68
283.482	-8.97
283.696	-9.71
283.91	-8.46
284.123	-10.07
284.337	-7.76
284.551	-5.13
284.764	-2.1
284.978	-1.41
285.192	-1.62
285.405	-4.46
285.619	-3.53
285.833	0.94
286.046	7.3
286.26	8.12
286.473	10.36
286.687	9.08
286.9	9.5
287.114	5.85
287.327	4.69
287.541	4.56
287.754	6.26
287.968	6.5
288.181	2.33
288.395	-3.38
288.608	-1.75
288.822	-2.64
289.035	-3.21
289.248	-5.63
289.462	-4.3
289.675	-0.82
289.889	-0.95
290.102	0.88
290.315	-0.79
290.529	0.12
290.742	0.83
290.955	-2.71
291.169	1.2
291.382	1.99
291.595	5.38
291.808	4.96
292.022	2.32
292.235	3.02
292.448	2.09
292.661	1.56
292.875	-1.04
293.088	0.71
293.301	-0.76
293.514	-4.67
293.727	-5.27
293.94	-8.76
294.153	-7.69
294.367	-10.25
294.58	-8.84
294.793	-12.64
295.006	-13.02
295.219	-8.86
295.432	-10.07
295.645	-7.73
295.858	-6.3
296.071	-6
296.284	-3.8
296.497	-2.64
296.71	-0.93
296.923	-3.61
297.136	-1.53
297.349	-1.05
297.562	0.7
297.775	1.45
297.988	-0.49
298.201	-1.24
298.414	0.39
298.626	0.63
298.839	-0.6
299.052	0.9
299.265	2.48
299.478	4.33
299.691	3.05
299.903	0.67
300.116	2.43
300.329	5.51
300.542	5.8
300.755	4.03
300.967	1.49
301.18	0.06
301.393	0.43
301.605	3.47
301.818	3.1
302.031	5.16
302.243	5.35
302.456	3.07
302.669	4.34
302.881	-0.64
303.094	-0.41
303.307	-0.06
303.519	2.78
303.732	1.18
303.944	-2.23
304.157	-7.76
304.37	-6.98
304.582	-6.14
304.795	-6.08
305.007	-6.86
305.22	-1.05
305.432	-1.47
305.645	-2.32
305.857	-4.97
306.069	-4.31
306.282	-3.16
306.494	2.78
306.707	4.08
306.919	3.97
307.132	1.85
307.344	-0.53
307.556	-3.99
307.769	-4.31
307.981	-2.45
308.193	-1.27
308.406	-2.08
308.618	-1.05
308.83	-0.9
309.043	-2.17
309.255	-2.9
309.467	-3.82
309.679	-2.11
309.892	-0.05
310.104	-0.05
310.316	-1.89
310.528	-2.87
310.74	-3.17
310.953	-5.43
311.165	-8.06
311.377	-8.51
311.589	-7.88
311.801	-6.21
312.013	-8.77
312.225	-9.67
312.437	-11.77
312.649	-12.44
312.862	-10.43
313.074	-9.63
313.286	-7.84
313.498	-4.35
313.71	-4.97
313.922	-5.71
314.134	-6.69
314.346	-5.49
314.558	-4.25
314.77	0.65
314.982	1.21
315.193	-3.23
315.405	-6.61
315.617	-4.83
315.829	-7.97
316.041	-7.66
316.253	-7.24
316.465	-5.27
316.677	-5.55
316.888	-6.23
317.1	-3.02
317.312	-1.58
317.524	1.18
317.736	0.85
317.947	-6.28
318.159	-5.3
318.371	0.24
318.583	3.54
318.794	2.91
319.006	3.41
319.218	5.34
319.43	0.5
319.641	-0.18
319.853	0.91
320.064	4.79
320.276	9.8
320.488	8.09
320.699	3.45
320.911	-0.59
321.123	-3.3
321.334	-6.87
321.546	-9.32
321.757	-4.87
321.969	-2.03
322.18	-4.55
322.392	-5.21
322.603	-5.31
322.815	-4.12
323.026	-3.89
323.238	-4.26
323.449	-0.73
323.661	2.61
323.872	3.27
324.083	-0.78
324.295	0.49
324.506	2.91
324.718	3
324.929	5.62
325.14	7.89
325.352	5.12
325.563	4.88
325.774	3.95
325.986	3.4
326.197	1.71
326.408	5.54
326.62	2.47
326.831	-0.84
327.042	-0.7
327.253	-2.4
327.464	-2.14
327.676	2.68
327.887	4.75
328.098	4.25
328.309	5.68
328.52	8
328.732	7.71
328.943	7.41
329.154	11.6
329.365	11.65
329.576	12.65
329.787	12.95
329.998	10
330.209	9.06
330.42	9.93
330.631	7.49
330.842	10.56
331.053	8.55
331.264	10.17
331.475	8.35
331.686	8.44
331.897	8.86
332.108	6.39
332.319	10.08
332.53	9.92
332.741	11.8
332.952	13.64
333.163	11.55
333.374	12.76
333.585	13.66
333.795	11.84
334.006	12.86
334.217	13.79
334.428	15.38
334.639	14.07
334.849	16.42
335.06	18.79
335.271	18.83
335.482	20.43
335.692	20.32
335.903	19.15
336.114	21.37
336.325	19.97
336.535	18.67
336.746	17.35
336.957	17.44
337.167	16.11
337.378	10.66
337.589	11.14
337.799	10.39
338.01	7.94
338.22	8.96
338.431	9.31
338.642	8.64
338.852	7.95
339.063	7.6
339.273	6.59
339.484	6.77
339.694	8.94
339.905	8.59
340.115	4.73
340.326	7.86
340.536	7.18
340.746	6.59
340.957	7.45
341.167	7.19
341.378	7.79
341.588	8.31
341.799	6.47
342.009	5.46
342.219	5.39
342.43	9.26
342.64	9.71
342.85	10.89
343.061	10.04
343.271	10.68
343.481	11.17
343.691	10.69
343.902	10.06
344.112	11
344.322	13.81
344.532	13.23
344.743	11.85
344.953	9.72
345.163	9.7
345.373	12.2
345.583	12.79
345.793	12.14
346.004	13.79
346.214	14.42
346.424	17.09
346.634	17.55
346.844	19.31
347.054	21.26
347.264	22.58
347.474	22.23
347.684	22.47
347.894	21.42
348.104	21.89
348.314	19.47
348.524	19.12
348.734	18.66
348.944	18.16
349.154	16.41
349.364	14.85
349.574	16.18
349.784	17.66
349.994	17.28
350.204	18.06
350.413	17.76
350.623	19.03
350.833	19.99
351.043	18.97
351.253	17.35
351.463	17.82
351.672	16.66
351.882	14.9
352.092	12.68
352.302	12.15
352.511	11.2
352.721	10.49
352.931	10.96
353.141	10.96
353.35	10.46
353.56	11.19
353.77	11.06
353.979	13.11
354.189	12.5
354.399	12.93
354.608	10.74
354.818	10.68
355.027	12.09
355.237	11.5
355.447	10.32
355.656	10.37
355.866	8.95
356.075	7.7
356.285	6.37
356.494	7.12
356.704	5.8
356.913	6.54
357.123	7.1
357.332	7.41
357.542	7.81
357.751	8.82
357.96	8.79
358.17	9.86
358.379	11.91
358.589	12.29
358.798	12.27
359.007	13.85
359.217	15.31
359.426	16.44
359.635	16.03
359.845	16.86
360.054	15.57
360.263	15.41
360.472	14.6
360.682	13.56
360.891	14.49
361.1	14.37
361.309	14.85
361.519	13.99
361.728	12.54
361.937	12.47
362.146	11.32
362.355	12.89
362.564	13.59
362.774	14.35
362.983	15.22
363.192	14.64
363.401	14.73
363.61	14.45
363.819	14.17
364.028	14.66
364.237	14.88
364.446	15.47
364.655	13.95
364.864	14.3
365.073	14.68
365.282	14.01
365.491	13.24
365.7	14.9
365.909	14.89
366.118	15.05
366.327	15.44
366.536	16.15
366.745	16.89
366.954	16.17
367.162	13.75
367.371	13.54
367.58	12.36
367.789	14.38
367.998	11.8
368.207	12
368.415	11.84
368.624	11.62
368.833	10.98
369.042	10.37
369.25	12.73
369.459	15.23
369.668	15.28
369.877	16.05
370.085	15.7
370.294	16.53
370.503	15.52
370.711	16.33
370.92	15.49
371.129	15.41
371.337	14.92
371.546	14.52
371.754	12.42
371.963	10.62
372.171	11.67
372.38	10.39
372.589	8.86
372.797	9.67
373.006	7.79
373.214	7.83
373.423	7.87
373.631	8.83
373.84	9.36
374.048	10.67
374.256	11.72
374.465	10
374.673	9.59
374.882	10.18
375.09	10.27
375.298	11.65
375.507	13.73
375.715	13.29
375.923	13.62
376.132	12.14
376.34	12.96
376.548	13.01
376.757	13.55
376.965	14.74
377.173	15.28
377.381	14.6
377.59	14
377.798	12.03
378.006	12.06
378.214	9.89
378.423	11.63
378.631	10.91
378.839	9.7
379.047	10.73
379.255	10.21
379.463	11.99
379.671	11.89
379.879	13.23
380.088	13.92
380.296	15.26
380.504	17.21
380.712	15.7
380.92	15.79
381.128	17.33
381.336	16.95
381.544	16.35
381.752	15.15
381.96	15.93
382.168	15.15
382.376	14.71
382.584	13.38
382.791	12.22
382.999	12.22
383.207	11.5
383.415	11.75
383.623	11.46
383.831	11.33
384.039	10.18
384.247	9.36
384.454	10.23
384.662	11.3
384.87	12.33
385.078	12.62
385.285	13.49
385.493	13.25
385.701	13.94
385.909	12.88
386.116	13.7
386.324	15.04
386.532	15.32
386.739	14.84
386.947	13.45
387.155	12.31
387.362	11.64
387.57	11.12
387.778	11.09
387.985	10.38
388.193	10.56
388.4	10.73
388.608	10.11
388.816	9.97
389.023	10.85
389.231	11.37
389.438	11.9
389.646	11.87
389.853	12.23
390.061	11.99
390.268	10.14
390.475	10.97
390.683	10.47
390.89	10.82
391.098	11.65
391.305	10.87
391.512	10.83
391.72	10.7
391.927	12.27
392.135	11.76
392.342	13.95
392.549	14.95
392.756	15.32
392.964	16.07
393.171	15.67
393.378	15.54
393.586	15.54
393.793	15.73
394	15.47
394.207	13.7
394.414	13.99
394.622	12.45
394.829	12.33
395.036	11.67
395.243	10.53
395.45	10.76
395.657	10.18
395.864	9.66
396.072	9.23
396.279	10.14
396.486	10.49
396.693	10.34
396.9	10.97
397.107	11.02
397.314	11.88
397.521	13.16
397.728	12.71
397.935	11.86
398.142	12.18
398.349	12.54
398.556	12.38
398.763	13.25
398.97	13.32
399.177	13.94
399.383	14.77
399.59	14.93
399.797	13.55
400.004	14.37
400.211	15.2
400.418	15.63
400.625	15.21
400.831	14.92
401.038	14.47
401.245	13.81
401.452	12.57
401.658	12.51
401.865	12.23
402.072	11.79
402.279	9.86
402.485	9.54
402.692	8.76
402.899	8.34
403.105	8.25
403.312	9.52
403.519	10.15
403.725	10.01
403.932	9.65
404.138	8.98
404.345	10.46
404.552	12.35
404.758	12.59
404.965	12.73
405.171	13.76
405.378	13.56
405.584	11.71
405.791	12.18
405.997	12.09
406.204	11.87
406.41	11.43
406.617	11.75
406.823	10.34
407.029	10.29
407.236	10.61
407.442	9.72
407.649	9.63
407.855	10.2
408.061	9.56
408.268	10.57
408.474	11.46
408.68	12.17
408.887	11.61
409.093	12.57
409.299	11.61
409.505	12.12
409.712	12.45
409.918	12.51
410.124	12.52
410.33	12.49
410.537	11.84
410.743	11.11
410.949	11.23
411.155	11.33
411.361	11.48
411.567	12.91
411.773	12.84
411.98	12.81
412.186	12.52
412.392	13.36
412.598	12.92
412.804	13.45
413.01	13.56
413.216	13.47
413.422	13.08
413.628	12.87
413.834	12.28
414.04	12.1
414.246	13.16
414.452	13.95
414.658	13.62
414.864	14.55
415.07	14.54
415.275	14.81
415.481	15.1
415.687	14.7
415.893	14.63
416.099	15.1
416.305	14.95
416.511	14.48
416.716	14.14
416.922	14.16
417.128	13.65
417.334	13.39
417.539	13.31
417.745	13.24
417.951	14
418.157	14.19
418.362	13.67
418.568	13.75
418.774	13.48
418.979	13.12
419.185	12.93
419.391	13.12
419.596	13.05
419.802	13.01
420.008	13
420.213	8.05
420.419	8.03
420.624	8.49
420.83	8.97
421.035	8.95
421.241	9.38
421.446	9.79
421.652	9.49
421.857	9.72
422.063	9.56
422.268	9.25
422.474	13.09
422.679	13.23
422.885	13.17
423.09	12.81
423.295	13.38
423.501	12.85
423.706	12.42
423.911	12.85
424.117	12.83
424.322	12.83
424.527	13.22
424.733	13.86
424.938	13.45
425.143	12.82
425.349	12.55
425.554	11.98
425.759	13.25
425.964	13.26
426.169	13.29
426.375	13.01
426.58	13.32
426.785	13.4
426.99	13.11
427.195	13.02
427.4	13.89
427.605	13.59
427.811	13.85
428.016	12.77
428.221	13.01
428.426	12.28
428.631	11.95
428.836	11.82
429.041	11.32
429.246	11.34
429.451	11.48
429.656	11.6
429.861	11.72
430.066	12.13
430.271	12.38
430.476	12.15
430.681	12.95
430.886	13.32
431.09	13.31
431.295	13.84
431.5	14.09
431.705	14.17
431.91	13.64
432.115	14.53
432.32	13.75
432.524	13.45
432.729	13.13
432.934	12.58
433.139	12.92
433.343	12.78
433.548	12.58
433.753	12.22
433.958	12.97
434.162	13.19
434.367	12.92
434.572	13.15
434.776	13.22
434.981	13.54
435.186	14.39
435.39	14.16
435.595	14.03
435.799	14.19
436.004	13.75
436.209	13.44
436.413	13.16
436.618	12.93
436.822	13.22
437.027	13.06
437.231	13.19
437.436	12.56
437.64	12.17
437.845	12.28
438.049	11.9
438.253	12.53
438.458	11.59
438.662	11.82
438.867	11.85
439.071	11.77
439.275	11.95
439.48	11.69
439.684	11.58
439.888	11.88
440.093	12.25
440.297	12.58
440.501	12.88
440.706	12.95
440.91	12.51
441.114	12.1
441.318	11.99
441.523	11.77
441.727	12.04
441.931	12.2
442.135	12.33
442.339	11.76
442.543	11.51
442.748	10.84
442.952	11.37
443.156	11.88
443.36	12.24
443.564	12.28
443.768	12.98
443.972	12.49
444.176	12.92
444.38	12.97
444.584	13.49
444.788	13.88
444.992	14.1
445.196	13.84
445.4	13.73
445.604	14.13
445.808	14.09
446.012	14.04
446.216	14.54
446.42	14.07
446.624	13.83
446.828	13.1
447.032	12.27
447.235	12.69
447.439	12.7
447.643	12.67
447.847	11.95
448.051	11.92
448.254	11.44
448.458	11.55
448.662	11.89
448.866	12.25
449.069	12.66
449.273	12.97
449.477	12.59
449.681	12.59
449.884	12.47
450.088	12.43
450.292	12.94
450.495	13.38
450.699	12.65
450.902	13.08
451.106	12.93
451.31	12.97
451.513	12.81
451.717	12.89
451.92	13.09
452.124	13.58
452.327	14.23
452.531	13.75
452.734	13.38
452.938	13.73
453.141	13.07
453.345	13.35
453.548	13.34
453.752	13.56
453.955	12.91
454.158	13.22
454.362	12.43
454.565	12.51
