Data from JASIL_3149_Reflection_1.txt Node
Date: Thu Nov 12 21:11:39 EST 2015
User: Geneva
Spectrometer: USB4E03002
Autoset integration time: false
Trigger mode: 4
Integration Time (sec): 1.000000E-1
Scans to average: 10
Electric dark correction enabled: true
Nonlinearity correction enabled: false
Boxcar width: 5
Stray light correction enabled: false
XAxis mode: Wavelengths
Stop averaging: false
Number of Pixels in Spectrum: 3648
>>>>>Begin Spectral Data<<<<<
177.575	36.26
177.794	89.33
178.014	180.13
178.233	-73.92
178.452	-8065.22
178.672	-61.76
178.891	-47.41
179.11	-133.33
179.33	-51.43
179.549	-36.01
179.768	572.32
179.987	372.22
180.207	-143.07
180.426	-43.55
180.645	-27.09
180.864	-20.93
181.084	-18.54
181.303	-26.41
181.522	-12.19
181.741	-8.21
181.96	4.56
182.179	-5.05
182.398	-8.12
182.618	-24.64
182.837	-37.12
183.056	-48.2
183.275	-78.35
183.494	-64.47
183.713	-72.65
183.932	-89.92
184.151	-92.8
184.37	-142.94
184.589	-89.92
184.808	-103.02
185.027	-107.66
185.246	-74.89
185.465	-89.48
185.684	-93.26
185.903	-208.74
186.122	-132.14
186.341	-150.74
186.56	-134.16
186.779	-30.83
186.998	-6.75
187.216	-72.66
187.435	-113.09
187.654	-173.69
187.873	-200.13
188.092	-73.58
188.311	-80.17
188.53	-61.82
188.748	-55.86
188.967	-228.91
189.186	-280.05
189.405	-214.75
189.623	-196.51
189.842	-92.49
190.061	-136.46
190.28	-106.39
190.498	-194.84
190.717	-153.22
190.936	-150.71
191.154	-149.31
191.373	-48.19
191.592	-52.33
191.81	-61.38
192.029	-35.93
192.248	-29.53
192.466	-17.7
192.685	-18.99
192.904	-7.77
193.122	-12.41
193.341	-15.29
193.559	-1.32
193.778	-68.56
193.996	-124.93
194.215	-131.71
194.433	-238.89
194.652	-183.15
194.87	-143.39
195.089	-115.25
195.307	-67.51
195.526	-70.26
195.744	-48.35
195.963	-17.77
196.181	-5.85
196.399	-19.89
196.618	-7.76
196.836	13.56
197.055	-32.07
197.273	-19.6
197.491	-36.14
197.71	-182.43
197.928	-13.1
198.146	-48.27
198.365	-2233.9
198.583	475.58
198.801	301.13
199.019	120.86
199.238	140.4
199.456	236.16
199.674	189.16
199.892	196.65
200.111	2290.77
200.329	7862.61
200.547	463.37
200.765	1088.32
200.983	-1884.96
201.202	-809.76
201.42	-320.89
201.638	-421.73
201.856	-374.17
202.074	-118.47
202.292	-480
202.51	-205.01
202.728	-127.97
202.946	-189.19
203.165	-200.4
203.383	-107.66
203.601	-78.14
203.819	-46.53
204.037	-12.76
204.255	-46.27
204.473	-23.34
204.691	-22.14
204.909	-91.07
205.127	-122.36
205.345	-48.74
205.562	-39.21
205.78	-78.3
205.998	-109.12
206.216	-70.14
206.434	-133.65
206.652	-39.43
206.87	-103.27
207.088	-2.63
207.306	23.84
207.523	34.14
207.741	25.87
207.959	44.07
208.177	27.26
208.395	13.98
208.612	-77.96
208.83	-353.83
209.048	630.23
209.266	-15253.57
209.483	160.85
209.701	247.08
209.919	-2610.15
210.136	280.77
210.354	368.98
210.572	-14650
210.79	-7805.3
211.007	1830.54
211.225	-396.95
211.442	-313.01
211.66	-344.86
211.878	-437.04
212.095	42.87
212.313	53.4
212.53	49.99
212.748	74.21
212.966	83.75
213.183	105.89
213.401	96.33
213.618	101.67
213.836	90.28
214.053	78.88
214.271	88.12
214.488	-7.64
214.705	-48.18
214.923	-36.33
215.14	-18.35
215.358	-26.9
215.575	-73.14
215.793	-91.59
216.01	-80.95
216.227	-127.52
216.445	-391.37
216.662	-146.77
216.879	-128.06
217.097	-122.54
217.314	-504.32
217.531	-1445.79
217.749	-1253.35
217.966	-259.11
218.183	-112.01
218.4	-80.59
218.618	-309.01
218.835	-207.19
219.052	-377.84
219.269	-902.5
219.487	-251.37
219.704	-94.9
219.921	-19.64
220.138	13.3
220.355	25.77
220.572	65.05
220.79	18.56
221.007	24.42
221.224	34.61
221.441	41.12
221.658	30.6
221.875	24.14
222.092	53.95
222.309	-69.28
222.526	-38.76
222.743	-19.69
222.96	-67.66
223.177	-30.67
223.394	44.74
223.611	-74.42
223.828	-29.14
224.045	-661.88
224.262	349.58
224.479	256.8
224.696	432.14
224.913	281.63
225.13	455.66
225.347	270.39
225.564	172.34
225.781	191.9
225.997	168.4
226.214	110.45
226.431	130.46
226.648	160.83
226.865	85.1
227.082	13.58
227.298	36.4
227.515	48.4
227.732	36.81
227.949	43.7
228.165	29.59
228.382	26.9
228.599	15.86
228.816	11.58
229.032	13.41
229.249	19.31
229.466	26.64
229.682	22.89
229.899	19.42
230.116	35.36
230.332	18.71
230.549	27.26
230.765	43.23
230.982	50.33
231.199	59.47
231.415	51.48
231.632	54.08
231.848	55.37
232.065	63.36
232.281	69.56
232.498	61.35
232.714	74.51
232.931	70.25
233.147	75.55
233.364	68.78
233.58	64.65
233.797	93.15
234.013	78.98
234.23	95.75
234.446	84.82
234.662	80.87
234.879	67.44
235.095	52.12
235.312	59.21
235.528	39.1
235.744	47.1
235.961	49.92
236.177	30.9
236.393	49.64
236.61	6.52
236.826	33.21
237.042	36.78
237.258	57.36
237.475	68.96
237.691	84.63
237.907	158.77
238.123	151.49
238.339	136.85
238.556	116.37
238.772	104.43
238.988	120.01
239.204	110.97
239.42	91.81
239.636	64.39
239.853	56.19
240.069	42.43
240.285	41.48
240.501	36.09
240.717	29.61
240.933	28.34
241.149	29.72
241.365	24.85
241.581	21.44
241.797	25.12
242.013	27.2
242.229	28.09
242.445	33.97
242.661	28.85
242.877	27.51
243.093	28.16
243.309	26.45
243.525	26.45
243.741	26.08
243.957	24.2
244.173	22.73
244.388	24.19
244.604	31.86
244.82	32.15
245.036	27.09
245.252	30.17
245.468	30.68
245.683	31.7
245.899	28.15
246.115	23.35
246.331	26.01
246.547	24.13
246.762	22.36
246.978	18.48
247.194	15.45
247.409	16.01
247.625	14.85
247.841	11.72
248.057	10.48
248.272	13.24
248.488	17.37
248.703	15.34
248.919	21.22
249.135	23.7
249.35	23.69
249.566	29.65
249.782	31.85
249.997	30.61
250.213	29.03
250.428	25.46
250.644	19.09
250.859	22.43
251.075	21.12
251.29	20.85
251.506	19.55
251.721	20.09
251.937	19.19
252.152	23.9
252.368	22.23
252.583	29.49
252.798	34.69
253.014	32.93
253.229	29.63
253.445	31.89
253.66	28.55
253.875	27.55
254.091	34.11
254.306	38.21
254.521	25.16
254.737	32.79
254.952	32.8
255.167	32.28
255.383	43.04
255.598	42.62
255.813	36.96
256.028	36.85
256.244	32.6
256.459	27.4
256.674	19.66
256.889	26.52
257.104	28.6
257.32	26.48
257.535	23.92
257.75	16.91
257.965	14.24
258.18	13.93
258.395	11.01
258.61	13.18
258.826	13.21
259.041	13.67
259.256	9.76
259.471	5.83
259.686	4.98
259.901	4.43
260.116	5.85
260.331	6.93
260.546	6.73
260.761	10.14
260.976	9.54
261.191	10.07
261.406	10.14
261.621	11.03
261.836	14.06
262.05	10.34
262.265	7.54
262.48	11.72
262.695	11.11
262.91	15.49
263.125	15.15
263.34	16.48
263.555	15.47
263.769	9.25
263.984	10.03
264.199	9.91
264.414	15.37
264.629	19.27
264.843	16.32
265.058	16.36
265.273	14.24
265.488	12.44
265.702	11.29
265.917	7.35
266.132	11.78
266.346	15.65
266.561	13.48
266.776	12.03
266.99	11.53
267.205	11.89
267.42	9.99
267.634	10.83
267.849	12.26
268.063	14.42
268.278	19.02
268.492	16.32
268.707	16.51
268.922	16.5
269.136	15.24
269.351	20.97
269.565	20.31
269.78	24
269.994	21.22
270.209	20.41
270.423	21.19
270.637	17.17
270.852	18.69
271.066	17.77
271.281	17.44
271.495	17.26
271.709	8.04
271.924	7.96
272.138	8.73
272.353	6.91
272.567	5.6
272.781	1.66
272.996	3.7
273.21	4.02
273.424	5.85
273.638	5.18
273.853	5.98
274.067	10.28
274.281	13.25
274.495	8.77
274.71	15.53
274.924	14.01
275.138	16.23
275.352	14.05
275.566	10.22
275.781	8.77
275.995	14.53
276.209	16.1
276.423	12.29
276.637	7.96
276.851	9.41
277.065	-1.83
277.279	-3.86
277.493	-3.78
277.707	3.36
277.921	8.72
278.135	11.35
278.349	8.49
278.563	8.09
278.777	14.78
278.991	17.38
279.205	16.05
279.419	21.8
279.633	20.49
279.847	19.45
280.061	14.52
280.275	15.59
280.489	10.2
280.703	7.23
280.917	9.55
281.131	8.06
281.344	6.13
281.558	5.01
281.772	4.34
281.986	5.98
282.2	5.33
282.414	7.65
282.627	8.27
282.841	12.12
283.055	13.98
283.269	14.36
283.482	10.92
283.696	11.57
283.91	15.39
284.123	12.53
284.337	15
284.551	14.26
284.764	15.8
284.978	14.27
285.192	16.28
285.405	15.13
285.619	14.81
285.833	17.42
286.046	19.23
286.26	19.17
286.473	21.79
286.687	21.44
286.9	25.5
287.114	21.95
287.327	21
287.541	18.82
287.754	18.83
287.968	17.15
288.181	15.57
288.395	12.72
288.608	13.04
288.822	12.17
289.035	10.86
289.248	6.98
289.462	9.84
289.675	11.93
289.889	13.02
290.102	13.93
290.315	15.82
290.529	16.64
290.742	16.17
290.955	13.99
291.169	16.47
291.382	17.05
291.595	16.18
291.808	15.44
292.022	15.14
292.235	14.95
292.448	14.32
292.661	13.53
292.875	11.44
293.088	13.36
293.301	13.66
293.514	8.06
293.727	6.89
293.94	7.84
294.153	8.09
294.367	6.1
294.58	4.18
294.793	4.33
295.006	1.72
295.219	5.43
295.432	5.01
295.645	4.83
295.858	7.45
296.071	6.03
296.284	7.85
296.497	9.85
296.71	10.37
296.923	11.74
297.136	10.93
297.349	10.7
297.562	11.37
297.775	10.38
297.988	10.89
298.201	11.94
298.414	15.05
298.626	14.48
298.839	12.95
299.052	15.17
299.265	12
299.478	13.27
299.691	12.98
299.903	11.02
300.116	14.04
300.329	15.49
300.542	16.47
300.755	14.19
300.967	13.3
301.18	12.77
301.393	9.32
301.605	12.4
301.818	11.83
302.031	10.36
302.243	9.44
302.456	9.79
302.669	9.66
302.881	4.66
303.094	4
303.307	5.28
303.519	5.69
303.732	8.22
303.944	6.37
304.157	5.12
304.37	9.04
304.582	9.3
304.795	3.95
305.007	2.26
305.22	5.89
305.432	6.86
305.645	3.57
305.857	4.04
306.069	4.69
306.282	6.82
306.494	10.03
306.707	11.29
306.919	12.09
307.132	13.98
307.344	14.92
307.556	12.71
307.769	13.96
307.981	15.45
308.193	14.54
308.406	12.85
308.618	11.58
308.83	9.8
309.043	9.49
309.255	8.81
309.467	8.72
309.679	7.5
309.892	9.7
310.104	9.4
310.316	9.22
310.528	9.41
310.74	8.47
310.953	7.41
311.165	8.47
311.377	9.04
311.589	9.17
311.801	8.97
312.013	7.92
312.225	8.39
312.437	9.12
312.649	7.25
312.862	6.33
313.074	6.56
313.286	9.97
313.498	9.27
313.71	5.31
313.922	4.09
314.134	4.04
314.346	5.05
314.558	3.98
314.77	3.98
314.982	5.92
315.193	5.87
315.405	4.83
315.617	3.3
315.829	3.05
316.041	6.82
316.253	11.01
316.465	12
316.677	13.68
316.888	11.6
317.1	12.54
317.312	12.61
317.524	15.96
317.736	16.77
317.947	14.38
318.159	14.75
318.371	19.21
318.583	18.26
318.794	17.78
319.006	15.86
319.218	19.24
319.43	19.51
319.641	19.38
319.853	18.84
320.064	20.85
320.276	23.24
320.488	22.59
320.699	19.25
320.911	19.12
321.123	20.99
321.334	22.58
321.546	19.87
321.757	19
321.969	23.59
322.18	20.12
322.392	18.32
322.603	18.15
322.815	21.8
323.026	21.73
323.238	22.31
323.449	23.81
323.661	23.66
323.872	23.34
324.083	22.22
324.295	19.12
324.506	21.97
324.718	21.32
324.929	21.04
325.14	18.31
325.352	17.06
325.563	16.77
325.774	15.64
325.986	14.65
326.197	16.18
326.408	19.17
326.62	18.46
326.831	16.11
327.042	16.94
327.253	15.78
327.464	16.51
327.676	16.97
327.887	16.83
328.098	16.33
328.309	18.55
328.52	18.24
328.732	15.92
328.943	16.39
329.154	20.81
329.365	20.97
329.576	23.12
329.787	25.8
329.998	25.71
330.209	25.17
330.42	24.25
330.631	20.72
330.842	19.79
331.053	22.45
331.264	25.57
331.475	24.47
331.686	24.4
331.897	25
332.108	21.62
332.319	21.91
332.53	23.08
332.741	25.46
332.952	29.45
333.163	30.33
333.374	27.63
333.585	24.77
333.795	23.33
334.006	27.6
334.217	26.65
334.428	29.3
334.639	26.78
334.849	25.22
335.06	23.71
335.271	21.8
335.482	24.03
335.692	24.7
335.903	25.04
336.114	25.15
336.325	22.86
336.535	23.02
336.746	19.92
336.957	20.28
337.167	21.11
337.378	19.42
337.589	21.75
337.799	20.23
338.01	20
338.22	21.42
338.431	23.24
338.642	21.25
338.852	23.85
339.063	24.54
339.273	26.44
339.484	27.42
339.694	29.14
339.905	27.17
340.115	24.65
340.326	24.94
340.536	24.71
340.746	21.03
340.957	20.93
341.167	17.92
341.378	17.88
341.588	17.73
341.799	13.64
342.009	14.05
342.219	16.24
342.43	20.52
342.64	22.74
342.85	21.54
343.061	24.88
343.271	25.32
343.481	25.32
343.691	24.59
343.902	24.91
344.112	26.75
344.322	28.47
344.532	26.72
344.743	26.81
344.953	25
345.163	24.97
345.373	24.5
345.583	24.36
345.793	24.89
346.004	26.36
346.214	27.09
346.424	28.42
346.634	27.15
346.844	27.98
347.054	27.71
347.264	26.55
347.474	27.02
347.684	26.38
347.894	27.05
348.104	25.65
348.314	23.38
348.524	20.88
348.734	20.74
348.944	20.67
349.154	20.38
349.364	18.52
349.574	20.12
349.784	20.59
349.994	22.36
350.204	22.78
350.413	22.22
350.623	23.14
350.833	26.2
351.043	26.48
351.253	25.33
351.463	25.32
351.672	24.99
351.882	24.49
352.092	22.63
352.302	19.13
352.511	17.6
352.721	16.84
352.931	17.91
353.141	16.87
353.35	16.4
353.56	16.48
353.77	16.3
353.979	16.07
354.189	14.6
354.399	16.59
354.608	18.44
354.818	20.2
355.027	23.01
355.237	22.88
355.447	22.3
355.656	21.15
355.866	20.97
356.075	20.99
356.285	22.72
356.494	24.03
356.704	23.13
356.913	22.9
357.123	22.03
357.332	20.56
357.542	21.16
357.751	20.38
357.96	19.87
358.17	20.68
358.379	20.77
358.589	19.37
358.798	19.03
359.007	19.79
359.217	20.12
359.426	19.37
359.635	19.83
359.845	20.11
360.054	20.28
360.263	20.17
360.472	18.87
360.682	18.14
360.891	19.25
361.1	19.69
361.309	20.63
361.519	20.38
361.728	20.38
361.937	20.6
362.146	19.69
362.355	19.99
362.564	22.15
362.774	23.24
362.983	24.11
363.192	22.92
363.401	21.98
363.61	20.17
363.819	18.77
364.028	20.28
364.237	20.48
364.446	21.06
364.655	19.97
364.864	18.02
365.073	18.58
365.282	18.32
365.491	19.09
365.7	19.86
365.909	19.01
366.118	19.83
366.327	19.09
366.536	18.77
366.745	18.62
366.954	17.68
367.162	18.15
367.371	17.47
367.58	17.57
367.789	17.72
367.998	17.24
368.207	17.65
368.415	16.22
368.624	16.66
368.833	16.72
369.042	16.36
369.25	19.21
369.459	19.13
369.668	19.89
369.877	19.96
370.085	19.59
370.294	18.71
370.503	19.29
370.711	20.36
370.92	20.32
371.129	20.39
371.337	20.15
371.546	20.16
371.754	19.98
371.963	20.03
372.171	19.34
372.38	19.74
372.589	19.95
372.797	18.92
373.006	18.79
373.214	18.88
373.423	18.58
373.631	18.86
373.84	19.21
374.048	19.46
374.256	19.1
374.465	19.77
374.673	19.29
374.882	20.4
375.09	21.74
375.298	21.7
375.507	22.26
375.715	22.93
375.923	23.48
376.132	23.18
376.34	22.05
376.548	21.37
376.757	20.28
376.965	20.13
377.173	20
377.381	20.4
377.59	19.13
377.798	17.68
378.006	17.56
378.214	16.08
378.423	15.67
378.631	16.78
378.839	15.86
379.047	17.58
379.255	17.5
379.463	19.13
379.671	18.02
379.879	19.49
380.088	20.27
380.296	20.8
380.504	22.43
380.712	22.76
380.92	22.93
381.128	24.2
381.336	24
381.544	23.65
381.752	22.62
381.96	23.7
382.168	24
382.376	22.72
382.584	21.98
382.791	21.4
382.999	19.84
383.207	18.78
383.415	19.57
383.623	19.29
383.831	18.5
384.039	17.52
384.247	16.44
384.454	17.41
384.662	17.46
384.87	18
385.078	17.11
385.285	18.62
385.493	19.52
385.701	19
385.909	18.91
386.116	19.65
386.324	18.87
386.532	20.26
386.739	20.13
386.947	20.35
387.155	18.5
387.362	18.22
387.57	17.24
387.778	17.15
387.985	17.03
388.193	16.06
388.4	15.67
388.608	17.38
388.816	15.84
389.023	14.59
389.231	14.63
389.438	15.42
389.646	16.68
389.853	17.12
390.061	17.43
390.268	16.89
390.475	19.13
390.683	19.9
390.89	19.05
391.098	19.49
391.305	19.69
391.512	19.47
391.72	19.31
391.927	19.8
392.135	19.23
392.342	19.36
392.549	19.67
392.756	18.56
392.964	18.73
393.171	17.89
393.378	17.53
393.586	16.42
393.793	16.87
394	17.72
394.207	17.3
394.414	17.9
394.622	16.29
394.829	15.86
395.036	15.37
395.243	13.91
395.45	14.71
395.657	15
395.864	15.8
396.072	15.54
396.279	15.48
396.486	14.71
396.693	14.14
396.9	14.96
397.107	14.84
397.314	15.59
397.521	16.4
397.728	16.84
397.935	16.24
398.142	16.75
398.349	16.79
398.556	15.97
398.763	16.54
398.97	16.9
399.177	17.18
399.383	18.21
399.59	17.86
399.797	16.82
400.004	16.82
400.211	16.71
400.418	16.48
400.625	16.27
400.831	16.86
401.038	16.28
401.245	15.83
401.452	15.92
401.658	15.67
401.865	15.17
402.072	16.11
402.279	14.73
402.485	14.25
402.692	12.93
402.899	13
403.105	12.92
403.312	13.44
403.519	13.63
403.725	13.19
403.932	12.2
404.138	12.42
404.345	12.95
404.552	13.42
404.758	14.62
404.965	15.8
405.171	16.14
405.378	15.87
405.584	16.01
405.791	16.48
405.997	16.1
406.204	16.72
406.41	16.96
406.617	16.51
406.823	16.8
407.029	17.06
407.236	16.32
407.442	15.83
407.649	16.03
407.855	15.38
408.061	14.43
408.268	15.62
408.474	15.61
408.68	15.53
408.887	16.27
409.093	16.6
409.299	14.77
409.505	15.75
409.712	15.98
409.918	16.04
410.124	15.42
410.33	15.93
410.537	16.05
410.743	16.81
410.949	16.9
411.155	17.18
411.361	17.6
411.567	18.98
411.773	19.03
411.98	19.66
412.186	19.17
412.392	19.71
412.598	19.96
412.804	20.3
413.01	19.83
413.216	19.91
413.422	18.64
413.628	18.4
413.834	17.83
414.04	17.22
414.246	17.35
414.452	17.92
414.658	18.58
414.864	18.28
415.07	18.01
415.275	17.67
415.481	17.14
415.687	16.34
415.893	15.65
416.099	16.44
416.305	16.55
416.511	16.64
416.716	16.58
416.922	15.64
417.128	15.73
417.334	15.68
417.539	15.4
417.745	15.88
417.951	16.62
418.157	17.03
418.362	16.63
418.568	16.56
418.774	16.15
418.979	15.8
419.185	15.92
419.391	15.42
419.596	14.8
419.802	15.12
420.008	14.94
420.213	10.15
420.419	10.07
420.624	10.03
420.83	10.29
421.035	10.23
421.241	10.78
421.446	10.69
421.652	11.07
421.857	11.27
422.063	10.88
422.268	10.82
422.474	15.31
422.679	15.71
422.885	15.74
423.09	15.16
423.295	15.43
423.501	14.61
423.706	14.62
423.911	14.45
424.117	14.46
424.322	14.54
424.527	14.41
424.733	14.5
424.938	14.03
425.143	13.51
425.349	13.52
425.554	13.17
425.759	14.12
425.964	14.13
426.169	14.65
426.375	14.48
426.58	14.91
426.785	14.95
426.99	14.73
427.195	14.64
427.4	15.22
427.605	15.42
427.811	15.8
428.016	15.13
428.221	14.74
428.426	14.33
428.631	14.95
428.836	14.7
429.041	14.79
429.246	14.34
429.451	13.79
429.656	14.21
429.861	14.04
430.066	14.51
430.271	15.06
430.476	15.57
430.681	15.2
430.886	14.66
431.09	14.91
431.295	14.95
431.5	15.5
431.705	16.5
431.91	16.05
432.115	16.4
432.32	15.7
432.524	15.36
432.729	15.05
432.934	15.43
433.139	15.7
433.343	15.73
433.548	15.51
433.753	15.15
433.958	15
434.162	15.09
434.367	15.63
434.572	15.59
434.776	15.55
434.981	15.91
435.186	16.06
435.39	15.15
435.595	14.76
435.799	14.93
436.004	15.35
436.209	15.57
436.413	15.29
436.618	15.36
436.822	15.39
437.027	15.14
437.231	14.98
437.436	14.47
437.64	14.86
437.845	15.05
438.049	15.04
438.253	15.18
438.458	14.27
438.662	14.34
438.867	13.75
439.071	13.4
439.275	13.37
439.48	13.49
439.684	13.61
439.888	13.68
440.093	13.45
440.297	13.05
440.501	13.1
440.706	13.24
440.91	12.86
441.114	12.95
441.318	12.88
441.523	12.8
441.727	13.18
441.931	13.27
442.135	13.53
442.339	13.27
442.543	14.02
442.748	13.63
442.952	14.29
443.156	14.88
443.36	14.89
443.564	15.07
443.768	14.97
443.972	13.72
444.176	14.18
444.38	13.99
444.584	14.4
444.788	13.99
444.992	14.02
445.196	13.49
445.4	13.39
445.604	13.3
445.808	13.26
446.012	13.51
446.216	14.01
446.42	13.59
446.624	13.43
446.828	13.07
447.032	13.45
447.235	13.84
447.439	14.1
447.643	14.12
447.847	13.7
448.051	13.41
448.254	13.59
448.458	13.96
448.662	13.87
448.866	14.13
449.069	14.15
449.273	14.08
449.477	13.52
449.681	13.43
449.884	13.65
450.088	14.1
450.292	14.62
450.495	14.52
450.699	14.38
450.902	14.98
451.106	15.1
451.31	15.94
451.513	15.32
451.717	15.7
451.92	15.95
452.124	15.54
452.327	15.78
452.531	15.47
452.734	15.28
452.938	15.18
453.141	14.58
453.345	14.57
453.548	14.63
453.752	14.43
453.955	14.12
454.158	13.89
454.362	13.73
454.565	13.88
454.769	13.74
454.972	13.73
