Data from JASIL_3197_Reflection_02.txt Node
Date: Fri Nov 13 14:02:28 EST 2015
User: Geneva
Spectrometer: USB4E03002
Autoset integration time: false
Trigger mode: 4
Integration Time (sec): 1.000000E-1
Scans to average: 10
Electric dark correction enabled: false
Nonlinearity correction enabled: false
Boxcar width: 5
Stray light correction enabled: false
XAxis mode: Wavelengths
Stop averaging: false
Number of Pixels in Spectrum: 3648
>>>>>Begin Spectral Data<<<<<
177.575	-18.38
177.794	-102.76
178.014	-153.76
178.233	-191.95
178.452	-276.92
178.672	-331.18
178.891	-346.39
179.11	2487.1
179.33	-2322.58
179.549	-1179.01
179.768	-1112.64
179.987	-17716.67
180.207	-483.7
180.426	-704.29
180.645	-405.09
180.864	-259.13
181.084	-221.53
181.303	-378.72
181.522	-225.15
181.741	-364.18
181.96	-982.93
182.179	3408.33
182.398	42250
182.618	524.86
182.837	-1859.18
183.056	1488.14
183.275	1541.07
183.494	21100
183.713	-1335.59
183.932	-1795.92
184.151	-100700
184.37	-500.57
184.589	-430.73
184.808	-203.07
185.027	-148.82
185.246	-170.77
185.465	-150.61
185.684	-206.42
185.903	-231.54
186.122	-1027.78
186.341	-983.58
186.56	-956.52
186.779	279.67
186.998	371.82
187.216	297.15
187.435	255.82
187.654	235.48
187.873	171.94
188.092	253.03
188.311	336.62
188.53	437.77
188.748	534.74
188.967	480.63
189.186	534.5
189.405	368.66
189.623	741.96
189.842	577.08
190.061	1037.37
190.28	-5131.58
190.498	632.94
190.717	338.16
190.936	501.34
191.154	379.04
191.373	490.84
191.592	675
191.81	865.38
192.029	2651.02
192.248	-615.38
192.466	-932.88
192.685	-1560.24
192.904	-289.46
193.122	-189.11
193.341	-280.41
193.559	-371.89
193.778	-512.63
193.996	-304.44
194.215	-432.18
194.433	-278.45
194.652	3404
194.87	1450
195.089	-2538.24
195.307	598.75
195.526	870.09
195.744	-1283.33
195.963	-6742.86
196.181	-490.31
196.399	-488.37
196.618	-387.39
196.836	8209.09
197.055	-635.88
197.273	-489.86
197.491	-231.96
197.71	-289.4
197.928	-415.42
198.146	-3096.77
198.365	1600
198.583	399.64
198.801	371.72
199.019	580
199.238	972.8
199.456	-4153.57
199.674	-1517.72
199.892	2582.05
200.111	-1167.09
200.329	-654.39
200.547	-766.67
200.765	-75.7
200.983	-40.03
201.202	-65.09
201.42	-58.45
201.638	-117.6
201.856	-140.16
202.074	-238.87
202.292	-1156.34
202.51	-3463.64
202.728	-1130.77
202.946	-399.2
203.165	-516.06
203.383	-676.47
203.601	-781.68
203.819	-756.72
204.037	-282.93
204.255	-267.95
204.473	-318.46
204.691	-166.28
204.909	-111.34
205.127	-109.53
205.345	-39.02
205.562	-43.12
205.78	-61.68
205.998	-29.62
206.216	-38.14
206.434	-74.7
206.652	-172.54
206.87	-87.9
207.088	-777.78
207.306	-544.72
207.523	-434.39
207.741	2205.56
207.959	-887.01
208.177	-309.24
208.395	-1473.81
208.612	-232.71
208.83	-807.58
209.048	1178.57
209.266	395.31
209.483	-275.57
209.701	-326.67
209.919	-294.51
210.136	-73.46
210.354	-118.7
210.572	-136.39
210.79	-162.77
211.007	-421.15
211.225	-171.18
211.442	-173.62
211.66	-132.82
211.878	-152.95
212.095	-660.42
212.313	-709.12
212.53	-993.99
212.748	-2759.52
212.966	2780.72
213.183	-4951.11
213.401	-1878.26
213.618	231900
213.836	-3465.67
214.053	2070.8
214.271	1659.29
214.488	1741.86
214.705	2437.93
214.923	7366.67
215.14	-766.3
215.358	-204.84
215.575	-287.25
215.793	-339.53
216.01	-253.09
216.227	-296.9
216.445	-125.1
216.662	-115.49
216.879	-177.27
217.097	-180.78
217.314	-394.74
217.531	-308.42
217.749	-2161.54
217.966	-450
218.183	-2437.93
218.4	-733.98
218.618	-894.25
218.835	3187.5
219.052	777.88
219.269	-7141.67
219.487	599.34
219.704	493.49
219.921	741.75
220.138	-474.13
220.355	-492.44
220.572	-347.27
220.79	-1173.75
221.007	-360.49
221.224	-384.16
221.441	-524.55
221.658	-997.67
221.875	-371.56
222.092	-951.49
222.309	2404.76
222.526	269.93
222.743	211.73
222.96	190.92
223.177	163.7
223.394	163.99
223.611	187.27
223.828	201.03
224.045	163.9
224.262	194.14
224.479	192.08
224.696	166.59
224.913	186.2
225.13	192.23
225.347	163.59
225.564	164.55
225.781	176.03
225.997	139.51
226.214	119.88
226.431	139.93
226.648	69.45
226.865	53.02
227.082	38.49
227.298	38.76
227.515	23.87
227.732	30.04
227.949	37.05
228.165	31.75
228.382	32.28
228.599	31.32
228.816	29.22
229.032	38.26
229.249	39.83
229.466	48.87
229.682	39.61
229.899	60.27
230.116	68.87
230.332	58.29
230.549	76.98
230.765	88.21
230.982	97.76
231.199	115.18
231.415	109.22
231.632	120.35
231.848	118.09
232.065	152.1
232.281	151.12
232.498	157.73
232.714	169.13
232.931	132.2
233.147	116.44
233.364	132.78
233.58	117.82
233.797	102.32
234.013	101.7
234.23	107.25
234.446	96.17
234.662	89.98
234.879	97.4
235.095	89.34
235.312	109.62
235.528	112.47
235.744	110.2
235.961	89.3
236.177	83.41
236.393	80.05
236.61	97.46
236.826	99.65
237.042	108.78
237.258	87.77
237.475	92.71
237.691	101.7
237.907	105.51
238.123	99.09
238.339	102.8
238.556	96.48
238.772	99.14
238.988	70.47
239.204	66.15
239.42	60.77
239.636	78.57
239.853	65.28
240.069	42.99
240.285	35.18
240.501	42.55
240.717	44.46
240.933	52.04
241.149	49.49
241.365	42.53
241.581	44.49
241.797	37.58
242.013	27.89
242.229	32.15
242.445	37.93
242.661	40.85
242.877	42.71
243.093	40.1
243.309	38.87
243.525	38.17
243.741	41.19
243.957	35.68
244.173	35.98
244.388	31.6
244.604	25.41
244.82	19.51
245.036	12.58
245.252	13.12
245.468	9.72
245.683	6.98
245.899	4.78
246.115	4.71
246.331	4.14
246.547	4.69
246.762	9.67
246.978	11.42
247.194	11.55
247.409	15.25
247.625	13.38
247.841	13.66
248.057	20.01
248.272	20.56
248.488	23.31
248.703	30.04
248.919	32.9
249.135	29.46
249.35	30.06
249.566	30.98
249.782	34.13
249.997	33.71
250.213	37.06
250.428	35.65
250.644	41.11
250.859	39.85
251.075	32.68
251.29	34.11
251.506	40.98
251.721	40.16
251.937	38.71
252.152	39.32
252.368	45.55
252.583	50.44
252.798	51.53
253.014	49.11
253.229	50.85
253.445	52.06
253.66	49.46
253.875	39.64
254.091	45.53
254.306	47.97
254.521	46.29
254.737	39.85
254.952	34.87
255.167	27.22
255.383	33.4
255.598	31.96
255.813	29.76
256.028	27.16
256.244	34.55
256.459	33.85
256.674	36.2
256.889	33.63
257.104	26.31
257.32	25.77
257.535	21.39
257.75	16.83
257.965	18.39
258.18	19.34
258.395	22.58
258.61	19.69
258.826	17.44
259.041	13.95
259.256	10.25
259.471	12.43
259.686	14.23
259.901	17.81
260.116	18.44
260.331	17.31
260.546	17.2
260.761	14.82
260.976	16.89
261.191	19.89
261.406	23.74
261.621	29.93
261.836	33.52
262.05	30.06
262.265	30.06
262.48	32.94
262.695	34.97
262.91	35.99
263.125	37.11
263.34	34.12
263.555	28.78
263.769	26.52
263.984	23.49
264.199	18.04
264.414	19.92
264.629	19.02
264.843	19.61
265.058	17.75
265.273	18.76
265.488	15.88
265.702	17.42
265.917	20.86
266.132	22.37
266.346	19.86
266.561	26.49
266.776	24.78
266.99	25.03
267.205	24.07
267.42	23.23
267.634	21.09
267.849	21.78
268.063	19.66
268.278	20.62
268.492	16.97
268.707	17.95
268.922	15.18
269.136	17.48
269.351	17.1
269.565	16.63
269.78	17.55
269.994	20.92
270.209	19.77
270.423	20.08
270.637	18.14
270.852	19.3
271.066	20.26
271.281	20.84
271.495	20.8
271.709	20.7
271.924	19.1
272.138	22.02
272.353	19.17
272.567	20.21
272.781	20.15
272.996	21.84
273.21	20.72
273.424	19.54
273.638	15.92
273.853	13.27
274.067	12.37
274.281	11.18
274.495	12.55
274.71	14.73
274.924	17.34
275.138	18.38
275.352	17.64
275.566	18.89
275.781	19.73
275.995	19.32
276.209	21.28
276.423	21.97
276.637	23.63
276.851	21.53
277.065	22.72
277.279	19.08
277.493	18.63
277.707	16.27
277.921	13.8
278.135	13.58
278.349	14.93
278.563	15.1
278.777	15.71
278.991	14.71
279.205	12.86
279.419	12.76
279.633	11.98
279.847	10.98
280.061	10.75
280.275	12.18
280.489	11.95
280.703	12.66
280.917	12.9
281.131	12.13
281.344	15.1
281.558	15.02
281.772	13.02
281.986	15.81
282.2	18.66
282.414	18.63
282.627	18.57
282.841	20.24
283.055	18.06
283.269	16.2
283.482	15.21
283.696	12.69
283.91	16.33
284.123	15.9
284.337	15.24
284.551	11.17
284.764	12.64
284.978	11.71
285.192	11.48
285.405	13.86
285.619	14.38
285.833	15.76
286.046	14.52
286.26	10.67
286.473	11.83
286.687	11.82
286.9	12.84
287.114	11.1
287.327	11.32
287.541	10.65
287.754	8.58
287.968	10.58
288.181	6.99
288.395	6.92
288.608	8.31
288.822	7.19
289.035	6.92
289.248	7.92
289.462	10.42
289.675	11.99
289.889	14.07
290.102	15.12
290.315	12.97
290.529	15.16
290.742	15.69
290.955	15.78
291.169	16.64
291.382	17.5
291.595	19.27
291.808	18.26
292.022	19.19
292.235	15
292.448	13.47
292.661	13.59
292.875	14.09
293.088	15.43
293.301	16.65
293.514	17.02
293.727	17.17
293.94	16.03
294.153	15.74
294.367	14.3
294.58	16.32
294.793	16.36
295.006	17.08
295.219	16.22
295.432	16.54
295.645	15.57
295.858	14.17
296.071	11.97
296.284	11.33
296.497	12.71
296.71	13.17
296.923	13.6
297.136	13.06
297.349	14.81
297.562	14.06
297.775	12.54
297.988	11.93
298.201	12.55
298.414	10.95
298.626	13.85
298.839	11.32
299.052	10.68
299.265	11.97
299.478	14.2
299.691	10.9
299.903	12.71
300.116	13.29
300.329	13.63
300.542	14.23
300.755	18.05
300.967	13.72
301.18	16.7
301.393	16.22
301.605	13.43
301.818	14.14
302.031	15.64
302.243	15.34
302.456	18.16
302.669	18.73
302.881	20.75
303.094	21.03
303.307	22.76
303.519	22.33
303.732	23.74
303.944	25.39
304.157	24.69
304.37	23.35
304.582	24.12
304.795	23.05
305.007	22.71
305.22	18.67
305.432	17.73
305.645	18.32
305.857	16.51
306.069	16.14
306.282	14.49
306.494	14.95
306.707	15.26
306.919	13.61
307.132	12.9
307.344	13.64
307.556	15.48
307.769	17.08
307.981	16.05
308.193	14.76
308.406	14.73
308.618	13.94
308.83	13.27
309.043	14.28
309.255	16.32
309.467	14.51
309.679	14.44
309.892	14.76
310.104	14.52
310.316	15.72
310.528	16.59
310.74	16.58
310.953	18.44
311.165	17.91
311.377	17.99
311.589	14.37
311.801	15.64
312.013	19.17
312.225	18.43
312.437	17.62
312.649	15.18
312.862	13.97
313.074	13.68
313.286	12.57
313.498	15.36
313.71	15.67
313.922	18.15
314.134	18.55
314.346	13.47
314.558	17.55
314.77	18.56
314.982	22.02
315.193	21.79
315.405	22.06
315.617	22
315.829	20.9
316.041	22.31
316.253	23.85
316.465	26.47
316.677	28.36
316.888	26.64
317.1	24.34
317.312	22.02
317.524	23.33
317.736	24.59
317.947	28.1
318.159	28.33
318.371	27.06
318.583	26.18
318.794	24.13
319.006	24.16
319.218	20.23
319.43	20.31
319.641	22.77
319.853	24.42
320.064	22.96
320.276	20.28
320.488	19.3
320.699	19.28
320.911	15.53
321.123	20.44
321.334	19.35
321.546	19.11
321.757	20.29
321.969	18.98
322.18	17.16
322.392	19.86
322.603	20.37
322.815	19.7
323.026	21.3
323.238	25.21
323.449	22.15
323.661	21.14
323.872	25.6
324.083	26.64
324.295	25.69
324.506	25.15
324.718	25.03
324.929	22.43
325.14	22.4
325.352	22.08
325.563	21.75
325.774	23.08
325.986	24.95
326.197	24.05
326.408	22.83
326.62	24.05
326.831	25.81
327.042	23.47
327.253	25.41
327.464	26.37
327.676	26.63
327.887	26.47
328.098	24.11
328.309	21.75
328.52	21.69
328.732	26.05
328.943	25.42
329.154	24.73
329.365	28.08
329.576	27.93
329.787	29.68
329.998	28.28
330.209	28.98
330.42	29.4
330.631	32.98
330.842	33.21
331.053	30.31
331.264	29.92
331.475	30.05
331.686	26.4
331.897	25.06
332.108	22.48
332.319	24.15
332.53	23.7
332.741	24.34
332.952	25.86
333.163	25.22
333.374	23.99
333.585	23.72
333.795	23.74
334.006	25.71
334.217	27.03
334.428	26.73
334.639	26.14
334.849	25.13
335.06	26.34
335.271	23.07
335.482	23.63
335.692	24.97
335.903	26.12
336.114	25.91
336.325	27.59
336.535	28.3
336.746	28.21
336.957	29.66
337.167	32.96
337.378	30.63
337.589	31.7
337.799	32.09
338.01	32.01
338.22	32.98
338.431	31.67
338.642	31.85
338.852	33.36
339.063	35.15
339.273	34.89
339.484	32.21
339.694	33.05
339.905	30.96
340.115	31.32
340.326	30.43
340.536	30.25
340.746	31
340.957	30.32
341.167	27.63
341.378	27.76
341.588	25.99
341.799	26.16
342.009	27.39
342.219	27.76
342.43	28.33
342.64	27.75
342.85	27.62
343.061	27.51
343.271	26.01
343.481	26.58
343.691	25.26
343.902	24.87
344.112	23.89
344.322	22.75
344.532	22.89
344.743	21.12
344.953	22.4
345.163	20.68
345.373	21.5
345.583	23.95
345.793	24.18
346.004	25.36
346.214	25.04
346.424	24.33
346.634	23.79
346.844	23.23
347.054	22.05
347.264	22.54
347.474	20.96
347.684	20.87
347.894	18.76
348.104	18.88
348.314	17.23
348.524	17.48
348.734	19.25
348.944	19.84
349.154	20.97
349.364	22.98
349.574	20.87
349.784	25.49
349.994	28.65
350.204	29.4
350.413	29.4
350.623	29.77
350.833	29.32
351.043	30.07
351.253	28.39
351.463	28.9
351.672	29.25
351.882	32.26
352.092	31.61
352.302	29.63
352.511	27.91
352.721	27.45
352.931	26.11
353.141	26.15
353.35	25.77
353.56	27.24
353.77	26.56
353.979	25.45
354.189	24.14
354.399	23.25
354.608	21.42
354.818	22.24
355.027	23.11
355.237	24.48
355.447	24.74
355.656	22.71
355.866	21.55
356.075	20.83
356.285	22.13
356.494	22.5
356.704	24.39
356.913	25.54
357.123	24.97
357.332	23.81
357.542	23.29
357.751	22.53
357.96	23.68
358.17	22.6
358.379	22.74
358.589	21.18
358.798	19.21
359.007	17.31
359.217	17.26
359.426	17.57
359.635	17.86
359.845	17.85
360.054	18.11
360.263	18.11
360.472	19
360.682	18.74
360.891	18.11
361.1	19.18
361.309	18.55
361.519	16.93
361.728	16.57
361.937	16.17
362.146	16.7
362.355	16.37
362.564	16.79
362.774	16.8
362.983	17.41
363.192	18.19
363.401	18.08
363.61	17.68
363.819	19.1
364.028	19.75
364.237	20.57
364.446	21.21
364.655	22.48
364.864	22.13
365.073	22.08
365.282	22.2
365.491	22.53
365.7	21.55
365.909	21.47
366.118	22.24
366.327	21.03
366.536	21.03
366.745	19.91
366.954	20.4
367.162	21.22
367.371	21.04
367.58	20.91
367.789	20.83
367.998	23.07
368.207	24.2
368.415	23.32
368.624	24.35
368.833	24.34
369.042	23.87
369.25	22.61
369.459	21.77
369.668	22.48
369.877	22.23
370.085	21.95
370.294	20.04
370.503	19.48
370.711	18
370.92	17.77
371.129	17.99
371.337	18.46
371.546	18.23
371.754	18.69
371.963	17.97
372.171	17.92
372.38	17.83
372.589	17.41
372.797	17.25
373.006	18.66
373.214	18.65
373.423	16.55
373.631	16.73
373.84	15.76
374.048	16.06
374.256	16.44
374.465	17.75
374.673	17.78
374.882	19.78
375.09	20.36
375.298	19.57
375.507	19.44
375.715	21.11
375.923	20.11
376.132	21.1
376.34	20.83
376.548	21.39
376.757	20.24
376.965	19.77
377.173	18.97
377.381	18.34
377.59	18.5
377.798	18.38
378.006	16.72
378.214	17.31
378.423	17.26
378.631	16.55
378.839	16.75
379.047	16.35
379.255	16.12
379.463	15.73
379.671	16.97
379.879	17.33
380.088	16.61
380.296	17.76
380.504	18.13
380.712	17.45
380.92	18.02
381.128	17.07
381.336	16.99
381.544	17.53
381.752	17.85
381.96	16.34
382.168	17.09
382.376	18.33
382.584	18.21
382.791	18.76
382.999	19.1
383.207	17.85
383.415	18.82
383.623	20.1
383.831	21.36
384.039	21.17
384.247	20.34
384.454	19.66
384.662	19.06
384.87	18.84
385.078	18.52
385.285	18.57
385.493	18.35
385.701	17.25
385.909	16.39
386.116	15.56
386.324	14.93
386.532	16.62
386.739	16.51
386.947	17.99
387.155	17.81
387.362	17.26
387.57	17.45
387.778	17.44
387.985	17.44
388.193	16.91
388.4	17.3
388.608	17.56
388.816	16.8
389.023	16.88
389.231	15.84
389.438	16.55
389.646	18.11
389.853	18.46
390.061	18.83
390.268	18.15
390.475	18.09
390.683	17.28
390.89	17.78
391.098	17.5
391.305	18.55
391.512	19.22
391.72	18.32
391.927	16.77
392.135	16.11
392.342	17.27
392.549	18.93
392.756	19.57
392.964	19.51
393.171	19
393.378	19.45
393.586	18.27
393.793	16.94
394	17.33
394.207	17.74
394.414	17.99
394.622	17.44
394.829	16.48
395.036	16.04
395.243	16.43
395.45	15.92
395.657	15.73
395.864	17.53
396.072	18.29
396.279	18.33
396.486	17.95
396.693	18.23
396.9	17.53
397.107	17.33
397.314	18.21
397.521	18.62
397.728	17.89
397.935	17.73
398.142	16.25
398.349	16.93
398.556	16.21
398.763	16.01
398.97	16.37
399.177	16.65
399.383	15.66
399.59	15.92
399.797	16.09
400.004	17.81
400.211	18.02
400.418	17.99
400.625	18.1
400.831	18.74
401.038	19.77
401.245	19.69
401.452	19.79
401.658	21.32
401.865	19.85
402.072	19.64
402.279	19.59
402.485	18.94
402.692	19.29
402.899	19.14
403.105	18.68
403.312	18.55
403.519	18.62
403.725	18.16
403.932	17.45
404.138	18.32
404.345	17.58
404.552	17.24
404.758	18.24
404.965	18.1
405.171	17.05
405.378	17.88
405.584	17.02
405.791	16.85
405.997	16.75
406.204	17.78
406.41	17.41
406.617	17.57
406.823	17.73
407.029	17.85
407.236	17.75
407.442	18.07
407.649	18.9
407.855	19.24
408.061	17.95
408.268	19.41
408.474	19.31
408.68	19.75
408.887	19.68
409.093	19.47
409.299	19.66
409.505	19.77
409.712	20.17
409.918	19.23
410.124	19.53
410.33	20.67
410.537	19.9
410.743	20.43
410.949	21.22
411.155	21.92
411.361	22.87
411.567	22.38
411.773	22.28
411.98	22.41
412.186	22.06
412.392	22.58
412.598	22.88
412.804	23.41
413.01	22.67
413.216	21.59
413.422	20.83
413.628	19.77
413.834	19.3
414.04	19.8
414.246	19.45
414.452	19.83
414.658	19.51
414.864	18.87
415.07	18.68
415.275	17.82
415.481	17.97
415.687	18.86
415.893	18.59
416.099	19.13
416.305	18.92
416.511	17.84
416.716	17.34
416.922	17.04
417.128	17.17
417.334	16.85
417.539	17.05
417.745	16.74
417.951	15.61
418.157	15.89
418.362	15.57
418.568	15
418.774	15.07
418.979	15.42
419.185	15.09
419.391	15.03
419.596	15.57
419.802	15.45
420.008	15.26
420.213	16.01
420.419	15.96
420.624	15.83
420.83	16.22
421.035	16.38
421.241	16.21
421.446	16.15
421.652	16.53
421.857	15.91
422.063	16.33
422.268	16.58
422.474	16.13
422.679	16.17
422.885	16.52
423.09	15.97
423.295	16.32
423.501	16.71
423.706	16.83
423.911	16.31
424.117	16.15
424.322	16.34
424.527	16.35
424.733	16.33
424.938	16.22
425.143	16.09
425.349	16.41
425.554	16.16
425.759	16.09
425.964	16.1
426.169	16.64
426.375	17.67
426.58	17.07
426.785	17.12
426.99	17.36
427.195	17.69
427.4	17.73
427.605	17.85
427.811	18.63
428.016	18.12
428.221	18.39
428.426	17.64
428.631	16.31
428.836	17.11
429.041	16.98
429.246	17.25
429.451	17.03
429.656	17.16
429.861	17.03
430.066	16.97
430.271	17.48
430.476	17.59
430.681	18.6
430.886	18.84
431.09	17.76
431.295	17.81
431.5	17.64
431.705	17.78
431.91	17.72
432.115	18.19
432.32	17.43
432.524	17.04
432.729	17.04
432.934	16.69
433.139	17.08
433.343	17.33
433.548	17.29
433.753	17.58
433.958	17.34
434.162	16.73
434.367	16.34
434.572	16.57
434.776	16.68
434.981	16.07
435.186	15.83
435.39	15.57
435.595	16.18
435.799	16.26
436.004	16.02
436.209	16.23
436.413	16.71
436.618	16.54
436.822	17.04
437.027	16.72
437.231	17.14
437.436	16.55
437.64	16.4
437.845	15.97
438.049	16.31
438.253	16.1
438.458	16.17
438.662	16.1
438.867	16.16
439.071	15.97
439.275	16.18
439.48	16.33
439.684	16.41
439.888	16.91
440.093	16.82
440.297	16.26
440.501	16.27
440.706	16.1
440.91	16.09
441.114	16.63
441.318	16.91
441.523	17.14
441.727	17.27
441.931	17.89
442.135	17.25
442.339	18.06
442.543	18.25
442.748	18.2
442.952	18.45
443.156	18.48
443.36	18.27
443.564	17.74
443.768	17.87
443.972	18.25
444.176	17.49
444.38	17.86
444.584	17.34
444.788	16.84
444.992	17.51
445.196	17.16
445.4	17.04
445.604	16.38
445.808	16.45
446.012	16.15
446.216	15.68
446.42	15.95
446.624	15.67
446.828	15.63
447.032	16.21
447.235	15.89
447.439	15.68
447.643	15.69
447.847	16.1
448.051	16.35
448.254	16.3
448.458	16.54
448.662	16.75
448.866	16.69
449.069	16.45
449.273	16.55
449.477	16.32
449.681	16.85
449.884	17.26
450.088	17.55
450.292	17.53
450.495	18.46
450.699	17.94
450.902	18.5
