Data from JASIL_3377_Reflection_1.txt Node
Date: Thu Nov 19 18:50:42 EST 2015
User: Geneva
Spectrometer: USB4E03002
Autoset integration time: false
Trigger mode: 4
Integration Time (sec): 1.000000E-1
Scans to average: 10
Electric dark correction enabled: false
Nonlinearity correction enabled: false
Boxcar width: 5
Stray light correction enabled: false
XAxis mode: Wavelengths
Stop averaging: false
Number of Pixels in Spectrum: 3648
>>>>>Begin Spectral Data<<<<<
177.575	137.17
177.794	131.94
178.014	134.56
178.233	133.81
178.452	144.55
178.672	137.97
178.891	137.4
179.11	132.3
179.33	129.39
179.549	133.95
179.768	128.21
179.987	130.61
180.207	139.69
180.426	139.01
180.645	140.31
180.864	136.01
181.084	144.29
181.303	152.45
181.522	146.76
181.741	169.9
181.96	166.83
182.179	170.03
182.398	185.19
182.618	171.1
182.837	172.02
183.056	164.04
183.275	165.45
183.494	149.85
183.713	139.95
183.932	143.71
184.151	124.88
184.37	127.45
184.589	119.25
184.808	117.43
185.027	113.54
185.246	108.67
185.465	111.34
185.684	104.84
185.903	112.86
186.122	108.62
186.341	111.61
186.56	114.08
186.779	118.77
186.998	124.2
187.216	125.92
187.435	128.29
187.654	134.38
187.873	139.8
188.092	154.96
188.311	155.77
188.53	165.06
188.748	172.57
188.967	174.48
189.186	161.63
189.405	160.4
189.623	156.47
189.842	156.04
190.061	156.2
190.28	143.51
190.498	140.41
190.717	138.05
190.936	131.83
191.154	133.41
191.373	119.74
191.592	115.35
191.81	119.7
192.029	110.71
192.248	121.35
192.466	130.74
192.685	127.48
192.904	117.92
193.122	125.87
193.341	123.7
193.559	111.55
193.778	131.24
193.996	130.24
194.215	122.44
194.433	123.1
194.652	114.03
194.87	103.37
195.089	118.72
195.307	127.45
195.526	125.23
195.744	128.25
195.963	130.59
196.181	123.71
196.399	122
196.618	121.82
196.836	126.75
197.055	126.66
197.273	135.7
197.491	122.54
197.71	125.51
197.928	116.45
198.146	126.09
198.365	125.35
198.583	123.52
198.801	120.01
199.019	114.87
199.238	119.14
199.456	118.64
199.674	107.59
199.892	112.53
200.111	102.46
200.329	109.25
200.547	109.84
200.765	116.09
200.983	116.09
201.202	127.42
201.42	135.92
201.638	124.7
201.856	123.63
202.074	125.68
202.292	123.27
202.51	124.22
202.728	121.64
202.946	113.44
203.165	110.62
203.383	115.7
203.601	114.87
203.819	114.27
204.037	121.78
204.255	116.63
204.473	116.65
204.691	119.73
204.909	124.39
205.127	127.23
205.345	136.63
205.562	137.11
205.78	134.96
205.998	138.53
206.216	131.15
206.434	125.47
206.652	144.58
206.87	145.04
207.088	138.33
207.306	135.81
207.523	134.25
207.741	123.95
207.959	123.22
208.177	127.07
208.395	115.83
208.612	127.14
208.83	133.48
209.048	121.28
209.266	124.78
209.483	129.93
209.701	133.76
209.919	134.68
210.136	140.36
210.354	147.31
210.572	143.36
210.79	160.62
211.007	164.73
211.225	165.06
211.442	165.38
211.66	162.72
211.878	165.05
212.095	222.73
212.313	198.09
212.53	190.9
212.748	164.75
212.966	184.37
213.183	209.66
213.401	179.45
213.618	175.25
213.836	192.64
214.053	201.86
214.271	163.65
214.488	136.59
214.705	126.58
214.923	122.11
215.14	125.17
215.358	121.18
215.575	113.69
215.793	120.69
216.01	117.87
216.227	118.42
216.445	115.55
216.662	132.55
216.879	124.44
217.097	129.93
217.314	143.13
217.531	137.67
217.749	136.25
217.966	139.04
218.183	138.98
218.4	139.53
218.618	138.83
218.835	142.76
219.052	131.49
219.269	142.13
219.487	147.38
219.704	151.87
219.921	158.73
220.138	143.67
220.355	142.57
220.572	133.94
220.79	132.81
221.007	134.29
221.224	131.32
221.441	126.21
221.658	127.98
221.875	126.6
222.092	116.92
222.309	114.52
222.526	126.17
222.743	112.76
222.96	112.92
223.177	112.89
223.394	107.82
223.611	104.95
223.828	106.86
224.045	101.09
224.262	106.01
224.479	101.81
224.696	106.76
224.913	100.43
225.13	106.38
225.347	108.93
225.564	111.07
225.781	108.15
225.997	107.47
226.214	98.99
226.431	96.52
226.648	90.1
226.865	87.7
227.082	77.15
227.298	75.6
227.515	70.88
227.732	67.95
227.949	63.03
228.165	58.68
228.382	58.19
228.599	59.73
228.816	59.69
229.032	59.01
229.249	59.81
229.466	62.08
229.682	61.18
229.899	65.28
230.116	65.32
230.332	68.95
230.549	73.28
230.765	76.03
230.982	80.71
231.199	81.03
231.415	81.51
231.632	80.81
231.848	87.32
232.065	86.22
232.281	86.05
232.498	82.64
232.714	81.85
232.931	79.61
233.147	75.84
233.364	70.25
233.58	70.58
233.797	67.54
234.013	70.48
234.23	67.23
234.446	70.54
234.662	70.79
234.879	73
235.095	74.32
235.312	76.3
235.528	76.42
235.744	79.04
235.961	79.77
236.177	82.17
236.393	78.65
236.61	83.34
236.826	81.67
237.042	82.28
237.258	79.71
237.475	78.88
237.691	79.35
237.907	78.17
238.123	76.12
238.339	75.44
238.556	76.32
238.772	78.47
238.988	72.92
239.204	72.21
239.42	66.64
239.636	65.97
239.853	65.15
240.069	61.21
240.285	58.02
240.501	55.33
240.717	50.62
240.933	47.86
241.149	44.14
241.365	40.96
241.581	40.54
241.797	40.97
242.013	39.76
242.229	38.49
242.445	38.71
242.661	42.62
242.877	42.54
243.093	42.81
243.309	42.61
243.525	46.34
243.741	47.56
243.957	48.05
244.173	47.63
244.388	48.79
244.604	45.68
244.82	43.54
245.036	40.61
245.252	40.25
245.468	39.36
245.683	37.93
245.899	35.27
246.115	33.35
246.331	31.94
246.547	30.87
246.762	29.83
246.978	30.89
247.194	30.9
247.409	30.36
247.625	29.94
247.841	30.57
248.057	30.86
248.272	30.17
248.488	31.39
248.703	31.11
248.919	32.37
249.135	33.76
249.35	32.62
249.566	35.12
249.782	37.2
249.997	38.02
250.213	38.7
250.428	37.94
250.644	39.74
250.859	40.26
251.075	40.31
251.29	38.86
251.506	39.94
251.721	41.14
251.937	41.73
252.152	40.03
252.368	39.08
252.583	42.06
252.798	43.11
253.014	43.31
253.229	44.42
253.445	47.41
253.66	52.04
253.875	52.34
254.091	52.07
254.306	52.6
254.521	55.37
254.737	58.68
254.952	52.95
255.167	52.46
255.383	52.83
255.598	53.05
255.813	50.54
256.028	47.88
256.244	47.07
256.459	47.75
256.674	43.07
256.889	40.57
257.104	38.47
257.32	39.15
257.535	36.83
257.75	34.39
257.965	32.05
258.18	30.97
258.395	28.9
258.61	27
258.826	24.67
259.041	24.5
259.256	23.15
259.471	23.57
259.686	22.92
259.901	23.6
260.116	23.79
260.331	23.92
260.546	23.48
260.761	24.21
260.976	25.47
261.191	27.12
261.406	28.55
261.621	30.24
261.836	29.93
262.05	30.45
262.265	30.99
262.48	32.31
262.695	34.11
262.91	36.97
263.125	38.41
263.34	37.56
263.555	38.36
263.769	37.65
263.984	37.24
264.199	38.98
264.414	39.66
264.629	38.39
264.843	39.12
265.058	38.49
265.273	36.86
265.488	34.57
265.702	34.4
265.917	33.92
266.132	34.63
266.346	35.49
266.561	35.11
266.776	36.41
266.99	35.95
267.205	35.11
267.42	33.98
267.634	34.04
267.849	34.73
268.063	34.49
268.278	33
268.492	33.06
268.707	32.47
268.922	32.26
269.136	29.89
269.351	29.94
269.565	29.56
269.78	29.44
269.994	29.22
270.209	28.59
270.423	29.69
270.637	30.75
270.852	29.78
271.066	30.17
271.281	30.01
271.495	29.98
271.709	29.72
271.924	30.23
272.138	30.74
272.353	29.88
272.567	29.86
272.781	29.63
272.996	29.11
273.21	27.91
273.424	27.85
273.638	27.52
273.853	28.22
274.067	29.78
274.281	28.17
274.495	27.41
274.71	28.64
274.924	29.25
275.138	29.54
275.352	30.32
275.566	32.77
275.781	31.17
275.995	30.08
276.209	30.55
276.423	29.29
276.637	30.17
276.851	30.45
277.065	29.62
277.279	29.85
277.493	30.55
277.707	30.26
277.921	28.15
278.135	29.35
278.349	30.73
278.563	30.92
278.777	30.47
278.991	31.19
279.205	30.57
279.419	29.84
279.633	29.03
279.847	28.01
280.061	28.64
280.275	30.7
280.489	31.14
280.703	28.91
280.917	28.75
281.131	29.22
281.344	27.8
281.558	27.78
281.772	29.05
281.986	29.04
282.2	27.71
282.414	26.52
282.627	25.81
282.841	25.31
283.055	25.23
283.269	24.32
283.482	23.35
283.696	23.37
283.91	24.03
284.123	22.55
284.337	22.24
284.551	23.1
284.764	23.66
284.978	23.64
285.192	23.58
285.405	24.05
285.619	24.72
285.833	25.57
286.046	26.11
286.26	25.85
286.473	26.65
286.687	27.19
286.9	26.05
287.114	24.88
287.327	24.65
287.541	25.37
287.754	26.73
287.968	26.44
288.181	27.01
288.395	26.57
288.608	26.2
288.822	26.06
289.035	25.22
289.248	25.09
289.462	25.09
289.675	24.57
289.889	23.69
290.102	23.29
290.315	22.16
290.529	22.53
290.742	23.33
290.955	23.82
291.169	24.14
291.382	24.43
291.595	24.68
291.808	26.64
292.022	26.73
292.235	26.23
292.448	25.63
292.661	24.66
292.875	22.94
293.088	22.94
293.301	23.55
293.514	23.05
293.727	23.19
293.94	23.65
294.153	23.39
294.367	23.53
294.58	22.8
294.793	23.63
295.006	24.34
295.219	24.47
295.432	24.01
295.645	22.29
295.858	23.4
296.071	23.29
296.284	23.08
296.497	22.11
296.71	21.33
296.923	21.8
297.136	20.78
297.349	21.72
297.562	20.82
297.775	21.38
297.988	22.56
298.201	22.47
298.414	22.35
298.626	22.04
298.839	22.64
299.052	24.67
299.265	25.16
299.478	24.47
299.691	24.96
299.903	25.45
300.116	24.13
300.329	24.49
300.542	22.7
300.755	23.8
300.967	24
301.18	23.44
301.393	21.84
301.605	22.89
301.818	23.55
302.031	23.1
302.243	23.62
302.456	23.52
302.669	22.16
302.881	23.63
303.094	22.28
303.307	23.36
303.519	23.92
303.732	24.59
303.944	24.4
304.157	25.24
304.37	25.03
304.582	26.45
304.795	28.25
305.007	28.57
305.22	28.27
305.432	29.28
305.645	29.34
305.857	29.97
306.069	30.76
306.282	30.63
306.494	31.18
306.707	30.37
306.919	29.14
307.132	27.24
307.344	27.27
307.556	26.4
307.769	26.18
307.981	26.58
308.193	24.93
308.406	23.74
308.618	23.07
308.83	22.81
309.043	22.07
309.255	22.41
309.467	21.98
309.679	21.5
309.892	23.02
310.104	22.98
310.316	22.38
310.528	23.52
310.74	23.3
310.953	22.73
311.165	22.29
311.377	22.88
311.589	21.96
311.801	22.22
312.013	22.91
312.225	22.56
312.437	22.24
312.649	21.23
312.862	21.44
313.074	22.03
313.286	22.88
313.498	25.29
313.71	25.34
313.922	26.53
314.134	26.65
314.346	27.04
314.558	26.59
314.77	27.29
314.982	29
315.193	29.32
315.405	29.5
315.617	28.93
315.829	27.11
316.041	28.09
316.253	28.34
316.465	29.04
316.677	28.77
316.888	29.24
317.1	28.77
317.312	28.29
317.524	27.32
317.736	27.82
317.947	30.11
318.159	29
318.371	29.52
318.583	29.11
318.794	28.11
319.006	29.58
319.218	28.87
319.43	28.55
319.641	28.74
319.853	28.64
320.064	27.37
320.276	26.65
320.488	27.29
320.699	27.15
320.911	26
321.123	26.99
321.334	25.75
321.546	26.37
321.757	27.49
321.969	26.7
322.18	27.49
322.392	27.81
322.603	27.66
322.815	27.68
323.026	27.85
323.238	27.75
323.449	28.83
323.661	27.43
323.872	25.86
324.083	25.36
324.295	25.51
324.506	25.06
324.718	25.38
324.929	24.31
325.14	24.62
325.352	23.3
325.563	23.74
325.774	22.03
325.986	23.45
326.197	24.72
326.408	24.1
326.62	23.57
326.831	23.19
327.042	22.53
327.253	22.7
327.464	22.81
327.676	23.97
327.887	24.64
328.098	25.21
328.309	25.64
328.52	25.27
328.732	26.25
328.943	27.17
329.154	28.57
329.365	29.13
329.576	28.29
329.787	28.1
329.998	28.12
330.209	27.84
330.42	27.94
330.631	27.96
330.842	28.61
331.053	28.26
331.264	28.12
331.475	27.63
331.686	27.59
331.897	28.71
332.108	28.56
332.319	28.29
332.53	28.58
332.741	29.54
332.952	28.67
333.163	28.63
333.374	28.91
333.585	28.36
333.795	27.57
334.006	27.64
334.217	26.59
334.428	26.75
334.639	27.29
334.849	27.11
335.06	26.88
335.271	26.31
335.482	24.61
335.692	24.32
335.903	24.46
336.114	24.92
336.325	24.5
336.535	25.97
336.746	25.86
336.957	25.58
337.167	25.41
337.378	24.85
337.589	26
337.799	28.1
338.01	28.63
338.22	28.83
338.431	28.15
338.642	28.42
338.852	27.9
339.063	28.32
339.273	27.37
339.484	27.8
339.694	28.16
339.905	27.53
340.115	27.09
340.326	26.21
340.536	26.57
340.746	26.65
340.957	26.84
341.167	28.19
341.378	26.77
341.588	26.79
341.799	25.86
342.009	25.81
342.219	26.36
342.43	24.99
342.64	25.63
342.85	25.31
343.061	25.6
343.271	24.82
343.481	23.16
343.691	23.14
343.902	22.72
344.112	23.26
344.322	22.77
344.532	22
344.743	22.79
344.953	23.44
345.163	22.14
345.373	22.12
345.583	22.84
345.793	22.9
346.004	23.61
346.214	23.52
346.424	23.72
346.634	23.34
346.844	23.88
347.054	23.84
347.264	22.67
347.474	23.87
347.684	24.09
347.894	22.48
348.104	23.04
348.314	22.62
348.524	21.91
348.734	21.61
348.944	22.61
349.154	21.7
349.364	21.56
349.574	20.71
349.784	20.92
349.994	20.06
350.204	21.66
350.413	21.5
350.623	22.04
350.833	22.88
351.043	23.2
351.253	22.61
351.463	23
351.672	23
351.882	24.76
352.092	24.69
352.302	24.92
352.511	24.42
352.721	24.43
352.931	24.48
353.141	25.04
353.35	25.21
353.56	25.19
353.77	25.62
353.979	25.57
354.189	25.17
354.399	24.57
354.608	24.29
354.818	23.98
355.027	23.37
355.237	23.27
355.447	22.9
355.656	21.69
355.866	21.22
356.075	21.37
356.285	21.41
356.494	20.81
356.704	20.59
356.913	20.69
357.123	20.54
357.332	20.56
357.542	20.3
357.751	20.16
357.96	21.14
358.17	21.69
358.379	21.34
358.589	20.68
358.798	20.81
359.007	20.64
359.217	20.85
359.426	20.76
359.635	20.89
359.845	20.8
360.054	21.26
360.263	20.22
360.472	19.51
360.682	18.69
360.891	19.12
361.1	18.95
361.309	19.48
361.519	18.75
361.728	19.05
361.937	18.21
362.146	18.2
362.355	17.21
362.564	17.39
362.774	17.9
362.983	18.87
363.192	19.5
363.401	19.31
363.61	19.25
363.819	20.14
364.028	19.47
364.237	20.15
364.446	20.2
364.655	20.81
364.864	20.98
365.073	21.35
365.282	20.47
365.491	19.14
365.7	19.29
365.909	19
366.118	19.56
366.327	19.87
366.536	20.26
366.745	20.09
366.954	19.63
367.162	19.5
367.371	18.95
367.58	19.9
367.789	20.9
367.998	20.44
368.207	20.17
368.415	19.09
368.624	19.12
368.833	18.75
369.042	18.22
369.25	19.03
369.459	20.14
369.668	20.29
369.877	19.46
370.085	19.03
370.294	19.62
370.503	19.59
370.711	20.12
370.92	19.93
371.129	19.96
371.337	20.1
371.546	19.59
371.754	18.8
371.963	18.87
372.171	19.23
372.38	19.01
372.589	18.99
372.797	20.02
373.006	19.88
373.214	20.37
373.423	20.37
373.631	21.17
373.84	20.9
374.048	20.16
374.256	19.83
374.465	19.27
374.673	18.62
374.882	18.25
375.09	17.99
375.298	17.58
375.507	17.03
375.715	16.95
375.923	16.26
376.132	16.66
376.34	16.99
376.548	17.02
376.757	17.05
376.965	17.38
377.173	17.41
377.381	16.53
377.59	16.14
377.798	16.31
378.006	16.39
378.214	16.51
378.423	17.05
378.631	17.1
378.839	17.17
379.047	17.34
379.255	17.64
379.463	18.29
379.671	18.75
379.879	19.04
380.088	18.96
380.296	18.63
380.504	18.81
380.712	18.02
380.92	17.87
381.128	17.96
381.336	18.79
381.544	19.19
381.752	18.93
381.96	19.03
382.168	19.15
382.376	19.69
382.584	20.26
382.791	19.77
382.999	19.9
383.207	20.1
383.415	19.62
383.623	19.33
383.831	18.61
384.039	17.89
384.247	17.52
384.454	17.59
384.662	17.32
384.87	17.04
385.078	17.59
385.285	17.4
385.493	16.63
385.701	16.56
385.909	15.88
386.116	16.29
386.324	16.41
386.532	16.35
386.739	16.63
386.947	16.52
387.155	16.77
387.362	16.31
387.57	16.15
387.778	16.45
387.985	16.51
388.193	16.64
388.4	15.94
388.608	16.04
388.816	16.22
389.023	15.34
389.231	15.15
389.438	14.15
389.646	14.43
389.853	14.47
390.061	14.6
390.268	14.62
390.475	14.57
390.683	14.94
390.89	14.98
391.098	15.02
391.305	15.57
391.512	15.72
391.72	15.71
391.927	15.37
392.135	15.22
392.342	15.58
392.549	15.53
392.756	15.51
392.964	14.99
393.171	15.04
393.378	15.1
393.586	15.12
393.793	14.83
394	15.3
394.207	15.06
394.414	14.88
394.622	14.41
394.829	14.06
395.036	13.95
395.243	14.52
395.45	14.79
395.657	14.57
395.864	14.41
396.072	14.36
396.279	14.77
396.486	14.88
396.693	14.98
396.9	14.9
397.107	15.08
397.314	15.28
397.521	15.19
397.728	14.64
397.935	14.61
398.142	14.78
398.349	14.63
398.556	14.27
398.763	14.69
398.97	14.94
399.177	15.19
399.383	15.47
399.59	15.27
399.797	15.54
400.004	16.07
400.211	16.34
400.418	15.76
400.625	16.06
400.831	15.56
401.038	15.95
401.245	16.19
401.452	16.14
401.658	15.78
401.865	16.1
402.072	15.6
402.279	15.04
402.485	15.08
402.692	15.54
402.899	15.73
403.105	16.37
403.312	15.36
403.519	14.51
403.725	14.87
403.932	14.98
404.138	14
404.345	14.29
404.552	14.07
404.758	13.75
404.965	13.63
405.171	13.34
405.378	13.08
405.584	13.26
405.791	13.69
405.997	13.29
406.204	14.16
406.41	14.85
406.617	14.84
406.823	15.26
407.029	15.52
407.236	15.38
407.442	15.8
407.649	15.65
407.855	15.77
408.061	16.06
408.268	16.17
408.474	15.26
408.68	15.31
408.887	15.17
409.093	15.58
409.299	15.57
409.505	15.71
409.712	15.21
409.918	15.39
410.124	15.66
410.33	15.66
410.537	15.47
410.743	15.9
410.949	15.79
411.155	15.95
411.361	15.45
411.567	15.41
411.773	15.22
411.98	15.48
412.186	15.99
412.392	16.16
412.598	15.84
412.804	15.75
413.01	15.29
413.216	15.4
413.422	15.87
413.628	15.89
413.834	15.94
414.04	15.96
414.246	16.34
414.452	15.93
414.658	15.2
414.864	15.61
415.07	15.97
415.275	16.2
415.481	16.26
415.687	15.9
415.893	16.45
416.099	16.59
416.305	16.81
416.511	16.38
416.716	16.07
416.922	16.27
417.128	16.11
417.334	15.91
417.539	15.78
417.745	15.79
417.951	15.53
418.157	15.31
418.362	14.97
418.568	14.93
418.774	15.05
418.979	15.23
419.185	15.14
419.391	15.02
419.596	15.31
419.802	15.21
420.008	15.05
420.213	13.5
420.419	13.55
420.624	13.59
420.83	13.7
421.035	13.67
421.241	13.68
421.446	13.72
421.652	13.94
421.857	13.92
422.063	14.06
422.268	14.19
422.474	15.94
422.679	15.72
422.885	15.96
423.09	15.93
423.295	15.9
423.501	16.03
423.706	16.24
423.911	16.32
424.117	16.18
424.322	16.37
424.527	16.42
424.733	16.49
424.938	16.81
425.143	16.84
425.349	17.16
425.554	17.5
425.759	17.65
425.964	17.89
426.169	18.05
426.375	18.08
426.58	18.11
426.785	18.13
426.99	18.17
427.195	18.29
427.4	18.23
427.605	17.8
427.811	17.73
428.016	18.19
428.221	17.83
428.426	17.95
428.631	18.12
428.836	18.3
429.041	18.68
429.246	18.38
429.451	18.74
429.656	19.14
429.861	19.61
430.066	19.86
430.271	19.56
430.476	20.13
430.681	19.95
430.886	20.08
431.09	20.35
431.295	20.82
431.5	21.55
431.705	21.52
431.91	21.2
432.115	21.19
432.32	21.2
432.524	21.39
432.729	21.37
432.934	21.86
433.139	22.08
433.343	22.2
433.548	21.91
433.753	22.04
433.958	21.98
434.162	22.66
434.367	22.85
434.572	23.07
434.776	23.29
434.981	23.53
435.186	23.32
435.39	23.66
435.595	23.77
435.799	24.07
436.004	23.98
436.209	24.35
436.413	24.2
436.618	24.42
436.822	24.61
437.027	24.67
437.231	24.86
437.436	25.21
437.64	25.05
437.845	25
438.049	25.07
438.253	25
438.458	25.09
438.662	25.52
438.867	25.74
439.071	25.76
439.275	25.63
439.48	25.46
439.684	25.45
439.888	25.72
440.093	25.75
440.297	25.84
440.501	26.07
440.706	26.25
440.91	26.14
441.114	25.81
441.318	25.77
441.523	25.93
441.727	26.22
441.931	26.34
442.135	26.4
442.339	26.48
442.543	26.5
442.748	27.08
442.952	27.09
443.156	27.21
443.36	27.88
443.564	28.13
443.768	28.24
443.972	28.12
444.176	28.65
444.38	29
444.584	29.36
444.788	29.69
444.992	29.57
445.196	29.6
445.4	29.65
445.604	29.59
445.808	29.83
446.012	29.86
446.216	30.35
446.42	30.12
446.624	30.19
446.828	30.09
447.032	30.03
447.235	29.98
447.439	30.27
447.643	30.48
447.847	30.63
448.051	30.71
448.254	31.09
448.458	31.08
448.662	31.24
448.866	31.21
449.069	31.66
449.273	32.07
449.477	32.49
449.681	32.66
449.884	32.72
450.088	32.71
450.292	32.81
450.495	32.91
450.699	33.06
450.902	33.47
451.106	33.6
451.31	33.62
451.513	33.51
451.717	33.45
451.92	33.24
452.124	33.63
452.327	33.78
452.531	34.13
452.734	34.27
452.938	34.73
453.141	34.38
453.345	34.88
453.548	35
453.752	35.22
453.955	35.45
