Data from JASIL_3309_Reflection_1.txt Node
Date: Tue Nov 17 19:55:43 EST 2015
User: Geneva
Spectrometer: USB4E03002
Autoset integration time: false
Trigger mode: 4
Integration Time (sec): 1.000000E-1
Scans to average: 10
Electric dark correction enabled: false
Nonlinearity correction enabled: false
Boxcar width: 5
Stray light correction enabled: false
XAxis mode: Wavelengths
Stop averaging: false
Number of Pixels in Spectrum: 3648
>>>>>Begin Spectral Data<<<<<
177.575	-454.46
177.794	-534.78
178.014	-541.57
178.233	-960.38
178.452	-958.33
178.672	-496.85
178.891	-1184.48
179.11	7210
179.33	1778.26
179.549	1670.59
179.768	-7936.36
179.987	681.06
180.207	359.43
180.426	647.95
180.645	762.4
180.864	5558.82
181.084	686.75
181.303	480.8
181.522	597.7
181.741	546.63
181.96	913.13
182.179	5017.65
182.398	-981.82
182.618	-404.98
182.837	-354.29
183.056	-401.09
183.275	-464.44
183.494	-146.02
183.713	-135.34
183.932	-106.8
184.151	-71.7
184.37	-75.32
184.589	-123.52
184.808	-122.2
185.027	-119.74
185.246	-188.33
185.465	-183.77
185.684	-205.6
185.903	-326.86
186.122	-465
186.341	-1082.3
186.56	-823.21
186.779	-4237.04
186.998	-531.75
187.216	-555.56
187.435	-551.52
187.654	-601.21
187.873	-453.12
188.092	-678.85
188.311	-864.29
188.53	-628.8
188.748	-315.09
188.967	-392.59
189.186	-278.77
189.405	-520.23
189.623	-405.94
189.842	-402.51
190.061	-322.6
190.28	-192.69
190.498	-237.14
190.717	-181.7
190.936	-227.99
191.154	-592.31
191.373	-1077.01
191.592	2686.05
191.81	1027.18
192.029	1207.37
192.248	616.18
192.466	691.16
192.685	328.42
192.904	700.5
193.122	568.86
193.341	641.6
193.559	835.59
193.778	920.44
193.996	760.19
194.215	2427.54
194.433	1272.14
194.652	1164.34
194.87	1038.75
195.089	1251.54
195.307	2871.93
195.526	-1679.59
195.744	-1230.22
195.963	-1278
196.181	-1705.79
196.399	-2409.2
196.618	2546.05
196.836	1314.18
197.055	1281.76
197.273	1485.82
197.491	1631.53
197.71	748.41
197.928	615.89
198.146	593.49
198.365	3242.86
198.583	2031.75
198.801	-873.39
199.019	-293.02
199.238	-239.74
199.456	-243.15
199.674	-263.02
199.892	-220.24
200.111	-190.85
200.329	-207.26
200.547	-282.05
200.765	2123.53
200.983	-880.34
201.202	1572.37
201.42	468.21
201.638	344.17
201.856	484.62
202.074	755.33
202.292	458.93
202.51	382.58
202.728	432.26
202.946	3314.29
203.165	1778.85
203.383	373.65
203.601	525.89
203.819	976.36
204.037	-2960.61
204.255	-4200
204.473	-740.56
204.691	-674.71
204.909	-574.34
205.127	-3100
205.345	986.06
205.562	-1224.03
205.78	-307.8
205.998	-285.59
206.216	-271.22
206.434	-353.4
206.652	-399.08
206.87	-874.85
207.088	-680
207.306	-843.35
207.523	-671.04
207.741	-476.38
207.959	-701.8
208.177	-798.45
208.395	-736.76
208.612	-768.98
208.83	-480.19
209.048	-499.13
209.266	-421.27
209.483	-259.14
209.701	-320.67
209.919	-282.59
210.136	-297.59
210.354	-283.58
210.572	-363.98
210.79	-436
211.007	-786.62
211.225	-7813.33
211.442	1864.41
211.66	4380
211.878	404.65
212.095	507.85
212.313	685.59
212.53	372.99
212.748	368.13
212.966	245.22
213.183	252.53
213.401	-3355.56
213.618	-240.08
213.836	-199.66
214.053	-344.5
214.271	-262.82
214.488	-412.05
214.705	-376.57
214.923	-283.68
215.14	-176.72
215.358	-163.73
215.575	-141.74
215.793	-219.84
216.01	-603.32
216.227	-1052.59
216.445	-888.19
216.662	-484.91
216.879	-520.87
217.097	-307.85
217.314	-376.65
217.531	15862.5
217.749	1283.17
217.966	771.98
218.183	502.77
218.4	815.48
218.618	824.34
218.835	452.61
219.052	440.07
219.269	416.5
219.487	252.23
219.704	284.81
219.921	303.7
220.138	390.34
220.355	332.38
220.572	294.51
220.79	268.31
221.007	362.09
221.224	566.54
221.441	517.05
221.658	577.78
221.875	-2651.43
222.092	-1051.14
222.309	2857.58
222.526	547.27
222.743	550.72
222.96	797.84
223.177	2588.37
223.394	1543.42
223.611	846.15
223.828	595.2
224.045	479.15
224.262	353.21
224.479	352.74
224.696	649.04
224.913	1101.65
225.13	1108.49
225.347	752.41
225.564	345.22
225.781	226.51
225.997	173.57
226.214	141.61
226.431	114.17
226.648	98.8
226.865	77.13
227.082	62.9
227.298	65
227.515	62.15
227.732	62.12
227.949	58.65
228.165	53.58
228.382	49.9
228.599	45.29
228.816	40.77
229.032	47.07
229.249	56.09
229.466	62.65
229.682	59.74
229.899	57.24
230.116	67.72
230.332	80.9
230.549	86.78
230.765	87.67
230.982	92.5
231.199	104.8
231.415	108.27
231.632	100.84
231.848	97.54
232.065	102.77
232.281	92.94
232.498	90.98
232.714	82.59
232.931	84.75
233.147	92.49
233.364	96.28
233.58	89.56
233.797	91.23
234.013	108.63
234.23	129.07
234.446	127.91
234.662	163.94
234.879	253.06
235.095	227.36
235.312	188.21
235.528	185.25
235.744	231.08
235.961	325.25
236.177	290.21
236.393	381.82
236.61	312.66
236.826	250.09
237.042	171.7
237.258	159.43
237.475	156.66
237.691	220.58
237.907	164.44
238.123	123.77
238.339	108.07
238.556	98.26
238.772	75.07
238.988	57.02
239.204	49.74
239.42	65.9
239.636	57.9
239.853	56.02
240.069	48.72
240.285	48.39
240.501	49.53
240.717	48.3
240.933	49.15
241.149	50.11
241.365	50.22
241.581	53.94
241.797	49.2
242.013	48.44
242.229	48.03
242.445	51.16
242.661	53.02
242.877	56.99
243.093	52.73
243.309	52.14
243.525	48.72
243.741	50.47
243.957	46.61
244.173	43.93
244.388	43.67
244.604	38.9
244.82	35.67
245.036	31.61
245.252	24.93
245.468	26.03
245.683	24.17
245.899	23.46
246.115	21.61
246.331	22.13
246.547	23.52
246.762	22.23
246.978	22.16
247.194	21.1
247.409	22.17
247.625	22.9
247.841	22.24
248.057	24.84
248.272	24.1
248.488	24.15
248.703	22.55
248.919	26.2
249.135	29.67
249.35	35.57
249.566	36.39
249.782	37.82
249.997	35.52
250.213	34.83
250.428	33.65
250.644	34.12
250.859	30.98
251.075	32.79
251.29	29.48
251.506	28.39
251.721	26.48
251.937	28.65
252.152	27.11
252.368	33.19
252.583	30.19
252.798	29.53
253.014	31.73
253.229	36.79
253.445	41.53
253.66	43.93
253.875	46.43
254.091	44.74
254.306	48.34
254.521	43.07
254.737	39.95
254.952	44.81
255.167	40.37
255.383	41.53
255.598	40.82
255.813	33.16
256.028	25.57
256.244	23.94
256.459	28.72
256.674	29.04
256.889	29.09
257.104	27.57
257.32	26.25
257.535	26.73
257.75	25.99
257.965	24.86
258.18	22.21
258.395	20.74
258.61	20.01
258.826	16.46
259.041	14.81
259.256	14.27
259.471	13.99
259.686	14.86
259.901	14.05
260.116	13.43
260.331	13.45
260.546	16.19
260.761	19.18
260.976	18.38
261.191	21.35
261.406	23.12
261.621	25.19
261.836	28.76
262.05	28.33
262.265	32.35
262.48	37.83
262.695	38.29
262.91	38.99
263.125	37.51
263.34	43.72
263.555	41.3
263.769	40.19
263.984	38.07
264.199	35.62
264.414	35.82
264.629	35.23
264.843	34.18
265.058	32.69
265.273	25.3
265.488	28
265.702	27.79
265.917	30.83
266.132	31.17
266.346	32.61
266.561	32.67
266.776	33.84
266.99	31.69
267.205	29.3
267.42	29.48
267.634	29.95
267.849	27.11
268.063	25.61
268.278	24.68
268.492	22.7
268.707	21.93
268.922	22.39
269.136	20.43
269.351	18.63
269.565	20.12
269.78	19.18
269.994	23.33
270.209	24.01
270.423	23.19
270.637	21.27
270.852	22.38
271.066	22.07
271.281	23.42
271.495	24.08
271.709	25.03
271.924	24.14
272.138	25.99
272.353	24.91
272.567	25.88
272.781	24.51
272.996	25.65
273.21	26.73
273.424	27.03
273.638	25.34
273.853	25.5
274.067	25.89
274.281	24.75
274.495	21.06
274.71	23.99
274.924	21.83
275.138	25.62
275.352	24.35
275.566	25.22
275.781	23.9
275.995	22.88
276.209	19.95
276.423	20.07
276.637	20.37
276.851	23.42
277.065	19.9
277.279	19.75
277.493	20.04
277.707	19.38
277.921	16.48
278.135	20.44
278.349	18.05
278.563	20.38
278.777	17.13
278.991	18.3
279.205	17.5
279.419	16.78
279.633	18.65
279.847	17.06
280.061	15.81
280.275	14.6
280.489	9.55
280.703	11.86
280.917	11.88
281.131	13.12
281.344	12.8
281.558	12.16
281.772	13.3
281.986	12.84
282.2	11.33
282.414	12.86
282.627	13.41
282.841	16
283.055	12.86
283.269	13.93
283.482	13.76
283.696	14.11
283.91	15.75
284.123	14.92
284.337	15.58
284.551	16.88
284.764	16.23
284.978	16.73
285.192	16.91
285.405	18.83
285.619	18.03
285.833	18.61
286.046	17.98
286.26	17.52
286.473	19.55
286.687	19.85
286.9	19.96
287.114	19.89
287.327	18.63
287.541	17.75
287.754	17.39
287.968	17.75
288.181	18.25
288.395	18.93
288.608	19.09
288.822	18.44
289.035	17.51
289.248	17.02
289.462	17.33
289.675	18
289.889	18.05
290.102	18.94
290.315	18.09
290.529	18.47
290.742	17.96
290.955	17.7
291.169	18.22
291.382	17.8
291.595	18.58
291.808	18.56
292.022	18.57
292.235	19.67
292.448	19.83
292.661	21.19
292.875	20.37
293.088	20.14
293.301	17.09
293.514	15.59
293.727	15.45
293.94	13.76
294.153	13.4
294.367	14.69
294.58	11.86
294.793	9.37
295.006	8.49
295.219	8.49
295.432	7.09
295.645	9.7
295.858	11.12
296.071	10.82
296.284	11.48
296.497	12.37
296.71	13.1
296.923	14.15
297.136	15
297.349	16.7
297.562	16.58
297.775	17.27
297.988	16.4
298.201	15.66
298.414	16.89
298.626	15.63
298.839	15.35
299.052	15.78
299.265	16.63
299.478	18.33
299.691	17.13
299.903	16.49
300.116	16.83
300.329	17.31
300.542	17.42
300.755	17.21
300.967	18.56
301.18	18.57
301.393	17.09
301.605	16.45
301.818	15.56
302.031	15.39
302.243	16.64
302.456	16.56
302.669	16.66
302.881	17.78
303.094	18.51
303.307	18.36
303.519	18.25
303.732	17.78
303.944	17.84
304.157	19.69
304.37	19.85
304.582	20.83
304.795	20.74
305.007	21
305.22	20.26
305.432	19.53
305.645	20.04
305.857	20.72
306.069	19.47
306.282	18.71
306.494	16.26
306.707	16.97
306.919	15.82
307.132	16.66
307.344	17.04
307.556	16.35
307.769	15.41
307.981	15.46
308.193	14.21
308.406	15.11
308.618	14.17
308.83	15.44
309.043	14.98
309.255	15.63
309.467	15.84
309.679	13.72
309.892	14.07
310.104	15.62
310.316	15.93
310.528	16.79
310.74	15.21
310.953	16.39
311.165	16.28
311.377	16.65
311.589	16.05
311.801	14.63
312.013	16.12
312.225	15.85
312.437	15.28
312.649	14.09
312.862	14.68
313.074	17.32
313.286	17.24
313.498	15.49
313.71	14.16
313.922	13.91
314.134	14.15
314.346	15.12
314.558	16.15
314.77	16.72
314.982	17.87
315.193	15.58
315.405	14.5
315.617	15.32
315.829	18.14
316.041	18.37
316.253	18.11
316.465	19.93
316.677	18.99
316.888	19.56
317.1	18.58
317.312	17.78
317.524	21.35
317.736	23.55
317.947	23.8
318.159	22.79
318.371	25.19
318.583	26.41
318.794	27.56
319.006	28.03
319.218	27.62
319.43	28.13
319.641	30.26
319.853	28.92
320.064	28.18
320.276	29.34
320.488	29.53
320.699	28.78
320.911	28.97
321.123	27.28
321.334	28.01
321.546	27.92
321.757	28.02
321.969	28.71
322.18	27.26
322.392	25.93
322.603	24.26
322.815	22.09
323.026	21.93
323.238	21.46
323.449	21.21
323.661	21.64
323.872	19.98
324.083	18.71
324.295	16.41
324.506	16.96
324.718	17.5
324.929	18.48
325.14	21.52
325.352	21.78
325.563	22.38
325.774	22.72
325.986	21.87
326.197	24.14
326.408	26.22
326.62	27.17
326.831	28.88
327.042	30.41
327.253	29.75
327.464	28.45
327.676	27.6
327.887	27.59
328.098	28.49
328.309	28.85
328.52	28.37
328.732	26.79
328.943	27.28
329.154	24.62
329.365	23.48
329.576	24.71
329.787	24.87
329.998	24.6
330.209	24.84
330.42	25.25
330.631	24.51
330.842	23.74
331.053	24.84
331.264	25.09
331.475	26.93
331.686	27.8
331.897	26.86
332.108	29.43
332.319	29.21
332.53	27.78
332.741	27.19
332.952	26.76
333.163	28.66
333.374	29.53
333.585	29.78
333.795	29.88
334.006	28.68
334.217	29.64
334.428	28.47
334.639	29.89
334.849	32.75
335.06	32.83
335.271	34.05
335.482	32.82
335.692	32.47
335.903	30.79
336.114	31.95
336.325	32.45
336.535	31.32
336.746	31.06
336.957	29.88
337.167	27.6
337.378	27.89
337.589	27.6
337.799	27.19
338.01	26.82
338.22	28.52
338.431	27.96
338.642	27.79
338.852	28.01
339.063	26.76
339.273	27.92
339.484	29.12
339.694	29.2
339.905	28.67
340.115	29.66
340.326	28.91
340.536	28.36
340.746	27.41
340.957	27.69
341.167	28.28
341.378	29.08
341.588	29.76
341.799	28.02
342.009	28.25
342.219	29
342.43	28.86
342.64	29.83
342.85	29.02
343.061	29.68
343.271	29.26
343.481	28.36
343.691	28.36
343.902	27.51
344.112	28.49
344.322	26.67
344.532	27.02
344.743	27.14
344.953	27.01
345.163	27.4
345.373	27.69
345.583	27.02
345.793	29.06
346.004	29.19
346.214	30.35
346.424	31.48
346.634	32.6
346.844	32.98
347.054	32.89
347.264	32.67
347.474	31.52
347.684	30.64
347.894	30.91
348.104	28.74
348.314	28.01
348.524	25.78
348.734	24.68
348.944	24.13
349.154	23.04
349.364	21.62
349.574	20.84
349.784	21.15
349.994	21.78
350.204	21.33
350.413	21.43
350.623	20.74
350.833	21.71
351.043	21.46
351.253	22.62
351.463	21.83
351.672	23.63
351.882	23.63
352.092	24.6
352.302	24.05
352.511	24.94
352.721	25.11
352.931	26.31
353.141	25.78
353.35	27.17
353.56	25.25
353.77	24.31
353.979	23.56
354.189	23.41
354.399	22.46
354.608	22.03
354.818	22.27
355.027	22.25
355.237	21.65
355.447	22.42
355.656	21.87
355.866	22.24
356.075	23.81
356.285	24.01
356.494	23.73
356.704	24.56
356.913	25.41
357.123	25.46
357.332	25.92
357.542	25.61
357.751	25.43
357.96	24.1
358.17	23.99
358.379	22.9
358.589	22.51
358.798	23.44
359.007	24.21
359.217	24.17
359.426	23.01
359.635	22.99
359.845	23.34
360.054	22.45
360.263	23
360.472	23.6
360.682	24.72
360.891	24.79
361.1	24.85
361.309	24.58
361.519	23.56
361.728	23.62
361.937	23.9
362.146	24.24
362.355	24.63
362.564	24.3
362.774	24.7
362.983	24.29
363.192	24.33
363.401	24.77
363.61	23.51
363.819	24.57
364.028	25.34
364.237	24.63
364.446	24.7
364.655	24.06
364.864	24.53
365.073	24.13
365.282	23.41
365.491	23.61
365.7	24.1
365.909	24.26
366.118	25.12
366.327	24.86
366.536	24.46
366.745	24.33
366.954	25.34
367.162	24.77
367.371	24.43
367.58	25.39
367.789	25.47
367.998	24.69
368.207	25.57
368.415	25.07
368.624	25.16
368.833	25.81
369.042	25.67
369.25	25.36
369.459	26.05
369.668	25.7
369.877	24.99
370.085	24.87
370.294	24.06
370.503	23.75
370.711	22.72
370.92	22.47
371.129	22.42
371.337	21.64
371.546	21.43
371.754	20.65
371.963	21.08
372.171	21.14
372.38	20.49
372.589	21.15
372.797	21.21
373.006	22.14
373.214	21.9
373.423	21.29
373.631	21.98
373.84	21.18
374.048	21.4
374.256	20.48
374.465	21.2
374.673	22.51
374.882	21.21
375.09	19.97
375.298	19.92
375.507	19.88
375.715	19.52
375.923	18.76
376.132	19.85
376.34	19.42
376.548	20.03
376.757	19.73
376.965	18.09
377.173	19.26
377.381	20.32
377.59	20.09
377.798	20.92
378.006	21.23
378.214	21.97
378.423	21.78
378.631	21.64
378.839	22
379.047	22.19
379.255	23.21
379.463	22.83
379.671	22.86
379.879	22.85
380.088	22.03
380.296	22.9
380.504	23.39
380.712	23.39
380.92	23.46
381.128	23.48
381.336	22.43
381.544	22.12
381.752	21.43
381.96	20.95
382.168	19.92
382.376	20.35
382.584	19.62
382.791	18.71
382.999	17.82
383.207	17.2
383.415	17.24
383.623	17.33
383.831	17.55
384.039	17.77
384.247	18.24
384.454	18.88
384.662	18.74
384.87	19.43
385.078	18.79
385.285	19.36
385.493	20.44
385.701	20.04
385.909	20.33
386.116	20.1
386.324	20.24
386.532	19.45
386.739	19.32
386.947	18.41
387.155	17.62
387.362	18.67
387.57	17.74
387.778	17.28
387.985	16.44
388.193	16.42
388.4	15.91
388.608	15.71
388.816	16.45
389.023	16.87
389.231	17.97
389.438	17.94
389.646	17.51
389.853	18.55
390.061	18.92
390.268	19.46
390.475	19.23
390.683	19.41
390.89	19.68
391.098	19.31
391.305	19.08
391.512	18.48
391.72	18.31
391.927	18.41
392.135	17.86
392.342	17.59
392.549	16.79
392.756	16.45
392.964	16.29
393.171	17.02
393.378	17.14
393.586	17.37
393.793	17.63
394	18.07
394.207	18.32
394.414	18.64
394.622	18.68
394.829	19.61
395.036	19.94
395.243	20.25
395.45	19.25
395.657	18.68
395.864	18.2
396.072	18.76
396.279	18.48
396.486	17.55
396.693	17.1
396.9	17.07
397.107	17.04
397.314	16.91
397.521	16.92
397.728	16.66
397.935	16.46
398.142	16.46
398.349	15.81
398.556	16.05
398.763	16.47
398.97	17.41
399.177	17.52
399.383	17.85
399.59	18.14
399.797	18.04
400.004	19.11
400.211	19.59
400.418	19.64
400.625	18.85
400.831	18.72
401.038	17.91
401.245	17.18
401.452	17.26
401.658	16.85
401.865	16.71
402.072	16.15
402.279	15.41
402.485	15.72
402.692	15.42
402.899	15.36
403.105	14.69
403.312	15.59
403.519	16.1
403.725	15.24
403.932	15.07
404.138	15.26
404.345	15.42
404.552	15.57
404.758	15.33
404.965	15.54
405.171	16.08
405.378	16.25
405.584	16.73
405.791	16.77
405.997	17.74
406.204	18.64
406.41	18.59
406.617	18.52
406.823	18.15
407.029	18.27
407.236	18.56
407.442	18.5
407.649	18.82
407.855	17.81
408.061	17.25
408.268	16.72
408.474	15.82
408.68	15.37
408.887	15.93
409.093	16.91
409.299	16.91
409.505	16.51
409.712	17.1
409.918	16.58
410.124	16.66
410.33	17.22
410.537	16.81
410.743	16.2
410.949	16.66
411.155	16.27
411.361	15.34
411.567	14.58
411.773	15.14
411.98	14.76
412.186	15.82
412.392	16.35
412.598	15.76
412.804	15.85
413.01	16.59
413.216	16.74
413.422	16.77
413.628	17.11
413.834	17.38
414.04	16.99
414.246	16.5
414.452	15.79
414.658	14.81
414.864	15.06
415.07	14.83
415.275	14.63
415.481	14.5
415.687	14.66
415.893	14.45
416.099	14.82
416.305	14.79
416.511	14.73
416.716	14.71
416.922	14.78
417.128	14.52
417.334	15.19
417.539	15.04
417.745	15.1
417.951	14.87
418.157	15.13
418.362	15
418.568	14.71
418.774	14.41
418.979	14.38
419.185	14.5
419.391	14.73
419.596	14.48
419.802	14.66
420.008	14.22
420.213	14.46
420.419	14.31
420.624	14.24
420.83	14.35
421.035	14.65
421.241	14.51
421.446	14.62
421.652	14.65
421.857	14.89
422.063	14.97
422.268	14.94
422.474	14.45
422.679	14.17
422.885	14.1
423.09	14.14
423.295	14.28
423.501	14.38
423.706	14.4
423.911	14.26
424.117	14.04
424.322	14.11
424.527	14.21
424.733	14.49
424.938	14.4
425.143	14.55
425.349	14.42
425.554	14.26
425.759	14.25
425.964	13.99
426.169	14.02
426.375	14.37
426.58	14.04
426.785	14.25
426.99	14.47
427.195	14.59
427.4	14.74
427.605	15.18
427.811	15.32
428.016	15.2
428.221	15.7
428.426	15.98
428.631	15.2
428.836	15.11
429.041	14.84
429.246	14.51
429.451	14.76
429.656	14.63
429.861	14.35
430.066	14.1
430.271	14.66
430.476	14.4
430.681	13.72
430.886	14.19
431.09	14.01
431.295	13.78
431.5	14.08
431.705	14.17
431.91	14
432.115	13.76
432.32	13.59
432.524	13.32
432.729	13.48
432.934	13.5
433.139	13.28
433.343	13.42
433.548	13.96
433.753	13.66
433.958	13.24
434.162	13.58
434.367	13.96
434.572	14.09
434.776	13.98
434.981	13.95
435.186	14.22
435.39	14.46
435.595	14.55
435.799	14.5
436.004	14.73
436.209	15.16
436.413	15.11
436.618	14.97
436.822	15.43
437.027	15.78
437.231	15.63
437.436	15.46
437.64	15.59
437.845	15.43
438.049	15.13
438.253	14.8
438.458	14.85
438.662	14.76
438.867	14.6
439.071	14.58
439.275	14.52
439.48	14.77
439.684	15.29
439.888	15.12
440.093	14.91
440.297	15.01
440.501	15.23
440.706	15.35
440.91	15.3
441.114	15.3
441.318	15.11
441.523	15.02
441.727	14.53
441.931	14.4
442.135	14.21
442.339	14.61
442.543	14.58
442.748	14.82
442.952	14.3
443.156	14.11
443.36	14.53
443.564	14.52
443.768	14.66
443.972	15.14
444.176	14.87
444.38	15.19
444.584	14.95
444.788	14.91
444.992	14.57
445.196	14.79
445.4	14.7
445.604	14.34
445.808	14.28
446.012	14.07
446.216	13.87
446.42	13.64
446.624	13.41
446.828	13.43
447.032	13.37
447.235	13.33
447.439	13.17
447.643	13.44
447.847	13.73
448.051	13.84
448.254	13.75
448.458	13.73
448.662	13.89
448.866	13.96
449.069	14.04
449.273	14.05
449.477	14.14
449.681	14.36
449.884	14.21
450.088	13.82
450.292	13.66
450.495	13.57
450.699	13.9
450.902	13.97
451.106	13.37
451.31	13.85
451.513	13.77
