Data from JASIL_3382_Reflection_1.txt Node
Date: Thu Nov 19 19:09:17 EST 2015
User: Geneva
Spectrometer: USB4E03002
Autoset integration time: false
Trigger mode: 4
Integration Time (sec): 1.000000E-1
Scans to average: 10
Electric dark correction enabled: false
Nonlinearity correction enabled: false
Boxcar width: 5
Stray light correction enabled: false
XAxis mode: Wavelengths
Stop averaging: false
Number of Pixels in Spectrum: 3648
>>>>>Begin Spectral Data<<<<<
177.575	460.63
177.794	546.58
178.014	458.83
178.233	458.65
178.452	451.64
178.672	468.84
178.891	516.69
179.11	609.7
179.33	721.21
179.549	992.31
179.768	1521.2
179.987	1013.98
180.207	1183.78
180.426	4988
180.645	363900
180.864	-13650
181.084	6707.41
181.303	-14075
181.522	15108.7
181.741	2380.27
181.96	1222.76
182.179	771.11
182.398	1336.14
182.618	704.19
182.837	510.84
183.056	584.46
183.275	599.83
183.494	778.06
183.713	582.73
183.932	442.83
184.151	504.86
184.37	500.52
184.589	583.56
184.808	669.62
185.027	1097.08
185.246	1067.8
185.465	704.58
185.684	588.16
185.903	514.86
186.122	606.69
186.341	937.71
186.56	1012.27
186.779	956.97
186.998	992.88
187.216	930.05
187.435	658.7
187.654	762.98
187.873	879.73
188.092	1110.95
188.311	1267.58
188.53	978.67
188.748	722.87
188.967	562.96
189.186	736.71
189.405	676.27
189.623	577.54
189.842	788.66
190.061	975.2
190.28	952.82
190.498	1017.27
190.717	726.45
190.936	747.13
191.154	682.87
191.373	998.89
191.592	642.03
191.81	859.01
192.029	855.73
192.248	711.96
192.466	715.97
192.685	716.73
192.904	720.54
193.122	838.29
193.341	969.32
193.559	1986.63
193.778	973.37
193.996	1472.09
194.215	884.24
194.433	945
194.652	882.48
194.87	688.39
195.089	631.96
195.307	666.6
195.526	783
195.744	720.08
195.963	520.48
196.181	573.51
196.399	605.89
196.618	670.26
196.836	577.12
197.055	560
197.273	632.69
197.491	672.78
197.71	676.38
197.928	721.75
198.146	858.7
198.365	2056.76
198.583	1387.27
198.801	1224.79
199.019	924.17
199.238	1539.68
199.456	1117.37
199.674	850
199.892	719.16
200.111	646.93
200.329	610.13
200.547	478.17
200.765	401.55
200.983	422.7
201.202	456.13
201.42	573.59
201.638	842.54
201.856	979.67
202.074	1100.31
202.292	954.64
202.51	777.08
202.728	663.92
202.946	605.06
203.165	747.14
203.383	732.5
203.601	962.89
203.819	776.35
204.037	561.24
204.255	543.59
204.473	484.02
204.691	583.45
204.909	622.51
205.127	834.73
205.345	1242.68
205.562	826.54
205.78	736.41
205.998	641.27
206.216	589.04
206.434	643.22
206.652	592.23
206.87	649.76
207.088	622.95
207.306	655.46
207.523	676.2
207.741	454.23
207.959	461.2
208.177	494.07
208.395	419.48
208.612	385.98
208.83	359
209.048	364.79
209.266	338.66
209.483	367
209.701	362.17
209.919	383.33
210.136	513.88
210.354	668.89
210.572	644.66
210.79	663.6
211.007	823.28
211.225	726.59
211.442	931.96
211.66	2077.51
211.878	2831.5
212.095	1684.82
212.313	1072.62
212.53	1351.64
212.748	765.05
212.966	1020
213.183	1356.52
213.401	1003.29
213.618	1161.41
213.836	1436.61
214.053	803.41
214.271	586.25
214.488	793.45
214.705	854.72
214.923	691.68
215.14	805.99
215.358	687.55
215.575	649.64
215.793	645.6
216.01	489.42
216.227	480.24
216.445	623.45
216.662	649.31
216.879	565.13
217.097	530.58
217.314	521.16
217.531	608.31
217.749	577.8
217.966	587.21
218.183	621.76
218.4	681.2
218.618	722.09
218.835	548.45
219.052	520.66
219.269	486.17
219.487	453.09
219.704	536.77
219.921	467.41
220.138	450.84
220.355	407.82
220.572	458.69
220.79	585.99
221.007	496.63
221.224	417.26
221.441	400.4
221.658	425.1
221.875	466.36
222.092	427.33
222.309	386.71
222.526	382.08
222.743	378.05
222.96	310.81
223.177	264.91
223.394	266.49
223.611	304.14
223.828	293.5
224.045	308.76
224.262	282.49
224.479	275.06
224.696	318.04
224.913	365.23
225.13	363.89
225.347	383.75
225.564	397.23
225.781	342.04
225.997	301.87
226.214	290.69
226.431	260.12
226.648	225.62
226.865	196.16
227.082	171.1
227.298	150.26
227.515	138.01
227.732	123.2
227.949	111.96
228.165	109
228.382	106.62
228.599	101.22
228.816	98.1
229.032	100.49
229.249	100.05
229.466	99.03
229.682	98.84
229.899	101.8
230.116	108.94
230.332	111.21
230.549	115.39
230.765	117.54
230.982	124.2
231.199	130.52
231.415	140.85
231.632	148.81
231.848	155.79
232.065	150.73
232.281	160.5
232.498	168.09
232.714	171.86
232.931	168.47
233.147	169.17
233.364	183.68
233.58	181.43
233.797	167.01
234.013	177.8
234.23	180.86
234.446	199.58
234.662	182.95
234.879	177.94
235.095	188.66
235.312	193.12
235.528	192.94
235.744	184.87
235.961	173.83
236.177	173.27
236.393	175.22
236.61	175.08
236.826	168.59
237.042	177.57
237.258	188.59
237.475	195.47
237.691	187.06
237.907	189.36
238.123	174.65
238.339	183.78
238.556	176.05
238.772	166.81
238.988	161.06
239.204	156.34
239.42	141.87
239.636	129.68
239.853	118.88
240.069	111.66
240.285	102.4
240.501	99.66
240.717	96.44
240.933	89.46
241.149	82.79
241.365	79.69
241.581	75.78
241.797	75.29
242.013	74.64
242.229	74.41
242.445	74.25
242.661	74.25
242.877	75.91
243.093	73.13
243.309	77.14
243.525	82.48
243.741	84.05
243.957	85.62
244.173	81.48
244.388	77.78
244.604	72.07
244.82	69.13
245.036	64.83
245.252	57.33
245.468	55.04
245.683	52.15
245.899	46.34
246.115	44.31
246.331	41.63
246.547	41.08
246.762	40.42
246.978	40.14
247.194	38.93
247.409	40.35
247.625	42.61
247.841	43.41
248.057	45.79
248.272	47.44
248.488	48.7
248.703	50.5
248.919	55.13
249.135	58.92
249.35	63.04
249.566	68.65
249.782	67.12
249.997	66
250.213	64.63
250.428	62.02
250.644	63.35
250.859	65.54
251.075	64.62
251.29	62.79
251.506	61.84
251.721	60.61
251.937	58.38
252.152	59.8
252.368	61.12
252.583	64.94
252.798	66.98
253.014	70.73
253.229	70.9
253.445	76.23
253.66	79.42
253.875	84.09
254.091	85.25
254.306	86.98
254.521	90.13
254.737	90.51
254.952	86.31
255.167	88.73
255.383	87.39
255.598	87.92
255.813	84.1
256.028	77.93
256.244	72.32
256.459	70.66
256.674	70.09
256.889	67.77
257.104	64.97
257.32	63.01
257.535	56.26
257.75	51.64
257.965	47.83
258.18	44.95
258.395	42.99
258.61	41.21
258.826	39.25
259.041	36.29
259.256	34.98
259.471	34.56
259.686	33.49
259.901	33.55
260.116	33.56
260.331	33.8
260.546	34.33
260.761	35.76
260.976	39.13
261.191	41.06
261.406	45.13
261.621	47.31
261.836	49.58
262.05	53.52
262.265	58.02
262.48	62.03
262.695	63.87
262.91	68.9
263.125	69.76
263.34	66.39
263.555	68.59
263.769	67.61
263.984	65.59
264.199	64.72
264.414	64.67
264.629	63.98
264.843	61.15
265.058	62.18
265.273	56.71
265.488	54.94
265.702	54.58
265.917	53.35
266.132	52.09
266.346	52.81
266.561	53.09
266.776	53.02
266.99	50.86
267.205	51.53
267.42	50.41
267.634	53.22
267.849	53.39
268.063	52.95
268.278	52.32
268.492	51.55
268.707	51.85
268.922	49.75
269.136	47.8
269.351	48.54
269.565	46.94
269.78	44.79
269.994	42.62
270.209	44.09
270.423	43.44
270.637	41.9
270.852	41.85
271.066	40.32
271.281	40.86
271.495	40.9
271.709	39.86
271.924	40.17
272.138	40.23
272.353	39.94
272.567	40.1
272.781	41.31
272.996	41.65
273.21	44.41
273.424	43.75
273.638	45.14
273.853	46.94
274.067	46.91
274.281	47.24
274.495	49.01
274.71	49.87
274.924	48
275.138	48.1
275.352	50.49
275.566	48.48
275.781	50.2
275.995	50.17
276.209	48.9
276.423	49.94
276.637	50.38
276.851	48.09
277.065	47.66
277.279	48.93
277.493	48.87
277.707	48.83
277.921	47.67
278.135	47.64
278.349	46.4
278.563	47.01
278.777	46.7
278.991	47.74
279.205	48.1
279.419	49.54
279.633	48.65
279.847	47.02
280.061	45.91
280.275	46.57
280.489	47.13
280.703	45.9
280.917	45.69
281.131	45.69
281.344	43.51
281.558	44.1
281.772	43.32
281.986	42.31
282.2	42.02
282.414	42.07
282.627	41.42
282.841	40.55
283.055	41.31
283.269	40.53
283.482	39.92
283.696	39.81
283.91	38.78
284.123	36.96
284.337	36.96
284.551	37.29
284.764	36.6
284.978	36.38
285.192	35.28
285.405	35.25
285.619	34.49
285.833	34.59
286.046	34.48
286.26	35.5
286.473	36.06
286.687	36.97
286.9	37.19
287.114	37.97
287.327	37.32
287.541	38.35
287.754	37.82
287.968	39.5
288.181	39.07
288.395	38.82
288.608	37.58
288.822	37.38
289.035	36.04
289.248	35.33
289.462	34.11
289.675	35.47
289.889	36.28
290.102	36.56
290.315	35.71
290.529	35.96
290.742	37.18
290.955	37.43
291.169	38.45
291.382	40.49
291.595	42.06
291.808	42.87
292.022	42.5
292.235	41.47
292.448	41.47
292.661	40.97
292.875	41.34
293.088	40.87
293.301	41.95
293.514	40.49
293.727	38.11
293.94	36
294.153	34.64
294.367	34.66
294.58	34.51
294.793	34.83
295.006	34.77
295.219	32.39
295.432	31.85
295.645	31.6
295.858	30.38
296.071	29.18
296.284	28.96
296.497	29.69
296.71	28.7
296.923	28.41
297.136	27.36
297.349	26.8
297.562	28.95
297.775	29.04
297.988	28.34
298.201	29.62
298.414	30.87
298.626	32.1
298.839	32.84
299.052	34.39
299.265	34.26
299.478	35.32
299.691	37.15
299.903	36.93
300.116	36.61
300.329	38.71
300.542	38.36
300.755	39.67
300.967	39.68
301.18	39.56
301.393	38.19
301.605	39.18
301.818	39.02
302.031	38.72
302.243	39.5
302.456	41.08
302.669	39.36
302.881	41.45
303.094	40.75
303.307	40.01
303.519	40.23
303.732	40.86
303.944	40.89
304.157	41.15
304.37	39.91
304.582	37.89
304.795	36.52
305.007	36.87
305.22	36.09
305.432	37.02
305.645	37.65
305.857	37.66
306.069	38.64
306.282	37.53
306.494	38.5
306.707	39.68
306.919	38.47
307.132	39.35
307.344	39.05
307.556	39.03
307.769	38.26
307.981	38.58
308.193	37.64
308.406	36.38
308.618	36.87
308.83	36.04
309.043	34.44
309.255	34.99
309.467	33.15
309.679	32.36
309.892	31.68
310.104	30.67
310.316	29.24
310.528	29.62
310.74	29.1
310.953	28.8
311.165	28.34
311.377	28.84
311.589	29.71
311.801	30.18
312.013	31.51
312.225	31.58
312.437	33.4
312.649	35.24
312.862	35.55
313.074	37.39
313.286	38.82
313.498	39.83
313.71	40.62
313.922	41.08
314.134	41.89
314.346	42.07
314.558	42.21
314.77	41.78
314.982	41.54
315.193	40.78
315.405	40.25
315.617	38.88
315.829	39.66
316.041	39.75
316.253	41.01
316.465	41.72
316.677	40.97
316.888	41.13
317.1	40.91
317.312	42.21
317.524	42.47
317.736	43.57
317.947	45.99
318.159	45.06
318.371	44.77
318.583	44.58
318.794	44.55
319.006	45.33
319.218	46.42
319.43	47.11
319.641	45.2
319.853	45.46
320.064	44.84
320.276	43.6
320.488	42.98
320.699	44.57
320.911	43.74
321.123	44.82
321.334	44.35
321.546	45.44
321.757	45.41
321.969	45.68
322.18	46.14
322.392	45.58
322.603	43.86
322.815	44.87
323.026	44.12
323.238	44.04
323.449	41.87
323.661	41.31
323.872	38.68
324.083	38.15
324.295	37.97
324.506	37.7
324.718	37.1
324.929	37.9
325.14	37.34
325.352	37.06
325.563	37.76
325.774	39.3
325.986	40.27
326.197	41.86
326.408	42.33
326.62	42.47
326.831	42.36
327.042	42.33
327.253	42.14
327.464	42.18
327.676	42.93
327.887	42.33
328.098	41.27
328.309	41.05
328.52	40.46
328.732	40.84
328.943	40.92
329.154	42.02
329.365	43
329.576	43.75
329.787	44.17
329.998	44.94
330.209	44.95
330.42	44.77
330.631	45.1
330.842	44.41
331.053	43.52
331.264	42.6
331.475	42.63
331.686	42.71
331.897	42.27
332.108	41.85
332.319	41.37
332.53	39.96
332.741	39.44
332.952	39.11
333.163	39.25
333.374	39.33
333.585	39.55
333.795	39.32
334.006	38.93
334.217	39.26
334.428	39.22
334.639	39.57
334.849	41.04
335.06	42.39
335.271	42.45
335.482	41.96
335.692	42.34
335.903	42.79
336.114	42.52
336.325	43.46
336.535	43.69
336.746	43.67
336.957	42.85
337.167	43.73
337.378	43.99
337.589	43.95
337.799	44.97
338.01	44.44
338.22	44.92
338.431	45.61
338.642	44.56
338.852	44.6
339.063	44.52
339.273	44.95
339.484	42.73
339.694	42.16
339.905	40.89
340.115	41.01
340.326	41.54
340.536	40.88
340.746	39.61
340.957	40.34
341.167	40.79
341.378	40.48
341.588	39.88
341.799	40.52
342.009	40.18
342.219	40.75
342.43	39.62
342.64	38.44
342.85	38.83
343.061	39.63
343.271	39.8
343.481	37.69
343.691	38.56
343.902	38.53
344.112	38.76
344.322	37.73
344.532	37.84
344.743	37.78
344.953	38.16
345.163	37.39
345.373	37.12
345.583	36.45
345.793	37.12
346.004	36.38
346.214	36.77
346.424	37.59
346.634	39.95
346.844	39.82
347.054	40.99
347.264	41.84
347.474	42.96
347.684	42.7
347.894	42.81
348.104	43.13
348.314	42.93
348.524	41.14
348.734	40.2
348.944	38.96
349.154	39.21
349.364	37.95
349.574	36.73
349.784	36.06
349.994	35.49
350.204	35.39
350.413	35.68
350.623	36.37
350.833	35.87
351.043	35.57
351.253	35.47
351.463	35.08
351.672	35.24
351.882	36.41
352.092	35.96
352.302	36.87
352.511	37.55
352.721	36.32
352.931	35.69
353.141	37.81
353.35	38.98
353.56	38.82
353.77	37.89
353.979	38.82
354.189	38.37
354.399	38.79
354.608	37.89
354.818	37.16
355.027	36.69
355.237	36.16
355.447	35.11
355.656	34.29
355.866	33.45
356.075	34.67
356.285	33.48
356.494	33.44
356.704	33.45
356.913	33.83
357.123	33.56
357.332	33.37
357.542	33.18
357.751	33.7
357.96	33.86
358.17	34.44
358.379	34.12
358.589	34.19
358.798	33.41
359.007	33.44
359.217	32.2
359.426	31.81
359.635	32.27
359.845	32.83
360.054	31.8
360.263	30.73
360.472	30.03
360.682	30.06
360.891	29.36
361.1	29.45
361.309	28.8
361.519	29.89
361.728	29.54
361.937	29.65
362.146	29.04
362.355	29.5
362.564	29.47
362.774	30.19
362.983	29.83
363.192	31.13
363.401	31.37
363.61	31.9
363.819	32.12
364.028	32.62
364.237	32.52
364.446	32.8
364.655	32.99
364.864	34.2
365.073	33.6
365.282	34.09
365.491	33.94
365.7	34.41
365.909	34.08
366.118	33.94
366.327	34.54
366.536	34.32
366.745	34
366.954	34.37
367.162	33.54
367.371	34.08
367.58	33.68
367.789	33.49
367.998	33.39
368.207	33.44
368.415	32.73
368.624	31.82
368.833	32.72
369.042	32.9
369.25	33.22
369.459	33.08
369.668	32.17
369.877	32.3
370.085	31.19
370.294	30.76
370.503	31.19
370.711	31.64
370.92	31.47
371.129	30.59
371.337	30.74
371.546	29.73
371.754	30.23
371.963	29.85
372.171	29.15
372.38	29.73
372.589	29.9
372.797	29.32
373.006	29.21
373.214	29.35
373.423	29.94
373.631	29.76
373.84	29.23
374.048	29.02
374.256	29.91
374.465	30.56
374.673	30.95
374.882	30.86
375.09	30.95
375.298	29.89
375.507	29.6
375.715	29.58
375.923	29.23
376.132	29.06
376.34	28.65
376.548	28
376.757	27.88
376.965	27.3
377.173	26.75
377.381	27.04
377.59	27.96
377.798	28.08
378.006	27.71
378.214	28.22
378.423	29
378.631	28.63
378.839	28.67
379.047	28.81
379.255	29.27
379.463	29.47
379.671	29.03
379.879	28.67
380.088	29.27
380.296	28.97
380.504	28.51
380.712	29.09
380.92	29.21
381.128	29.73
381.336	28.79
381.544	28.62
381.752	28.55
381.96	28.8
382.168	28.19
382.376	27.94
382.584	27.99
382.791	29.25
382.999	28.64
383.207	28.62
383.415	28.09
383.623	28.56
383.831	28.7
384.039	28.82
384.247	28.74
384.454	29.24
384.662	28.99
384.87	28.53
385.078	27.36
385.285	26.55
385.493	26.82
385.701	26.68
385.909	26.23
386.116	25.38
386.324	25.58
386.532	25.43
386.739	25.17
386.947	24.58
387.155	24.88
387.362	24.25
387.57	25.07
387.778	25.12
387.985	24.95
388.193	24.91
388.4	24.83
388.608	24.5
388.816	24.23
389.023	24.27
389.231	24.46
389.438	24.65
389.646	25.15
389.853	24.59
390.061	23.86
390.268	24.1
390.475	24.39
390.683	24.55
390.89	24.69
391.098	25.04
391.305	25.1
391.512	25.22
391.72	25.01
391.927	25.12
392.135	25.12
392.342	25.32
392.549	24.97
392.756	24.63
392.964	24.91
393.171	24.95
393.378	24.76
393.586	24.39
393.793	24.08
394	24.09
394.207	23.39
394.414	23.31
394.622	23.41
394.829	23.76
395.036	23.93
395.243	24.12
395.45	23.78
395.657	23.69
395.864	23.81
396.072	23.76
396.279	23.76
396.486	24.48
396.693	24.27
396.9	24.04
397.107	23.88
397.314	24.23
397.521	23.68
397.728	23.74
397.935	23.9
398.142	23.89
398.349	24.37
398.556	24.59
398.763	24.29
398.97	24.5
399.177	24.88
399.383	25.08
399.59	24.6
399.797	24.58
400.004	24.2
400.211	24.24
400.418	24.29
400.625	23.89
400.831	23.31
401.038	23.16
401.245	23.23
401.452	22.93
401.658	22.52
401.865	22.6
402.072	23
402.279	23.49
402.485	23.37
402.692	23.35
402.899	23.18
403.105	23.61
403.312	23.34
403.519	23.31
403.725	23.07
403.932	22.92
404.138	22.85
404.345	22.68
404.552	22.77
404.758	22.73
404.965	23.41
405.171	23.98
405.378	23.91
405.584	24.58
405.791	24.67
405.997	25.03
406.204	25.84
406.41	26.13
406.617	26.33
406.823	25.92
407.029	26.04
407.236	25.25
407.442	25.31
407.649	25.19
407.855	24.8
408.061	24.44
408.268	24.49
408.474	24.07
408.68	24.19
408.887	23.96
409.093	24.11
409.299	23.42
409.505	23.91
409.712	23.62
409.918	23.51
410.124	23.65
410.33	23.82
410.537	24.12
410.743	24.5
410.949	24.75
411.155	24.99
411.361	24.35
411.567	24.7
411.773	24.45
411.98	24.59
412.186	25.05
412.392	25
412.598	25.04
412.804	24.88
413.01	25.05
413.216	24.88
413.422	25.04
413.628	25.72
413.834	25.8
414.04	26.27
414.246	26.16
414.452	25.95
414.658	25.78
414.864	25.45
415.07	25.36
415.275	24.71
415.481	24.53
415.687	24.22
415.893	24.28
416.099	23.83
416.305	23.45
416.511	23.49
416.716	23.48
416.922	23.64
417.128	23.99
417.334	23.79
417.539	24.12
417.745	23.98
417.951	23.76
418.157	23.68
418.362	23.74
418.568	23.55
418.774	23.15
418.979	22.76
419.185	22.46
419.391	22.08
419.596	22.07
419.802	21.71
420.008	21.78
420.213	21.92
420.419	21.66
420.624	21.76
420.83	21.8
421.035	21.99
421.241	22.28
421.446	22.55
421.652	22.71
421.857	22.64
422.063	22.78
422.268	22.7
422.474	22.69
422.679	22.59
422.885	22.58
423.09	22.56
423.295	22.62
423.501	22.5
423.706	22.46
423.911	22.65
424.117	22.75
424.322	22.77
424.527	22.86
424.733	22.86
424.938	23.35
425.143	23.19
425.349	23.37
425.554	23.42
425.759	23.63
425.964	23.67
426.169	23.85
426.375	23.87
426.58	24.07
426.785	24.42
426.99	24.72
427.195	24.77
427.4	25.28
427.605	25.4
427.811	25.64
428.016	25.79
428.221	25.96
428.426	25.92
428.631	26.22
428.836	26.15
429.041	25.89
429.246	25.79
429.451	25.68
429.656	25.78
429.861	25.84
430.066	26.24
430.271	26.41
430.476	26.47
430.681	26.52
430.886	26.31
431.09	26.33
431.295	26.77
431.5	26.98
431.705	27.4
431.91	27.19
432.115	27.21
432.32	27.11
432.524	27.03
432.729	27.07
432.934	26.84
433.139	27.16
433.343	27.4
433.548	27.11
433.753	27.2
433.958	26.99
434.162	27.45
434.367	27.59
434.572	27.43
434.776	27.7
434.981	27.8
435.186	28.43
435.39	28.48
435.595	28.87
435.799	29.1
436.004	29.23
436.209	29.55
436.413	29.34
436.618	29.51
436.822	29.99
437.027	29.7
437.231	29.77
437.436	29.57
437.64	29.54
437.845	29.39
438.049	29.25
438.253	29.01
438.458	28.88
438.662	28.93
438.867	28.89
439.071	28.77
439.275	28.89
439.48	28.75
439.684	28.92
439.888	29.07
440.093	28.91
440.297	29.13
440.501	29.35
440.706	29.38
440.91	29.8
441.114	29.97
441.318	29.86
441.523	30.17
441.727	30.78
441.931	30.8
442.135	30.89
442.339	31.14
442.543	31.38
442.748	31.63
442.952	32.13
443.156	31.9
443.36	32.05
443.564	32.3
443.768	32.1
443.972	32.05
444.176	32.27
444.38	32.48
444.584	32.31
444.788	32.3
444.992	32.28
445.196	32.27
445.4	32.39
445.604	32.07
445.808	32.31
446.012	32.28
446.216	32.22
446.42	32.34
446.624	32.44
446.828	32.82
447.032	32.72
447.235	32.77
447.439	32.79
447.643	32.92
447.847	33.58
448.051	33.62
448.254	34.32
448.458	34.54
448.662	34.53
448.866	34.67
449.069	34.7
449.273	35.19
449.477	35.44
449.681	35.82
449.884	36.09
450.088	36.08
450.292	36.37
450.495	36.25
450.699	36.47
450.902	36.7
451.106	36.72
451.31	37.11
451.513	37.48
451.717	37.67
451.92	37.84
452.124	38.06
452.327	38.26
452.531	38.05
452.734	38.11
