Data from JASIL_2935_Reflection_1.txt Node
Date: Sat Nov 07 21:00:24 EST 2015
User: Geneva
Spectrometer: USB4E03002
Autoset integration time: false
Trigger mode: 4
Integration Time (sec): 1.000000E-1
Scans to average: 10
Electric dark correction enabled: true
Nonlinearity correction enabled: false
Boxcar width: 5
Stray light correction enabled: false
XAxis mode: Wavelengths
Stop averaging: false
Number of Pixels in Spectrum: 3648
>>>>>Begin Spectral Data<<<<<
177.575	-681.73
177.794	-309.85
178.014	-313.74
178.233	-8.4
178.452	7.59
178.672	76.35
178.891	71.41
179.11	0
179.33	362.77
179.549	-431.28
179.768	357.92
179.987	-296.37
180.207	-38.42
180.426	22.72
180.645	38.48
180.864	46.69
181.084	45.72
181.303	32
181.522	38.13
181.741	42.74
181.96	36.79
182.179	49.98
182.398	41.3
182.618	31.25
182.837	28.44
183.056	14.54
183.275	-2.52
183.494	-7.79
183.713	9.36
183.932	-12.6
184.151	-48.51
184.37	-13.51
184.589	-24.92
184.808	-19.27
185.027	-13.72
185.246	-13.67
185.465	-12.83
185.684	-1.64
185.903	-1.24
186.122	-1.06
186.341	-0.48
186.56	13.49
186.779	-8.75
186.998	0.13
187.216	17.88
187.435	19.8
187.654	-1.69
187.873	11.17
188.092	-7.97
188.311	-12.64
188.53	-1.41
188.748	12.06
188.967	-0.78
189.186	21.55
189.405	26.55
189.623	7.37
189.842	26.61
190.061	35.57
190.28	20.97
190.498	24.72
190.717	46.08
190.936	28.33
191.154	-8.26
191.373	-18.45
191.592	-27.12
191.81	-50.55
192.029	-47.44
192.248	-104
192.466	-54.87
192.685	-41.84
192.904	-29.52
193.122	-34.69
193.341	-28.81
193.559	2.45
193.778	9.25
193.996	14.32
194.215	14.55
194.433	9.9
194.652	13.62
194.87	13.98
195.089	24.15
195.307	32.29
195.526	37.65
195.744	40.09
195.963	39.95
196.181	36.11
196.399	19.93
196.618	37.12
196.836	51.05
197.055	57.82
197.273	56.66
197.491	72.53
197.71	72.65
197.928	66.51
198.146	53.39
198.365	33.54
198.583	50.51
198.801	55.79
199.019	42.68
199.238	26.25
199.456	18.09
199.674	5.36
199.892	-10.88
200.111	-62.11
200.329	-33.3
200.547	-37.25
200.765	-31.8
200.983	-64.2
201.202	-46.99
201.42	-29.08
201.638	-29.77
201.856	-38.92
202.074	-16.11
202.292	-10.88
202.51	-1.86
202.728	-13.75
202.946	-26.13
203.165	-25.68
203.383	-13.19
203.601	-24.14
203.819	-34.68
204.037	-23.92
204.255	-1.87
204.473	0.92
204.691	-9.79
204.909	-11.87
205.127	18.74
205.345	25.07
205.562	17.71
205.78	16.93
205.998	19.39
206.216	19.76
206.434	12.11
206.652	18.17
206.87	11.3
207.088	18.88
207.306	20.63
207.523	8.66
207.741	3.6
207.959	11.03
208.177	0.38
208.395	-23.82
208.612	-45.98
208.83	-14.55
209.048	-32.79
209.266	-54.36
209.483	-66.57
209.701	-61.35
209.919	-65.69
210.136	-58.63
210.354	-13.32
210.572	10.63
210.79	27.07
211.007	41.19
211.225	35.71
211.442	47.6
211.66	55.71
211.878	59.84
212.095	119.39
212.313	116.18
212.53	115.72
212.748	115.21
212.966	113.27
213.183	103.64
213.401	98.27
213.618	98.45
213.836	100.12
214.053	93.14
214.271	81.55
214.488	12.59
214.705	8.37
214.923	3.47
215.14	-0.66
215.358	-4.82
215.575	1.4
215.793	1.28
216.01	-4.06
216.227	-10.59
216.445	-13.02
216.662	-6.73
216.879	-2.35
217.097	-7.73
217.314	-3.1
217.531	-1.54
217.749	-0.75
217.966	-2.39
218.183	-3.26
218.4	-5.82
218.618	-2.54
218.835	8.31
219.052	10.26
219.269	10.34
219.487	16.78
219.704	17.15
219.921	14.93
220.138	16.2
220.355	12.17
220.572	11.52
220.79	9.75
221.007	17.83
221.224	15.44
221.441	14.6
221.658	11.28
221.875	11.19
222.092	6.81
222.309	8.77
222.526	5.72
222.743	8.18
222.96	5.93
223.177	12.31
223.394	5.88
223.611	6.1
223.828	4.41
224.045	6.76
224.262	5.41
224.479	7.1
224.696	4.85
224.913	6.77
225.13	9.11
225.347	8.84
225.564	7.75
225.781	8.39
225.997	9.5
226.214	8.64
226.431	8.47
226.648	8.22
226.865	8.2
227.082	9
227.298	8.89
227.515	8.18
227.732	8.09
227.949	8.42
228.165	8.07
228.382	7.18
228.599	7.14
228.816	7.27
229.032	7.24
229.249	7.47
229.466	6.86
229.682	6.77
229.899	7.21
230.116	7.52
230.332	8.02
230.549	9.71
230.765	11.81
230.982	11.91
231.199	12.33
231.415	11.98
231.632	11.13
231.848	12.08
232.065	12.59
232.281	12.45
232.498	12.86
232.714	11.5
232.931	9.12
233.147	8.37
233.364	9.57
233.58	9.97
233.797	10.15
234.013	11.15
234.23	10.5
234.446	10.78
234.662	10.67
234.879	10.93
235.095	10.8
235.312	11.25
235.528	10.72
235.744	9.91
235.961	8.67
236.177	9.08
236.393	8.61
236.61	9.57
236.826	8.63
237.042	8.24
237.258	8.07
237.475	8.6
237.691	8.64
237.907	9.14
238.123	9.58
238.339	10.69
238.556	10.65
238.772	10.24
238.988	10.12
239.204	10.56
239.42	10.95
239.636	10.95
239.853	10.44
240.069	10.47
240.285	10.18
240.501	9.69
240.717	9.34
240.933	9.51
241.149	9.9
241.365	9.98
241.581	10.01
241.797	9.92
242.013	9.7
242.229	10.18
242.445	10.28
242.661	10.19
242.877	10.61
243.093	10.95
243.309	11.23
243.525	10.9
243.741	10.6
243.957	10.69
244.173	10.6
244.388	10.48
244.604	10.08
244.82	10.2
245.036	9.89
245.252	9.71
245.468	9.6
245.683	9.43
245.899	9.71
246.115	9.56
246.331	9.53
246.547	9.5
246.762	9.5
246.978	9.4
247.194	9.19
247.409	9.35
247.625	9.21
247.841	9.17
248.057	9.12
248.272	8.64
248.488	8.53
248.703	8.14
248.919	8.07
249.135	8.12
249.35	7.95
249.566	8.15
249.782	8.02
249.997	8.46
250.213	8.54
250.428	8.67
250.644	8.8
250.859	9.05
251.075	9.36
251.29	9.21
251.506	8.95
251.721	9.18
251.937	8.92
252.152	9.2
252.368	8.77
252.583	8.65
252.798	8.7
253.014	8.79
253.229	9.2
253.445	8.88
253.66	9.06
253.875	8.79
254.091	8.28
254.306	8.71
254.521	8.49
254.737	8.96
254.952	8.72
255.167	8.16
255.383	8.4
255.598	7.94
255.813	7.56
256.028	7.27
256.244	7.69
256.459	7.68
256.674	7.53
256.889	7.34
257.104	7
257.32	6.89
257.535	6.83
257.75	6.57
257.965	6.36
258.18	6.52
258.395	6.5
258.61	6.41
258.826	6.63
259.041	6.52
259.256	6.51
259.471	6.63
259.686	6.72
259.901	6.74
260.116	6.86
260.331	7.1
260.546	7.26
260.761	7.48
260.976	7.8
261.191	7.69
261.406	7.67
261.621	7.68
261.836	7.35
262.05	7.09
262.265	7.16
262.48	7.08
262.695	6.84
262.91	6.78
263.125	6.39
263.34	6.17
263.555	6.09
263.769	5.92
263.984	6.27
264.199	6.85
264.414	6.93
264.629	6.6
264.843	6.53
265.058	6.58
265.273	6.5
265.488	6.46
265.702	6.25
265.917	6.67
266.132	7
266.346	6.69
266.561	6.58
266.776	6.83
266.99	7.19
267.205	7.29
267.42	7.15
267.634	7.23
267.849	7.48
268.063	7.42
268.278	6.84
268.492	6.57
268.707	6.72
268.922	6.72
269.136	6.59
269.351	6.5
269.565	6.55
269.78	6.47
269.994	6.1
270.209	5.93
270.423	6.23
270.637	6.4
270.852	6.41
271.066	6.28
271.281	6.33
271.495	6.46
271.709	6.18
271.924	5.94
272.138	5.88
272.353	6.13
272.567	5.95
272.781	5.79
272.996	5.92
273.21	5.86
273.424	5.87
273.638	5.7
273.853	5.49
274.067	5.59
274.281	5.73
274.495	5.86
274.71	5.59
274.924	5.68
275.138	5.62
275.352	5.54
275.566	5.55
275.781	5.72
275.995	5.92
276.209	6.09
276.423	6.19
276.637	6.16
276.851	6.27
277.065	6.48
277.279	6.62
277.493	7.02
277.707	7.03
277.921	7.26
278.135	7.18
278.349	6.87
278.563	6.49
278.777	6.31
278.991	6.47
279.205	6.69
279.419	6.59
279.633	6.62
279.847	6.33
280.061	6.4
280.275	6.27
280.489	6.18
280.703	6.16
280.917	6.02
281.131	6.21
281.344	5.96
281.558	5.63
281.772	5.61
281.986	5.64
282.2	5.49
282.414	5.33
282.627	5.28
282.841	5.39
283.055	5.42
283.269	5.57
283.482	5.36
283.696	5.54
283.91	5.79
284.123	5.92
284.337	5.77
284.551	5.77
284.764	5.64
284.978	5.9
285.192	5.73
285.405	5.77
285.619	5.97
285.833	5.84
286.046	5.82
286.26	5.67
286.473	5.36
286.687	5.41
286.9	5.46
287.114	5.63
287.327	5.48
287.541	5.63
287.754	5.72
287.968	5.51
288.181	5.89
288.395	5.75
288.608	5.6
288.822	5.85
289.035	5.99
289.248	5.92
289.462	6.09
289.675	6.14
289.889	6.03
290.102	6.05
290.315	5.95
290.529	5.89
290.742	5.95
290.955	5.94
291.169	5.95
291.382	5.64
291.595	5.7
291.808	5.32
292.022	5.35
292.235	5.28
292.448	5.38
292.661	5.58
292.875	5.6
293.088	5.64
293.301	5.91
293.514	5.76
293.727	6.04
293.94	6.21
294.153	6.48
294.367	6.31
294.58	6.34
294.793	6.11
295.006	6.14
295.219	6.31
295.432	6.28
295.645	6.38
295.858	6.25
296.071	6.24
296.284	6.02
296.497	5.9
296.71	5.99
296.923	6.12
297.136	6.15
297.349	6.21
297.562	6.05
297.775	6.07
297.988	6.04
298.201	6.26
298.414	6.23
298.626	6.41
298.839	6.57
299.052	6.67
299.265	6.46
299.478	6.43
299.691	6.14
299.903	6.17
300.116	6.18
300.329	6.08
300.542	5.98
300.755	6.11
300.967	6.13
301.18	6.01
301.393	5.91
301.605	6.1
301.818	6
302.031	6.26
302.243	6.28
302.456	6.61
302.669	6.63
302.881	6.89
303.094	6.63
303.307	6.79
303.519	6.95
303.732	7.12
303.944	7.19
304.157	7.33
304.37	7.56
304.582	7.55
304.795	7.28
305.007	7.36
305.22	7.26
305.432	7.42
305.645	7.23
305.857	7.16
306.069	7.21
306.282	7.2
306.494	7.36
306.707	7.09
306.919	7.23
307.132	7.07
307.344	7.01
307.556	7.03
307.769	7
307.981	7.11
308.193	7.16
308.406	6.73
308.618	6.71
308.83	6.57
309.043	6.69
309.255	6.63
309.467	6.77
309.679	6.89
309.892	6.83
310.104	6.97
310.316	6.82
310.528	6.72
310.74	7.08
310.953	7.25
311.165	7.44
311.377	7.22
311.589	7.09
311.801	7.11
312.013	7.17
312.225	7.28
312.437	7.08
312.649	7.3
312.862	7.55
313.074	7.33
313.286	7.22
313.498	7
313.71	7.32
313.922	7.53
314.134	7.76
314.346	7.52
314.558	7.48
314.77	7.72
314.982	7.61
315.193	7.49
315.405	7.4
315.617	7.2
315.829	7.39
316.041	7.46
316.253	7.35
316.465	7.02
316.677	7.07
316.888	7.19
317.1	7.13
317.312	7.29
317.524	7.44
317.736	7.83
317.947	8.08
318.159	8.38
318.371	8.28
318.583	8.49
318.794	8.86
319.006	9.03
319.218	9.01
319.43	9.24
319.641	9.29
319.853	9.3
320.064	9.32
320.276	9.6
320.488	9.33
320.699	9.54
320.911	9.63
321.123	9.87
321.334	9.91
321.546	9.8
321.757	9.64
321.969	9.67
322.18	9.66
322.392	9.55
322.603	9.35
322.815	9.55
323.026	9.63
323.238	9.62
323.449	9.63
323.661	9.56
323.872	9.95
324.083	10.13
324.295	10.15
324.506	10.33
324.718	10.64
324.929	10.88
325.14	11.18
325.352	11.16
325.563	11.41
325.774	11.28
325.986	11.53
326.197	11.52
326.408	11.69
326.62	11.86
326.831	12.09
327.042	12.17
327.253	12.25
327.464	12.35
327.676	12.57
327.887	12.7
328.098	12.9
328.309	13.18
328.52	13.49
328.732	13.89
328.943	14.17
329.154	14.44
329.365	14.54
329.576	14.86
329.787	14.8
329.998	15.02
330.209	15.47
330.42	15.88
330.631	16.04
330.842	16.06
331.053	16.06
331.264	16.17
331.475	16.21
331.686	16.39
331.897	16.57
332.108	16.67
332.319	16.74
332.53	16.59
332.741	16.57
332.952	16.57
333.163	16.79
333.374	16.88
333.585	16.67
333.795	16.74
334.006	16.83
334.217	16.85
334.428	17.01
334.639	17.13
334.849	17.32
335.06	17.35
335.271	17.41
335.482	17.38
335.692	17.39
335.903	17.51
336.114	17.35
336.325	17.55
336.535	17.41
336.746	17.17
336.957	17.29
337.167	17.21
337.378	17.02
337.589	16.96
337.799	16.95
338.01	16.94
338.22	17.13
338.431	17.24
338.642	16.95
338.852	17.02
339.063	17.25
339.273	17.17
339.484	17.27
339.694	17.46
339.905	17.46
340.115	17.47
340.326	17.34
340.536	17.58
340.746	17.64
340.957	17.83
341.167	17.87
341.378	17.85
341.588	17.84
341.799	17.56
342.009	17.5
342.219	17.63
342.43	17.77
342.64	17.81
342.85	17.51
343.061	17.47
343.271	17.49
343.481	17.5
343.691	17.53
343.902	17.42
344.112	17.36
344.322	17.41
344.532	17.32
344.743	17.2
344.953	17.12
345.163	17.15
345.373	17.02
345.583	16.85
345.793	16.86
346.004	16.82
346.214	16.8
346.424	16.99
346.634	17.07
346.844	17.04
347.054	16.97
347.264	17.15
347.474	17.15
347.684	17.19
347.894	17.32
348.104	17.16
348.314	17.04
348.524	17.13
348.734	17.1
348.944	16.93
349.154	16.95
349.364	16.92
349.574	16.79
349.784	16.71
349.994	16.72
350.204	16.6
350.413	16.61
350.623	16.72
350.833	16.56
351.043	16.5
351.253	16.56
351.463	16.5
351.672	16.14
351.882	16.11
352.092	16.1
352.302	15.98
352.511	15.92
352.721	15.93
352.931	15.86
353.141	15.85
353.35	15.79
353.56	15.83
353.77	15.91
353.979	16.29
354.189	16.39
354.399	16.65
354.608	16.84
354.818	16.85
355.027	17.03
355.237	16.96
355.447	17.04
355.656	17.07
355.866	16.98
356.075	16.8
356.285	16.67
356.494	16.61
356.704	16.39
356.913	16.24
357.123	16.13
357.332	15.88
357.542	16
357.751	16.07
357.96	15.96
358.17	15.96
358.379	16.14
358.589	16.19
358.798	16.24
359.007	16.19
359.217	16.17
359.426	16.29
359.635	16.34
359.845	16.16
360.054	16
360.263	16.12
360.472	16.05
360.682	15.99
360.891	15.91
361.1	15.84
361.309	15.82
361.519	15.86
361.728	15.85
361.937	15.82
362.146	15.86
362.355	15.86
362.564	15.79
362.774	15.79
362.983	15.63
363.192	15.6
363.401	15.53
363.61	15.52
363.819	15.5
364.028	15.41
364.237	15.33
364.446	15.34
364.655	15.28
364.864	15.24
365.073	15.34
365.282	15.43
365.491	15.48
365.7	15.57
365.909	15.52
366.118	15.62
366.327	15.64
366.536	15.65
366.745	15.62
366.954	15.62
367.162	15.6
367.371	15.4
367.58	15.42
367.789	15.33
367.998	15.18
368.207	15.39
368.415	15.29
368.624	15.2
368.833	15.21
369.042	15.24
369.25	15.24
369.459	15.33
369.668	15.38
369.877	15.35
370.085	15.42
370.294	15.4
370.503	15.26
370.711	15.22
370.92	15.2
371.129	15.17
371.337	15.18
371.546	15.09
371.754	15.06
371.963	15.09
372.171	15.01
372.38	14.95
372.589	15.01
372.797	14.96
373.006	14.91
373.214	14.87
373.423	14.89
373.631	14.76
373.84	14.88
374.048	14.73
374.256	14.63
374.465	14.62
374.673	14.67
374.882	14.61
375.09	14.62
375.298	14.57
375.507	14.66
375.715	14.66
375.923	14.61
376.132	14.42
376.34	14.33
376.548	14.32
376.757	14.41
376.965	14.42
377.173	14.53
377.381	14.6
377.59	14.63
377.798	14.61
378.006	14.46
378.214	14.47
378.423	14.53
378.631	14.63
378.839	14.63
379.047	14.64
379.255	14.53
379.463	14.43
379.671	14.23
379.879	14.16
380.088	14.09
380.296	14.21
380.504	14.32
380.712	14.42
380.92	14.53
381.128	14.52
381.336	14.47
381.544	14.44
381.752	14.41
381.96	14.45
382.168	14.53
382.376	14.52
382.584	14.4
382.791	14.38
382.999	14.31
383.207	14.2
383.415	14.15
383.623	14.22
383.831	14.27
384.039	14.3
384.247	14.31
384.454	14.44
384.662	14.53
384.87	14.58
385.078	14.57
385.285	14.57
385.493	14.58
385.701	14.65
385.909	14.6
386.116	14.59
386.324	14.57
386.532	14.58
386.739	14.34
386.947	14.19
387.155	14.13
387.362	14.06
387.57	14.09
387.778	14.13
387.985	14.19
388.193	14.12
388.4	14.19
388.608	14.11
388.816	14.09
389.023	14.12
389.231	14.1
389.438	14.11
389.646	14.07
389.853	14.02
390.061	13.92
390.268	13.85
390.475	13.86
390.683	13.8
390.89	13.84
391.098	13.83
391.305	13.94
391.512	13.97
391.72	14.01
391.927	13.99
392.135	14.05
392.342	14.03
392.549	14.01
392.756	13.89
392.964	13.83
393.171	13.79
393.378	13.73
393.586	13.57
393.793	13.59
394	13.49
394.207	13.57
394.414	13.56
394.622	13.62
394.829	13.55
395.036	13.62
395.243	13.64
395.45	13.77
395.657	13.78
395.864	13.83
396.072	13.92
396.279	13.99
396.486	13.92
396.693	13.88
396.9	13.89
397.107	13.88
397.314	13.86
397.521	13.86
397.728	13.74
397.935	13.74
398.142	13.72
398.349	13.63
398.556	13.65
398.763	13.68
398.97	13.68
399.177	13.69
399.383	13.77
399.59	13.78
399.797	13.73
400.004	13.73
400.211	13.78
400.418	13.76
400.625	13.8
400.831	13.71
401.038	13.66
401.245	13.6
401.452	13.55
401.658	13.54
401.865	13.59
402.072	13.62
402.279	13.65
402.485	13.62
402.692	13.69
402.899	13.65
403.105	13.8
403.312	13.85
403.519	13.81
403.725	13.88
403.932	13.91
404.138	13.84
404.345	13.84
404.552	13.84
404.758	13.87
404.965	13.89
405.171	13.88
405.378	13.73
405.584	13.81
405.791	13.88
405.997	13.86
406.204	13.84
406.41	13.85
406.617	13.89
406.823	13.87
407.029	13.82
407.236	13.82
407.442	13.81
407.649	14.03
407.855	14.05
408.061	14.1
408.268	14.06
408.474	14.05
408.68	14.14
408.887	14.09
409.093	14.1
409.299	14.08
409.505	14
409.712	14
409.918	13.88
410.124	13.75
410.33	13.73
410.537	13.75
410.743	13.76
410.949	13.74
411.155	13.84
411.361	13.88
411.567	13.84
411.773	13.79
411.98	13.86
412.186	13.79
412.392	13.8
412.598	13.68
412.804	13.69
413.01	13.65
413.216	13.57
413.422	13.54
413.628	13.5
413.834	13.59
414.04	13.68
414.246	13.73
414.452	13.75
414.658	13.77
414.864	13.84
415.07	13.82
415.275	13.84
415.481	13.86
415.687	13.73
415.893	13.74
416.099	13.72
416.305	13.66
416.511	13.64
416.716	13.64
416.922	13.67
417.128	13.65
417.334	13.66
417.539	13.65
417.745	13.65
417.951	13.69
418.157	13.72
418.362	13.74
418.568	13.77
418.774	13.75
418.979	13.76
419.185	13.73
419.391	13.75
419.596	13.72
419.802	13.71
420.008	13.69
420.213	14.06
420.419	14.01
420.624	13.97
420.83	13.97
421.035	13.96
421.241	13.96
421.446	14.02
421.652	14.04
421.857	14.02
422.063	14
422.268	14.01
422.474	13.69
422.679	13.7
422.885	13.74
423.09	13.73
423.295	13.74
423.501	13.73
423.706	13.66
423.911	13.63
424.117	13.64
424.322	13.66
424.527	13.69
424.733	13.66
424.938	13.68
425.143	13.67
425.349	13.67
425.554	13.68
425.759	13.68
425.964	13.71
426.169	13.75
426.375	13.78
426.58	13.76
426.785	13.72
426.99	13.72
427.195	13.71
427.4	13.69
427.605	13.7
427.811	13.74
428.016	13.78
428.221	13.75
428.426	13.75
428.631	13.73
428.836	13.74
429.041	13.72
429.246	13.74
429.451	13.77
429.656	13.76
429.861	13.77
430.066	13.76
430.271	13.7
430.476	13.73
430.681	13.67
430.886	13.66
431.09	13.69
431.295	13.69
431.5	13.65
431.705	13.69
431.91	13.64
432.115	13.59
432.32	13.56
432.524	13.59
432.729	13.55
432.934	13.56
433.139	13.62
433.343	13.67
433.548	13.7
433.753	13.75
433.958	13.69
434.162	13.72
434.367	13.73
434.572	13.73
434.776	13.71
434.981	13.75
435.186	13.73
435.39	13.66
435.595	13.63
435.799	13.6
436.004	13.57
436.209	13.56
436.413	13.6
436.618	13.64
436.822	13.66
437.027	13.67
437.231	13.66
437.436	13.69
437.64	13.71
437.845	13.71
438.049	13.74
438.253	13.72
438.458	13.74
438.662	13.75
438.867	13.75
439.071	13.77
439.275	13.77
439.48	13.79
439.684	13.79
439.888	13.79
440.093	13.78
440.297	13.77
440.501	13.77
440.706	13.76
440.91	13.74
441.114	13.69
441.318	13.67
441.523	13.68
441.727	13.67
441.931	13.69
442.135	13.69
442.339	13.65
442.543	13.63
442.748	13.62
442.952	13.59
443.156	13.57
443.36	13.6
443.564	13.59
443.768	13.6
443.972	13.53
444.176	13.51
444.38	13.49
444.584	13.52
444.788	13.53
444.992	13.55
445.196	13.56
445.4	13.57
445.604	13.56
445.808	13.52
446.012	13.48
446.216	13.49
446.42	13.45
446.624	13.46
446.828	13.42
447.032	13.41
447.235	13.41
447.439	13.41
447.643	13.44
447.847	13.46
448.051	13.49
448.254	13.53
448.458	13.54
448.662	13.63
448.866	13.61
449.069	13.66
449.273	13.7
449.477	13.69
449.681	13.67
449.884	13.69
450.088	13.67
450.292	13.67
450.495	13.64
450.699	13.66
450.902	13.62
451.106	13.66
451.31	13.62
451.513	13.63
451.717	13.59
451.92	13.57
452.124	13.46
452.327	13.48
452.531	13.5
452.734	13.5
452.938	13.54
453.141	13.52
453.345	13.52
453.548	13.54
453.752	13.49
453.955	13.49
454.158	13.53
454.362	13.58
454.565	13.53
454.769	13.52
454.972	13.49
455.175	13.43
455.379	13.44
455.582	13.42
455.785	13.38
455.988	13.4
456.192	13.39
456.395	13.3
456.598	13.34
456.801	13.34
457.005	13.32
457.208	13.32
457.411	13.32
457.614	13.29
457.817	13.29
458.021	13.31
458.224	13.34
458.427	13.38
458.63	13.46
458.833	13.42
459.036	13.44
459.239	13.43
459.442	13.45
459.645	13.47
459.848	13.5
460.051	13.49
460.254	13.52
460.457	13.5
460.66	13.54
460.863	13.55
461.066	13.58
461.269	13.62
461.472	13.67
461.675	13.7
461.878	13.75
462.081	13.72
