Data from JASIL_3202_Reflection_01.txt Node
Date: Fri Nov 13 14:27:21 EST 2015
User: Geneva
Spectrometer: USB4E03002
Autoset integration time: false
Trigger mode: 4
Integration Time (sec): 1.000000E-1
Scans to average: 10
Electric dark correction enabled: false
Nonlinearity correction enabled: false
Boxcar width: 5
Stray light correction enabled: false
XAxis mode: Wavelengths
Stop averaging: false
Number of Pixels in Spectrum: 3648
>>>>>Begin Spectral Data<<<<<
177.575	49.5
177.794	56.41
178.014	62.58
178.233	65.62
178.452	70.31
178.672	74.17
178.891	79.18
179.11	88.76
179.33	96.78
179.549	93.16
179.768	92.42
179.987	89.25
180.207	88.17
180.426	86.34
180.645	88.51
180.864	88.82
181.084	83.43
181.303	84.16
181.522	80.08
181.741	74.92
181.96	80.38
182.179	80.73
182.398	85.44
182.618	82.52
182.837	84.45
183.056	85.36
183.275	82
183.494	84.94
183.713	83.57
183.932	86.05
184.151	92.17
184.37	92.16
184.589	92.2
184.808	97
185.027	106.08
185.246	99.29
185.465	93.75
185.684	99.45
185.903	92.79
186.122	93.57
186.341	87.21
186.56	84.71
186.779	81.02
186.998	82.51
187.216	80.25
187.435	76.95
187.654	80.67
187.873	81.48
188.092	77.56
188.311	79.52
188.53	81.51
188.748	77.91
188.967	76.48
189.186	76.16
189.405	79.38
189.623	80.21
189.842	80.76
190.061	76.5
190.28	76.77
190.498	77.75
190.717	84.42
190.936	80.98
191.154	88.56
191.373	87.78
191.592	93.54
191.81	85.75
192.029	80.04
192.248	80.64
192.466	83.8
192.685	84.44
192.904	84.34
193.122	80.8
193.341	81.88
193.559	82.69
193.778	87.44
193.996	82.77
194.215	91.36
194.433	93.49
194.652	90.3
194.87	90.56
195.089	88
195.307	90.59
195.526	89.12
195.744	90.69
195.963	87.94
196.181	82.08
196.399	81.59
196.618	78.86
196.836	79.43
197.055	81.86
197.273	80.77
197.491	80.73
197.71	75.68
197.928	79.69
198.146	77.78
198.365	78.34
198.583	81.43
198.801	81.56
199.019	78.2
199.238	81.58
199.456	80.21
199.674	80.63
199.892	82.84
200.111	86.06
200.329	82.1
200.547	83.26
200.765	82.05
200.983	78.18
201.202	76.88
201.42	80.02
201.638	81.4
201.856	81.93
202.074	85.07
202.292	85.64
202.51	87.09
202.728	82.98
202.946	83.1
203.165	84.38
203.383	86.74
203.601	91.06
203.819	87.81
204.037	83.79
204.255	83.06
204.473	83.71
204.691	83.66
204.909	82.89
205.127	88.1
205.345	89.91
205.562	91.9
205.78	89.12
205.998	95.7
206.216	103.73
206.434	100.31
206.652	100.56
206.87	94.97
207.088	93.18
207.306	92.82
207.523	90.59
207.741	89.17
207.959	84.09
208.177	80.55
208.395	77.42
208.612	76.23
208.83	76.73
209.048	76.52
209.266	81.65
209.483	81.68
209.701	81.14
209.919	78.89
210.136	80.25
210.354	83.99
210.572	91.21
210.79	89.75
211.007	90.24
211.225	91.83
211.442	101.68
211.66	98.17
211.878	103.41
212.095	66.29
212.313	68.6
212.53	64.72
212.748	68.22
212.966	67.35
213.183	66.16
213.401	63.56
213.618	65.33
213.836	64.7
214.053	66.64
214.271	63.6
214.488	94.93
214.705	95.25
214.923	96.87
215.14	93.72
215.358	91.49
215.575	94.01
215.793	102.08
216.01	99.21
216.227	87.49
216.445	83.59
216.662	88.94
216.879	86.45
217.097	87.19
217.314	91.73
217.531	89.96
217.749	92.12
217.966	88.85
218.183	86.78
218.4	83.02
218.618	83.22
218.835	80.69
219.052	81.49
219.269	87.01
219.487	82.82
219.704	86.16
219.921	83.85
220.138	87.32
220.355	88.93
220.572	84.58
220.79	90.24
221.007	87.61
221.224	87.98
221.441	78.66
221.658	74.45
221.875	78.07
222.092	76.24
222.309	76.3
222.526	77.8
222.743	82.63
222.96	82.48
223.177	82.45
223.394	84.5
223.611	87.33
223.828	90.34
224.045	89.77
224.262	87.82
224.479	87.8
224.696	92.06
224.913	86.84
225.13	79.03
225.347	76.09
225.564	73.24
225.781	73.43
225.997	70.56
226.214	71.55
226.431	70.55
226.648	66.43
226.865	63.47
227.082	61.36
227.298	55.84
227.515	54.19
227.732	56.8
227.949	57.33
228.165	57.79
228.382	60.88
228.599	60.33
228.816	57.84
229.032	56.02
229.249	56.09
229.466	53.89
229.682	58.58
229.899	60.41
230.116	58.93
230.332	59.75
230.549	62.04
230.765	59.15
230.982	59.04
231.199	64.02
231.415	65.76
231.632	66.52
231.848	66.61
232.065	69.64
232.281	68.62
232.498	70.28
232.714	67.93
232.931	64.57
233.147	66.22
233.364	68.19
233.58	67.85
233.797	72.23
234.013	70.56
234.23	69.95
234.446	66.66
234.662	67.78
234.879	68.34
235.095	67.44
235.312	68.56
235.528	65.53
235.744	64.59
235.961	62.33
236.177	60.17
236.393	61.35
236.61	61.36
236.826	64.22
237.042	67.04
237.258	65.09
237.475	70.95
237.691	69
237.907	69.07
238.123	66.97
238.339	70.78
238.556	72.48
238.772	70.1
238.988	71.77
239.204	68.28
239.42	67.88
239.636	68.56
239.853	65.26
240.069	65.77
240.285	65.5
240.501	62.26
240.717	58.7
240.933	53.66
241.149	51.81
241.365	49.93
241.581	52
241.797	49.97
242.013	49.13
242.229	50.07
242.445	49.96
242.661	50.79
242.877	51.73
243.093	52.78
243.309	56.55
243.525	59.33
243.741	59.6
243.957	56.41
244.173	55.3
244.388	53.47
244.604	47.93
244.82	46.6
245.036	44.65
245.252	43.37
245.468	39.01
245.683	34.73
245.899	31.97
246.115	30.89
246.331	30.19
246.547	30.5
246.762	30.5
246.978	32.47
247.194	33.04
247.409	33.66
247.625	33.54
247.841	34.91
248.057	38.8
248.272	39.58
248.488	42.42
248.703	45.44
248.919	46.54
249.135	46.72
249.35	49.44
249.566	50.86
249.782	50.09
249.997	52.46
250.213	53.66
250.428	52.93
250.644	55.81
250.859	53.88
251.075	50.24
251.29	49.89
251.506	50.8
251.721	48.91
251.937	46.78
252.152	47.46
252.368	47.93
252.583	50.27
252.798	52.3
253.014	51.14
253.229	50.82
253.445	54.9
253.66	54.58
253.875	56.57
254.091	59.85
254.306	62.39
254.521	65
254.737	63.03
254.952	60.44
255.167	59.22
255.383	60.74
255.598	62.38
255.813	61.49
256.028	63.15
256.244	61.6
256.459	56.8
256.674	57.25
256.889	52.82
257.104	50.14
257.32	49.63
257.535	44.74
257.75	41.4
257.965	39.56
258.18	37.44
258.395	35.97
258.61	33.56
258.826	34.08
259.041	31.85
259.256	29.87
259.471	30.51
259.686	30.51
259.901	32.36
260.116	32.99
260.331	33.05
260.546	33.38
260.761	32.92
260.976	35.61
261.191	35.41
261.406	37.72
261.621	40.42
261.836	41.8
262.05	41.34
262.265	41.72
262.48	42.4
262.695	43.76
262.91	45.76
263.125	49.09
263.34	49.11
263.555	48.17
263.769	45.89
263.984	47.25
264.199	46.12
264.414	47.56
264.629	46.2
264.843	45.86
265.058	46.17
265.273	45.12
265.488	42.77
265.702	41.5
265.917	42.74
266.132	46.38
266.346	47.29
266.561	47.73
266.776	45.68
266.99	46.3
267.205	45.82
267.42	44.21
267.634	41.98
267.849	42.76
268.063	42.16
268.278	41.57
268.492	38.63
268.707	36.5
268.922	37.32
269.136	39.19
269.351	39.03
269.565	39.1
269.78	38.46
269.994	41.42
270.209	38.98
270.423	38.03
270.637	36.72
270.852	35.04
271.066	35.92
271.281	35.09
271.495	34.21
271.709	33.41
271.924	33.48
272.138	35.03
272.353	33.56
272.567	36.3
272.781	36.63
272.996	38.21
273.21	39.26
273.424	39.64
273.638	39.14
273.853	38.94
274.067	39.94
274.281	40.42
274.495	40.17
274.71	40.51
274.924	39.16
275.138	41.25
275.352	42.07
275.566	42.13
275.781	39.12
275.995	38.12
276.209	38.88
276.423	36.6
276.637	35.3
276.851	35.59
277.065	35.25
277.279	35.04
277.493	32.38
277.707	32.22
277.921	31.51
278.135	33.26
278.349	35.55
278.563	33.41
278.777	37.36
278.991	37.34
279.205	38.29
279.419	38.13
279.633	36.47
279.847	37.82
280.061	35.01
280.275	35.18
280.489	35.81
280.703	35.03
280.917	37.36
281.131	34.46
281.344	35.15
281.558	33.22
281.772	33.47
281.986	33.49
282.2	32.7
282.414	32.37
282.627	31.96
282.841	32.46
283.055	31.25
283.269	29.04
283.482	29.41
283.696	27.66
283.91	29
284.123	27.65
284.337	28.4
284.551	27.4
284.764	29.38
284.978	29.27
285.192	28.21
285.405	28.37
285.619	28.58
285.833	30.05
286.046	30.36
286.26	29.63
286.473	29.61
286.687	30.25
286.9	30.54
287.114	30.39
287.327	29.26
287.541	29.98
287.754	29.41
287.968	31.75
288.181	29.9
288.395	29.61
288.608	29.61
288.822	32.01
289.035	31.46
289.248	31.72
289.462	32.07
289.675	33.72
289.889	33.98
290.102	35.94
290.315	33.66
290.529	35.21
290.742	35.69
290.955	36.3
291.169	34.79
291.382	34.39
291.595	34.73
291.808	34.4
292.022	35.26
292.235	33.13
292.448	31.84
292.661	32.12
292.875	31.05
293.088	32.58
293.301	31.52
293.514	30.86
293.727	32.11
293.94	32.53
294.153	31.79
294.367	29.97
294.58	31.43
294.793	30.94
295.006	30.78
295.219	30.91
295.432	28.53
295.645	28.87
295.858	28.14
296.071	26.33
296.284	25
296.497	24.69
296.71	23.6
296.923	23.55
297.136	24.18
297.349	25.3
297.562	24.87
297.775	25.34
297.988	23.95
298.201	24.52
298.414	24.11
298.626	24.94
298.839	24.06
299.052	25.49
299.265	26.19
299.478	26.72
299.691	24.1
299.903	24.06
300.116	24.27
300.329	26.65
300.542	26.47
300.755	27.6
300.967	28.54
301.18	31.4
301.393	31.46
301.605	29.29
301.818	28.34
302.031	28.75
302.243	29.23
302.456	30.81
302.669	30.2
302.881	31.57
303.094	32.55
303.307	33.46
303.519	32.79
303.732	33.82
303.944	35.33
304.157	36.13
304.37	36.57
304.582	37.92
304.795	37.55
305.007	37.47
305.22	37.2
305.432	35.63
305.645	33.31
305.857	33.12
306.069	32.91
306.282	32.7
306.494	31.79
306.707	32.37
306.919	31.08
307.132	29.42
307.344	28.5
307.556	28.32
307.769	29.58
307.981	30.39
308.193	29.19
308.406	27.49
308.618	27.4
308.83	26.89
309.043	27.5
309.255	27.62
309.467	28.1
309.679	28.55
309.892	28.97
310.104	29.74
310.316	30.14
310.528	30.45
310.74	31.52
310.953	32.31
311.165	32.55
311.377	30.83
311.589	29.96
311.801	29.46
312.013	32.45
312.225	31.32
312.437	32.09
312.649	31.62
312.862	31.61
313.074	32.82
313.286	31.02
313.498	32.25
313.71	34.93
313.922	35.36
314.134	37.1
314.346	35.57
314.558	38.39
314.77	37.34
314.982	37.23
315.193	38.42
315.405	37.04
315.617	38.37
315.829	38.17
316.041	38.08
316.253	37.98
316.465	38.69
316.677	38.04
316.888	37.51
317.1	36.53
317.312	36.87
317.524	35.78
317.736	37.01
317.947	38.53
318.159	38.25
318.371	36.49
318.583	37.69
318.794	36.31
319.006	35.61
319.218	34.6
319.43	35.69
319.641	37.5
319.853	38.2
320.064	37.23
320.276	35.55
320.488	36.17
320.699	36.75
320.911	35.8
321.123	38.89
321.334	40.04
321.546	39.33
321.757	39.55
321.969	37.37
322.18	36.98
322.392	36.44
322.603	37.03
322.815	37.87
323.026	39.07
323.238	38.61
323.449	35.53
323.661	35.14
323.872	34.67
324.083	33.88
324.295	34.13
324.506	33.06
324.718	33.94
324.929	32.44
325.14	30.97
325.352	28.72
325.563	29.17
325.774	31
325.986	31.68
326.197	32.37
326.408	32.84
326.62	34.39
326.831	34.38
327.042	33.42
327.253	34.42
327.464	34.63
327.676	35.78
327.887	35.71
328.098	34.7
328.309	32.7
328.52	34.28
328.732	34.15
328.943	34.05
329.154	36.56
329.365	38.12
329.576	38.23
329.787	39.8
329.998	41.8
330.209	41.98
330.42	41.92
330.631	44.01
330.842	43.57
331.053	43.67
331.264	42.02
331.475	41.19
331.686	40.78
331.897	39.25
332.108	37.69
332.319	37.36
332.53	37.04
332.741	37.63
332.952	37.43
333.163	35.48
333.374	34.16
333.585	35.13
333.795	35.61
334.006	34.76
334.217	35.64
334.428	36.82
334.639	36.29
334.849	35.78
335.06	35.74
335.271	35.25
335.482	36.96
335.692	37.45
335.903	37.72
336.114	36.84
336.325	38.14
336.535	39.56
336.746	38.44
336.957	37.68
337.167	38.94
337.378	37.88
337.589	38.84
337.799	38.13
338.01	38.51
338.22	39.07
338.431	38.72
338.642	37.51
338.852	38.05
339.063	38.8
339.273	40.94
339.484	40.59
339.694	41.98
339.905	40.33
340.115	39.85
340.326	40.48
340.536	39.17
340.746	38.27
340.957	38.27
341.167	37.7
341.378	36.55
341.588	34.88
341.799	35.87
342.009	35.13
342.219	35.27
342.43	37.14
342.64	36.81
342.85	37.13
343.061	38.46
343.271	38.75
343.481	36.95
343.691	35.77
343.902	34.58
344.112	32.92
344.322	32.12
344.532	32.14
344.743	31.71
344.953	31.72
345.163	31.23
345.373	30.54
345.583	30.16
345.793	31.06
346.004	33.93
346.214	33.51
346.424	34.52
346.634	36.24
346.844	37.07
347.054	36.55
347.264	37.88
347.474	36.58
347.684	36.94
347.894	36.9
348.104	36.46
348.314	34.58
348.524	34.72
348.734	35.4
348.944	34.09
349.154	32.72
349.364	31.43
349.574	28.91
349.784	31.13
349.994	31.82
350.204	33.09
350.413	33.06
350.623	33.76
350.833	33.39
351.043	31.71
351.253	32.21
351.463	32.97
351.672	34.2
351.882	35.93
352.092	34.34
352.302	33.88
352.511	32.9
352.721	32.26
352.931	32.4
353.141	32.81
353.35	32.62
353.56	31.78
353.77	32.37
353.979	31.7
354.189	30.93
354.399	32.03
354.608	32.27
354.818	33.07
355.027	33.75
355.237	33.75
355.447	34.46
355.656	34.11
355.866	33.79
356.075	32.68
356.285	33
356.494	33.55
356.704	33.88
356.913	33.64
357.123	32.73
357.332	31.68
357.542	32.02
357.751	32.06
357.96	32.61
358.17	33.56
358.379	34.32
358.589	34.26
358.798	33.42
359.007	32.9
359.217	33.16
359.426	32.71
359.635	32.97
359.845	32.17
360.054	30.6
360.263	30.28
360.472	29.88
360.682	29.88
360.891	29.38
361.1	28.95
361.309	28.28
361.519	27.39
361.728	27.43
361.937	27.54
362.146	27.93
362.355	29.47
362.564	29.86
362.774	29.26
362.983	28.11
363.192	28.19
363.401	29.59
363.61	30.36
363.819	31.15
364.028	31.64
364.237	32.45
364.446	31.35
364.655	30.92
364.864	31.9
365.073	32.93
365.282	33.38
365.491	33.1
365.7	31.51
365.909	31.44
366.118	31.29
366.327	31.08
366.536	30.87
366.745	31.6
366.954	31.7
367.162	31.66
367.371	31.16
367.58	31.5
367.789	31.94
367.998	33.9
368.207	34.42
368.415	35.34
368.624	34.64
368.833	33.68
369.042	33.77
369.25	34.62
369.459	33.82
369.668	32.99
369.877	33.32
370.085	32.78
370.294	31.46
370.503	30.53
370.711	30.05
370.92	30.12
371.129	31.87
371.337	31.22
371.546	30.53
371.754	30.55
371.963	30.66
372.171	29.6
372.38	29.8
372.589	29.17
372.797	29.05
373.006	29.2
373.214	29.06
373.423	28.33
373.631	29.68
373.84	28.73
374.048	27.98
374.256	28.39
374.465	30.63
374.673	30.44
374.882	31.79
375.09	31.02
375.298	30.55
375.507	31.88
375.715	32.2
375.923	30.11
376.132	31.05
376.34	31.82
376.548	32.38
376.757	30.03
376.965	30.58
377.173	29.79
377.381	30.79
377.59	30.98
377.798	30.18
378.006	29
378.214	29.95
378.423	29.44
378.631	28.24
378.839	27.47
379.047	28.36
379.255	28.28
379.463	27.73
379.671	28.19
379.879	27.48
380.088	27.42
380.296	27.87
380.504	28.79
380.712	28.74
380.92	29.56
381.128	29.75
381.336	30.34
381.544	30.17
381.752	31.19
381.96	30.4
382.168	32.14
382.376	32.48
382.584	32.01
382.791	30.83
382.999	29.98
383.207	29.75
383.415	29.48
383.623	29.39
383.831	30.08
384.039	29.67
384.247	29.36
384.454	28.43
384.662	27.6
384.87	27.54
385.078	27.65
385.285	28.48
385.493	27.93
385.701	28.6
385.909	28.35
386.116	28.06
386.324	28.38
386.532	28.96
386.739	28.4
386.947	28.39
387.155	28.85
387.362	29.42
387.57	29.04
387.778	29.14
387.985	27.77
388.193	27.63
388.4	27.23
388.608	27.19
388.816	26.74
389.023	25.93
389.231	26.43
389.438	26.06
389.646	25.94
389.853	26.27
390.061	26.65
390.268	26.99
390.475	26.62
390.683	27.72
390.89	27.21
391.098	27.87
391.305	29
391.512	29.76
391.72	29.69
391.927	29.55
392.135	28.7
392.342	28.14
392.549	29.12
392.756	29.05
392.964	28.08
393.171	28.7
393.378	28.39
393.586	27.78
393.793	27.26
394	27.28
394.207	27.74
394.414	29.64
394.622	30.27
394.829	29.6
395.036	29.28
395.243	29.41
395.45	29.8
395.657	29.12
395.864	29.39
396.072	29.99
396.279	30.22
396.486	30.13
396.693	29.75
396.9	28.83
397.107	27.55
397.314	28.72
397.521	28.76
397.728	27.19
397.935	27.37
398.142	27.68
398.349	27.78
398.556	28.21
398.763	28.5
398.97	27.79
399.177	28.97
399.383	29.56
399.59	28.73
399.797	29.12
400.004	29.45
400.211	29.41
400.418	29.09
400.625	28.42
400.831	28.64
401.038	28.23
401.245	28.92
401.452	28.65
401.658	29.13
401.865	28.53
402.072	28.69
402.279	29.67
402.485	29.62
402.692	29.95
402.899	30.1
403.105	29.18
403.312	30.04
403.519	29.23
403.725	29.07
403.932	29.45
404.138	30
404.345	29.46
404.552	29.29
404.758	29.41
404.965	29.18
405.171	28.74
405.378	29.13
405.584	28.07
405.791	28.04
405.997	28.35
406.204	28.57
406.41	28.97
406.617	29.17
406.823	28.68
407.029	29.17
407.236	28.03
407.442	28.95
407.649	29.22
407.855	29.32
408.061	28.91
408.268	28.47
408.474	29.63
408.68	29.71
408.887	29.18
409.093	29.59
409.299	29.94
409.505	31.35
409.712	30.86
409.918	30.69
410.124	31.44
410.33	31.61
410.537	31.2
410.743	30.4
410.949	30.31
411.155	30.63
411.361	30.19
411.567	29.33
411.773	28.99
411.98	28.96
412.186	29.11
412.392	29.18
412.598	29.63
412.804	30.77
413.01	29.92
413.216	30.04
413.422	30.24
413.628	29.81
413.834	30.06
414.04	30.72
414.246	31.11
414.452	30.17
414.658	29.52
414.864	29.05
415.07	29.21
415.275	30.02
415.481	29.49
415.687	29.51
415.893	29.94
416.099	29.79
416.305	28.9
416.511	28.43
416.716	28.47
416.922	28.11
417.128	28.15
417.334	27.87
417.539	27.3
417.745	27.33
417.951	26.56
418.157	26.25
418.362	26
418.568	26.03
418.774	25.54
418.979	25.45
419.185	25.5
419.391	25.61
419.596	25.4
419.802	25.63
420.008	25.31
420.213	26.03
420.419	26.11
420.624	26.49
420.83	26.5
421.035	26.84
421.241	27.14
421.446	27.15
421.652	26.95
421.857	26.86
422.063	26.87
422.268	26.98
422.474	26.26
422.679	25.96
422.885	25.67
423.09	25.48
423.295	25.21
423.501	25.17
423.706	25.27
423.911	24.71
424.117	24.25
424.322	24.31
424.527	24.77
424.733	25.42
424.938	25.45
425.143	25.48
425.349	25.81
425.554	25.92
425.759	26.62
425.964	26.81
426.169	27.79
426.375	28.74
426.58	28.59
426.785	28.29
426.99	28.35
427.195	28.51
427.4	28.64
427.605	28.41
427.811	28.89
428.016	28.17
428.221	28.23
428.426	27.94
428.631	27.57
428.836	27.96
429.041	27.68
429.246	27.39
429.451	27.85
429.656	28
429.861	28.4
430.066	28.8
430.271	29
430.476	28.79
430.681	29.41
430.886	29.19
431.09	28.65
431.295	29.14
431.5	29.03
431.705	29.13
431.91	28.42
432.115	28.15
432.32	27.3
432.524	27.02
432.729	26.9
432.934	26.59
433.139	26.64
433.343	26.48
433.548	25.9
433.753	25.82
433.958	25.73
434.162	26.42
434.367	26.4
434.572	26.71
434.776	26.43
434.981	26.28
435.186	25.75
435.39	26.25
435.595	26.8
435.799	27.45
436.004	27.68
436.209	27.89
436.413	27.34
436.618	27.38
436.822	27.26
437.027	27.36
437.231	27.75
437.436	27.54
437.64	26.69
437.845	26.34
438.049	26.26
438.253	26.31
438.458	26.56
438.662	26.85
438.867	26.66
439.071	26.78
439.275	26.65
439.48	26.17
439.684	26.42
439.888	27.09
440.093	26.72
440.297	26.17
440.501	25.87
440.706	25.48
440.91	25.51
441.114	25.36
441.318	25.19
441.523	25.59
441.727	25.79
441.931	25.89
442.135	25.08
442.339	25.69
442.543	26.46
442.748	26.56
442.952	26.6
443.156	26.14
443.36	26.79
443.564	26.66
443.768	26.62
443.972	26.96
444.176	26.97
444.38	27.73
444.584	27.57
444.788	27.03
444.992	27.18
445.196	26.88
445.4	27.22
445.604	26.72
445.808	26.92
446.012	26.86
446.216	26.15
446.42	26.1
446.624	25.87
446.828	25.93
447.032	26.51
447.235	26.28
447.439	25.84
447.643	25.67
447.847	26.09
448.051	26.07
448.254	26.17
448.458	27.04
448.662	26.95
448.866	26.4
449.069	26.29
449.273	25.67
449.477	26.03
449.681	26.79
449.884	27.35
450.088	27.1
450.292	26.59
450.495	26.25
450.699	25.89
450.902	25.79
451.106	26.69
451.31	26.94
451.513	27.35
451.717	26.84
451.92	26.58
452.124	25.92
452.327	26.12
452.531	26.34
452.734	26.98
452.938	26.82
453.141	27.79
453.345	27.36
453.548	26.97
453.752	26.76
453.955	27.47
454.158	28.28
454.362	28.82
454.565	28.78
454.769	29.46
454.972	29.13
455.175	29.31
455.379	28.68
455.582	28.9
455.785	28.61
455.988	28.72
456.192	28.59
456.395	27.76
456.598	28
456.801	27.98
457.005	27.79
