Data from JASIL_3239_Reflection_1.txt Node
Date: Mon Nov 16 20:25:02 EST 2015
User: Geneva
Spectrometer: USB4E03002
Autoset integration time: false
Trigger mode: 4
Integration Time (sec): 1.000000E-1
Scans to average: 10
Electric dark correction enabled: false
Nonlinearity correction enabled: false
Boxcar width: 5
Stray light correction enabled: false
XAxis mode: Wavelengths
Stop averaging: false
Number of Pixels in Spectrum: 3648
>>>>>Begin Spectral Data<<<<<
177.575	-24.79
177.794	-84.29
178.014	-85.54
178.233	-123.36
178.452	-220.48
178.672	-130.3
178.891	-139.62
179.11	329.73
179.33	87.5
179.549	-645.45
179.768	152.54
179.987	125.81
180.207	102.58
180.426	60.98
180.645	53.29
180.864	-17.53
181.084	42.16
181.303	31.02
181.522	96.82
181.741	395.77
181.96	112.54
182.179	105.2
182.398	125.33
182.618	88.14
182.837	114.71
183.056	51.98
183.275	77.96
183.494	76.74
183.713	107.9
183.932	68.79
184.151	23.85
184.37	-27.02
184.589	14.55
184.808	29.51
185.027	10.27
185.246	25.3
185.465	66.99
185.684	47.66
185.903	-144.83
186.122	-65.47
186.341	-71.91
186.56	25
186.779	89.12
186.998	33.85
187.216	74.8
187.435	82.04
187.654	-55.68
187.873	-9.67
188.092	-3.17
188.311	27.08
188.53	21.31
188.748	0.31
188.967	-16
189.186	8.05
189.405	11.69
189.623	-18.98
189.842	41.15
190.061	24.88
190.28	98.72
190.498	41.25
190.717	122.22
190.936	-110.17
191.154	-87.5
191.373	-2616.67
191.592	-481.82
191.81	-16.09
192.029	47.33
192.248	58.56
192.466	27.78
192.685	-2.62
192.904	-35.9
193.122	11.73
193.341	-44.86
193.559	3.05
193.778	26.67
193.996	-27.48
194.215	3225
194.433	-595.24
194.652	138.92
194.87	123.38
195.089	-0.44
195.307	-15.79
195.526	-330.51
195.744	-128.07
195.963	-40.66
196.181	-2212.5
196.399	238.46
196.618	-2115
196.836	-9600
197.055	397.54
197.273	746.55
197.491	382.22
197.71	535.29
197.928	-197.5
198.146	-597.62
198.365	2100
198.583	1.3
198.801	-2.92
199.019	259.74
199.238	-290.48
199.456	181.13
199.674	38.98
199.892	50.6
200.111	30.38
200.329	21.13
200.547	51.27
200.765	68.32
200.983	38.55
201.202	16.67
201.42	-23.62
201.638	49.76
201.856	6.82
202.074	104.13
202.292	69.7
202.51	32.65
202.728	97.94
202.946	-95
203.165	445.45
203.383	-151.55
203.601	-329.07
203.819	656
204.037	1900
204.255	374.23
204.473	111.68
204.691	140
204.909	173.88
205.127	150.7
205.345	85.23
205.562	11.39
205.78	20.13
205.998	-11.02
206.216	26.43
206.434	61.82
206.652	65.15
206.87	68.1
207.088	68.5
207.306	52.9
207.523	67.93
207.741	78.73
207.959	80.33
208.177	61.09
208.395	60.14
208.612	35.75
208.83	46.53
209.048	26.78
209.266	69.76
209.483	67.76
209.701	96.84
209.919	123.59
210.136	138.15
210.354	307
210.572	376.47
210.79	579.26
211.007	365.94
211.225	411.63
211.442	-2304.76
211.66	-406.94
211.878	-49.31
212.095	116
212.313	109.64
212.53	133.43
212.748	90.36
212.966	86.2
213.183	90.17
213.401	92.36
213.618	92.71
213.836	105.71
214.053	97.7
214.271	114.42
214.488	267.23
214.705	104.13
214.923	93.55
215.14	88.26
215.358	52.31
215.575	92.45
215.793	110.05
216.01	228.83
216.227	90.85
216.445	79.63
216.662	87.48
216.879	56.54
217.097	64.23
217.314	32.65
217.531	8.22
217.749	7.69
217.966	-94.33
218.183	-45.45
218.4	-68.73
218.618	-95.28
218.835	-64.88
219.052	7.71
219.269	33.92
219.487	67.01
219.704	96.52
219.921	79.8
220.138	75.23
220.355	97.95
220.572	97.71
220.79	90.82
221.007	112
221.224	115.2
221.441	73.62
221.658	81.54
221.875	64.32
222.092	31.83
222.309	48.91
222.526	-25.4
222.743	-24.49
222.96	-92.45
223.177	-29.09
223.394	-56.54
223.611	-30.93
223.828	-18.51
224.045	-59.59
224.262	-112.93
224.479	-63.18
224.696	-31.31
224.913	-36.42
225.13	-23.28
225.347	-13.41
225.564	-10.34
225.781	0.29
225.997	4.7
226.214	-8.88
226.431	0.93
226.648	-2.8
226.865	0.04
227.082	-1.96
227.298	-2.28
227.515	-3.93
227.732	-5.3
227.949	-6.49
228.165	-7.28
228.382	-6.97
228.599	-6.13
228.816	-7.03
229.032	-4.41
229.249	-5.23
229.466	-5.04
229.682	-5.36
229.899	-7.3
230.116	-6.21
230.332	-2.47
230.549	6.13
230.765	4.44
230.982	9.26
231.199	13.28
231.415	16.14
231.632	15.63
231.848	22.03
232.065	27.04
232.281	26.71
232.498	32.09
232.714	33.86
232.931	20.6
233.147	23.29
233.364	16.28
233.58	4.09
233.797	11.45
234.013	8.32
234.23	2.47
234.446	1.09
234.662	2.86
234.879	2.66
235.095	-3.14
235.312	4.76
235.528	2.67
235.744	9.3
235.961	20.69
236.177	14.22
236.393	18.96
236.61	15.85
236.826	14.96
237.042	11.29
237.258	1.71
237.475	-0.56
237.691	-5.7
237.907	-4
238.123	-7.92
238.339	-11.3
238.556	-11.27
238.772	-10.17
238.988	-8.88
239.204	-6.15
239.42	5.29
239.636	7.75
239.853	10.01
240.069	6.35
240.285	10.31
240.501	12.76
240.717	14.51
240.933	13.93
241.149	12.77
241.365	12.88
241.581	12.93
241.797	9.12
242.013	10.39
242.229	9.98
242.445	9.38
242.661	8.19
242.877	6.14
243.093	6.92
243.309	7.6
243.525	8.22
243.741	8.71
243.957	8.64
244.173	7.5
244.388	6.27
244.604	7.35
244.82	10.7
245.036	10.06
245.252	8.97
245.468	6.34
245.683	6.07
245.899	6.15
246.115	5.19
246.331	5.67
246.547	6.22
246.762	5.85
246.978	6.16
247.194	6.47
247.409	4.81
247.625	6.58
247.841	7.93
248.057	8.26
248.272	8.31
248.488	9.75
248.703	10.65
248.919	11.44
249.135	11.86
249.35	9.15
249.566	8.23
249.782	9.83
249.997	6.66
250.213	4
250.428	0.63
250.644	0.76
250.859	-0.59
251.075	-5.52
251.29	-3.43
251.506	-1.91
251.721	0
251.937	-0.07
252.152	1.54
252.368	2.01
252.583	1.52
252.798	2.38
253.014	0.94
253.229	0.69
253.445	2.7
253.66	1.75
253.875	0.3
254.091	2.66
254.306	1.58
254.521	0.85
254.737	1.1
254.952	9.6
255.167	11.02
255.383	11.21
255.598	11.39
255.813	12.31
256.028	11.02
256.244	13.83
256.459	10.16
256.674	11.31
256.889	8.5
257.104	8.75
257.32	5.37
257.535	3.38
257.75	4.91
257.965	5.87
258.18	6.01
258.395	4.97
258.61	3.88
258.826	4.19
259.041	4.64
259.256	5.55
259.471	5.08
259.686	4.74
259.901	5.51
260.116	5.41
260.331	5.01
260.546	4.46
260.761	5.81
260.976	6.34
261.191	7.05
261.406	8.06
261.621	8.49
261.836	10.5
262.05	11.27
262.265	11.5
262.48	10.81
262.695	10.4
262.91	9.68
263.125	8.42
263.34	7.24
263.555	6.59
263.769	4.98
263.984	4.55
264.199	3.36
264.414	2.95
264.629	2.59
264.843	2.2
265.058	2.3
265.273	2.97
265.488	3.33
265.702	4.74
265.917	6.15
266.132	3.76
266.346	4.04
266.561	3.28
266.776	2.54
266.99	2.91
267.205	3.79
267.42	4.29
267.634	6.42
267.849	6.42
268.063	7.81
268.278	7.25
268.492	9.94
268.707	10.08
268.922	10.2
269.136	9.94
269.351	8.23
269.565	7.02
269.78	5.85
269.994	6.1
270.209	4.93
270.423	2.86
270.637	2.25
270.852	-0.14
271.066	-0.26
271.281	2.66
271.495	2.8
271.709	3.62
271.924	4.88
272.138	6.55
272.353	6.02
272.567	6.04
272.781	5.65
272.996	5.62
273.21	6.77
273.424	6.63
273.638	5.35
273.853	6.97
274.067	6.99
274.281	6.74
274.495	5.53
274.71	4.2
274.924	3.26
275.138	3.66
275.352	3.25
275.566	2.93
275.781	1.45
275.995	0.26
276.209	-0.67
276.423	2.1
276.637	1.92
276.851	4.19
277.065	5.18
277.279	7.38
277.493	6.83
277.707	5.91
277.921	5.15
278.135	4.49
278.349	4
278.563	3.94
278.777	2.41
278.991	2.13
279.205	1.56
279.419	0.04
279.633	0.13
279.847	1.59
280.061	2.73
280.275	4.18
280.489	6.12
280.703	5.93
280.917	6.15
281.131	5.08
281.344	6.71
281.558	7.32
281.772	6.89
281.986	6.8
282.2	6.31
282.414	5.91
282.627	6.12
282.841	4.1
283.055	5.88
283.269	6.58
283.482	6.6
283.696	5.87
283.91	4.73
284.123	5.62
284.337	5.7
284.551	5.8
284.764	5.72
284.978	5.01
285.192	6.45
285.405	5.85
285.619	4.29
285.833	5.41
286.046	5.01
286.26	4.81
286.473	4.65
286.687	3.98
286.9	4.46
287.114	5.11
287.327	6.3
287.541	5.58
287.754	4.69
287.968	5.42
288.181	4.9
288.395	4.8
288.608	5.7
288.822	6.6
289.035	6.58
289.248	5.85
289.462	5.87
289.675	5.64
289.889	6.62
290.102	6.32
290.315	7.44
290.529	6.47
290.742	6.32
290.955	6.07
291.169	6.46
291.382	7.16
291.595	8.7
291.808	8.25
292.022	7.83
292.235	7.38
292.448	7.4
292.661	6.01
292.875	8.45
293.088	8.44
293.301	7.06
293.514	4.75
293.727	4.57
293.94	3.16
294.153	4.08
294.367	4.75
294.58	3.86
294.793	4.57
295.006	5.3
295.219	4.18
295.432	5.09
295.645	4.96
295.858	6.14
296.071	6.48
296.284	6.87
296.497	5.68
296.71	5.87
296.923	7.28
297.136	6.7
297.349	5.86
297.562	6.29
297.775	6.03
297.988	5.99
298.201	5.95
298.414	4.91
298.626	5.26
298.839	5.56
299.052	3.45
299.265	1.64
299.478	2.17
299.691	3.02
299.903	2.75
300.116	2.73
300.329	3.14
300.542	1.93
300.755	2.33
300.967	2.23
301.18	2.54
301.393	5.29
301.605	6.41
301.818	5.41
302.031	6.45
302.243	6.82
302.456	6.95
302.669	8.67
302.881	9.75
303.094	9.15
303.307	7.74
303.519	8.6
303.732	7.83
303.944	7.7
304.157	7.99
304.37	7
304.582	7.17
304.795	6.7
305.007	4.78
305.22	4.01
305.432	4.66
305.645	5.63
305.857	5.78
306.069	4.95
306.282	5
306.494	4.15
306.707	4.34
306.919	2.83
307.132	1.84
307.344	4.2
307.556	4.86
307.769	5.51
307.981	5.72
308.193	4.07
308.406	4.61
308.618	4.91
308.83	6.15
309.043	5.36
309.255	6.92
309.467	7.24
309.679	5.43
309.892	5.63
310.104	4.83
310.316	4.43
310.528	4.96
310.74	3.48
310.953	3.37
311.165	3.68
311.377	3.69
311.589	2.65
311.801	2.81
312.013	3.21
312.225	3.59
312.437	3.9
312.649	4.18
312.862	4.47
313.074	5.44
313.286	6.92
313.498	7.03
313.71	6.74
313.922	7.11
314.134	7.53
314.346	7.81
314.558	6.85
314.77	6.21
314.982	6.59
315.193	7.1
315.405	8.42
315.617	6.69
315.829	8.13
316.041	8.62
316.253	9.43
316.465	8.58
316.677	7.75
316.888	8.38
317.1	8.18
317.312	7.7
317.524	6.63
317.736	6.73
317.947	7.92
318.159	6.11
318.371	6.34
318.583	5.62
318.794	6.79
319.006	7.16
319.218	6.31
319.43	7.02
319.641	7.33
319.853	7.25
320.064	7.01
320.276	6.06
320.488	6.31
320.699	6.15
320.911	7.15
321.123	6.49
321.334	7.29
321.546	8.26
321.757	8.54
321.969	9.35
322.18	8.27
322.392	7.82
322.603	8
322.815	7.41
323.026	6.86
323.238	7.28
323.449	8.05
323.661	8.09
323.872	8.17
324.083	8.9
324.295	7.63
324.506	8.69
324.718	7.92
324.929	7.8
325.14	8.27
325.352	10.44
325.563	10.33
325.774	9.43
325.986	8.29
326.197	7.87
326.408	7.91
326.62	9.04
326.831	8.84
327.042	9.09
327.253	9.82
327.464	10.96
327.676	10.31
327.887	9.72
328.098	9.39
328.309	10.4
328.52	11.67
328.732	11.69
328.943	11.49
329.154	12.59
329.365	13.9
329.576	14.25
329.787	13.1
329.998	12.84
330.209	11.95
330.42	13.05
330.631	14.05
330.842	12.86
331.053	13.04
331.264	13.13
331.475	12.38
331.686	11.96
331.897	10.97
332.108	11.59
332.319	11.09
332.53	11.77
332.741	11.56
332.952	11.57
333.163	11.98
333.374	10.58
333.585	9.74
333.795	10.34
334.006	9.99
334.217	10.15
334.428	9.46
334.639	8.78
334.849	7.8
335.06	9.11
335.271	8.43
335.482	9.03
335.692	8.75
335.903	10
336.114	10.09
336.325	10.17
336.535	9.56
336.746	11.39
336.957	12
337.167	12.47
337.378	12.22
337.589	11.28
337.799	10.22
338.01	11.27
338.22	10.81
338.431	10.71
338.642	9.53
338.852	9.72
339.063	8.79
339.273	9.62
339.484	11.1
339.694	10.98
339.905	12.53
340.115	12.71
340.326	13.37
340.536	13.71
340.746	14.15
340.957	15.64
341.167	15.38
341.378	14.58
341.588	12.7
341.799	12.31
342.009	11.39
342.219	11.6
342.43	11.64
342.64	11.38
342.85	9.83
343.061	10.34
343.271	9.43
343.481	9.47
343.691	9.4
343.902	11.03
344.112	9.75
344.322	9.42
344.532	8.89
344.743	9.74
344.953	9.18
345.163	10.16
345.373	9.54
345.583	10.8
345.793	11.41
346.004	12.08
346.214	12.57
346.424	12.99
346.634	12.87
346.844	12.76
347.054	12.96
347.264	12.75
347.474	14.36
347.684	13.79
347.894	12.3
348.104	12.76
348.314	12.49
348.524	11.33
348.734	11.79
348.944	12.56
349.154	12.89
349.364	12.51
349.574	12.68
349.784	11.85
349.994	12.67
350.204	13.66
350.413	12.79
350.623	13.16
350.833	13.72
351.043	12.92
351.253	13.86
351.463	13.33
351.672	12.64
351.882	13.35
352.092	12.79
352.302	12.16
352.511	11.98
352.721	12.76
352.931	11.99
353.141	11.12
353.35	10.97
353.56	11.03
353.77	12.33
353.979	13.37
354.189	12.42
354.399	11.82
354.608	12.39
354.818	11.44
355.027	10.66
355.237	10.4
355.447	11.09
355.656	11.85
355.866	11.62
356.075	10.78
356.285	10.08
356.494	10.25
356.704	10.57
356.913	10.18
357.123	11.25
357.332	11.21
357.542	11.74
357.751	11.07
357.96	11.51
358.17	10.56
358.379	10.48
358.589	10.57
358.798	10.92
359.007	10.97
359.217	10.42
359.426	10.47
359.635	10.96
359.845	9.8
360.054	10.7
360.263	10.5
360.472	10.62
360.682	11.2
360.891	11.21
361.1	10.92
361.309	10.5
361.519	11.02
361.728	11.02
361.937	10.58
362.146	10.9
362.355	10.94
362.564	10.77
362.774	10.96
362.983	10.29
363.192	10.31
363.401	10.45
363.61	10.49
363.819	11.3
364.028	11.07
364.237	11.43
364.446	11.42
364.655	11.39
364.864	11.27
365.073	11.51
365.282	11.67
365.491	11.6
365.7	12.19
365.909	12.61
366.118	11.69
366.327	12.15
366.536	12.26
366.745	13.34
366.954	13.41
367.162	13.94
367.371	13.27
367.58	13.23
367.789	13.49
367.998	13.03
368.207	12.57
368.415	12.94
368.624	12.63
368.833	12.71
369.042	11.78
369.25	11.67
369.459	10.88
369.668	11.46
369.877	11.67
370.085	11.37
370.294	10.91
370.503	10.98
370.711	10.9
370.92	10.47
371.129	10.62
371.337	10.44
371.546	9.39
371.754	9.2
371.963	8.43
372.171	8.67
372.38	8.06
372.589	9.09
372.797	9.18
373.006	9.16
373.214	10.1
373.423	9.53
373.631	10.35
373.84	11
374.048	10.54
374.256	11.77
374.465	11.28
374.673	11.99
374.882	10.78
375.09	10.6
375.298	10.69
375.507	9.48
375.715	9.07
375.923	8.18
376.132	8.34
376.34	9.34
376.548	9.52
376.757	9.74
376.965	9.69
377.173	10.78
377.381	10.99
377.59	10.49
377.798	10.97
378.006	11.96
378.214	12.62
378.423	12.53
378.631	12.27
378.839	10.79
379.047	11.06
379.255	11.01
379.463	10.25
379.671	9.94
379.879	9.44
380.088	9.54
380.296	9.07
380.504	9.5
380.712	9.43
380.92	9.62
381.128	9.88
381.336	9.51
381.544	9.01
381.752	8.71
381.96	9.45
382.168	10.33
382.376	9.49
382.584	8.79
382.791	8.18
382.999	8.39
383.207	7.87
383.415	8.55
383.623	7.92
383.831	7.73
384.039	7.62
384.247	7.57
384.454	7.84
384.662	8.43
384.87	8.3
385.078	8.28
385.285	7.72
385.493	8.27
385.701	8.27
385.909	8.3
386.116	9
386.324	9.32
386.532	9.4
386.739	9.05
386.947	9.07
387.155	10.13
387.362	10.17
387.57	10.51
387.778	10.88
387.985	10.87
388.193	11.31
388.4	10.89
388.608	10.95
388.816	10.22
389.023	10.49
389.231	10.04
389.438	9.76
389.646	9.64
389.853	9.34
390.061	8.8
390.268	8.36
390.475	8.15
390.683	7.82
390.89	7.72
391.098	7.94
391.305	8.04
391.512	7.99
391.72	7.13
391.927	7.03
392.135	7.56
392.342	7.34
392.549	7.86
392.756	8.32
392.964	9.03
393.171	9.15
393.378	9.55
393.586	9.12
393.793	9.07
394	10.27
394.207	10.45
394.414	9.98
394.622	10.19
394.829	10.34
395.036	10.14
395.243	9.59
395.45	10
395.657	10.41
395.864	10.15
396.072	10.3
396.279	9.67
396.486	9.42
396.693	9.77
396.9	9.93
397.107	9.62
397.314	9.65
397.521	9.83
397.728	9.56
397.935	8.85
398.142	9.16
398.349	9.38
398.556	9.19
398.763	9.14
398.97	8.96
399.177	9.05
399.383	9.04
399.59	9.56
399.797	9.76
400.004	9.13
400.211	9.16
400.418	9
400.625	9.33
400.831	9.66
401.038	9.74
401.245	9.95
401.452	9.64
401.658	9.51
401.865	9.24
402.072	9.07
402.279	9.25
402.485	8.91
402.692	8.41
402.899	7.8
403.105	7.68
403.312	8.46
403.519	8.12
403.725	7.92
403.932	7.99
404.138	7.71
404.345	7.82
404.552	8.26
404.758	8.59
404.965	9.04
405.171	9.5
405.378	9.97
405.584	9.3
405.791	9.56
405.997	9.71
406.204	9.78
406.41	9.9
406.617	9.6
406.823	9.79
407.029	9.69
407.236	9.56
407.442	9.4
407.649	8.95
407.855	9.1
408.061	9.05
408.268	9.05
408.474	9.04
408.68	8.44
408.887	8.55
409.093	7.96
409.299	8.17
409.505	8.46
409.712	8.13
409.918	8.13
410.124	8.03
410.33	7.61
410.537	7.34
410.743	6.92
410.949	7.71
411.155	7.4
411.361	7.95
411.567	7.74
411.773	7.72
411.98	7.54
412.186	7.45
412.392	7.11
412.598	7.03
412.804	7.14
413.01	6.91
413.216	6.68
413.422	7.11
413.628	6.83
413.834	6.31
414.04	6.48
414.246	7.24
414.452	7.72
414.658	8.3
414.864	9.12
415.07	9.6
415.275	10.09
415.481	9.91
415.687	9.7
415.893	9.74
416.099	10.2
416.305	9.99
416.511	9.73
416.716	9.19
416.922	8.94
417.128	8.82
417.334	8.62
417.539	8.51
417.745	8.73
417.951	8.55
418.157	8.29
418.362	8.16
418.568	7.74
418.774	7.45
418.979	7.58
419.185	7.47
419.391	7.62
419.596	7.82
419.802	7.93
420.008	7.34
420.213	9.48
420.419	9.51
420.624	9.34
420.83	9.7
421.035	9.9
421.241	9.76
421.446	9.76
421.652	9.4
421.857	9.03
422.063	8.97
422.268	9.49
422.474	7.67
422.679	7.54
422.885	7.58
423.09	7.44
423.295	7.31
423.501	7.25
423.706	7.11
423.911	6.99
424.117	6.96
424.322	6.67
424.527	6.21
424.733	6.07
424.938	6.37
425.143	6.25
425.349	5.79
425.554	5.91
425.759	6.05
425.964	6.02
426.169	5.99
426.375	5.95
426.58	5.97
426.785	6.13
426.99	6.08
427.195	5.75
427.4	5.73
427.605	6.43
427.811	6.13
428.016	6.09
428.221	6.67
428.426	7.04
428.631	7.32
428.836	7.44
429.041	7.83
429.246	8.33
429.451	8.67
429.656	8.97
429.861	8.54
430.066	8.55
430.271	8.85
430.476	8.36
430.681	8.26
430.886	8.29
431.09	8.15
431.295	7.84
431.5	7.56
431.705	7.39
431.91	7.3
432.115	7.71
432.32	8.03
432.524	7.67
432.729	7.74
432.934	7.44
433.139	7.13
433.343	7.35
433.548	7.32
433.753	7.17
433.958	7.36
434.162	7
434.367	7.01
434.572	6.6
434.776	6.92
434.981	6.92
435.186	7.06
435.39	7.33
435.595	7.48
435.799	7.28
436.004	7.06
436.209	6.8
436.413	6.98
436.618	6.96
436.822	7.38
437.027	6.75
437.231	6.63
437.436	6.44
437.64	6.32
437.845	6.12
438.049	5.95
438.253	6.13
438.458	5.88
438.662	6.24
438.867	5.87
439.071	5.65
439.275	5.88
439.48	5.99
439.684	6.32
439.888	6.26
440.093	6.59
440.297	6.67
440.501	6.72
440.706	7.22
440.91	7.1
441.114	7.19
441.318	7.79
441.523	7.9
441.727	7.85
441.931	7.74
442.135	7.83
442.339	7.41
442.543	7.85
442.748	8.32
442.952	7.94
443.156	7.68
443.36	7.72
443.564	7.28
443.768	6.92
443.972	7.15
444.176	6.67
444.38	6.62
444.584	6.75
444.788	6.41
444.992	5.88
445.196	5.93
445.4	6.12
445.604	6.32
445.808	6.26
446.012	6.54
446.216	6.31
446.42	6.72
446.624	6.97
446.828	6.73
447.032	6.9
447.235	7.07
447.439	6.89
447.643	6.83
447.847	6.63
448.051	6.64
448.254	6.6
448.458	6.61
448.662	6.39
448.866	6.51
449.069	6.8
449.273	6.81
449.477	6.31
449.681	6.52
449.884	6.41
450.088	6.79
450.292	6.86
450.495	6.53
450.699	6.51
450.902	6.83
451.106	6.74
451.31	6.8
451.513	6.89
451.717	7.56
451.92	7.91
452.124	8.03
452.327	7.74
452.531	7.51
452.734	7.54
452.938	7.44
453.141	7
453.345	6.59
453.548	6.31
453.752	6.43
453.955	6.23
454.158	5.72
454.362	5.65
454.565	5.62
454.769	6.03
454.972	6.6
455.175	6.53
455.379	7.1
455.582	7
455.785	7.23
455.988	6.86
456.192	6.49
456.395	6.6
456.598	6.89
456.801	7.12
457.005	6.71
457.208	6.3
457.411	6.79
457.614	6.77
457.817	7.21
458.021	7.18
458.224	7.23
458.427	7.44
458.63	7.73
458.833	7.38
459.036	7.05
459.239	7.19
459.442	7.25
459.645	7.28
459.848	7.18
460.051	6.86
460.254	6.83
460.457	6.77
460.66	6.67
460.863	6.36
461.066	6.59
461.269	7.11
461.472	6.77
461.675	6.87
461.878	6.56
462.081	6.58
462.284	6.7
462.486	6.6
462.689	6.75
462.892	6.98
463.095	6.94
463.298	6.98
463.5	6.64
463.703	6.77
463.906	6.57
464.109	6.74
464.311	6.97
464.514	7.05
464.717	7.31
464.92	7.25
465.122	7.21
465.325	7.23
465.528	6.96
465.73	6.49
465.933	6.76
466.135	6.82
466.338	6.56
466.541	6.01
466.743	6.06
466.946	5.85
467.148	5.93
467.351	6.05
