Data from JASIL_3161_Reflection_1.txt Node
Date: Thu Nov 12 21:51:02 EST 2015
User: Geneva
Spectrometer: USB4E03002
Autoset integration time: false
Trigger mode: 4
Integration Time (sec): 1.000000E-1
Scans to average: 10
Electric dark correction enabled: true
Nonlinearity correction enabled: false
Boxcar width: 5
Stray light correction enabled: false
XAxis mode: Wavelengths
Stop averaging: false
Number of Pixels in Spectrum: 3648
>>>>>Begin Spectral Data<<<<<
177.575	45.61
177.794	70.71
178.014	54.08
178.233	161.44
178.452	65.66
178.672	45.33
178.891	71.94
179.11	36.07
179.33	19.25
179.549	25.76
179.768	-199.69
179.987	-75.24
180.207	-69.04
180.426	-415.69
180.645	294.67
180.864	363.52
181.084	243.29
181.303	769.14
181.522	210.42
181.741	85.73
181.96	179.04
182.179	134.68
182.398	386.6
182.618	167.75
182.837	49.49
183.056	-3.38
183.275	66.7
183.494	47.82
183.713	60.76
183.932	60.09
184.151	47.15
184.37	65.29
184.589	99.92
184.808	102.42
185.027	86.28
185.246	105.75
185.465	154.29
185.684	152.06
185.903	145.16
186.122	97.99
186.341	85.5
186.56	72.17
186.779	-179.19
186.998	-180.83
187.216	-37.66
187.435	-85.53
187.654	-444.13
187.873	-549.04
188.092	567.78
188.311	1071.35
188.53	4044.94
188.748	-6145.22
188.967	-272.87
189.186	-45.06
189.405	-45.6
189.623	-5.85
189.842	25.9
190.061	61.37
190.28	32.51
190.498	28.98
190.717	16.07
190.936	39.13
191.154	50.23
191.373	-138.2
191.592	13.28
191.81	-21.55
192.029	-339.06
192.248	-249.63
192.466	-245.93
192.685	-211.57
192.904	-145.61
193.122	-8.64
193.341	18.48
193.559	-32.74
193.778	97.25
193.996	92.34
194.215	52.39
194.433	60.62
194.652	128.08
194.87	102.5
195.089	177.52
195.307	164.7
195.526	152.03
195.744	-683.33
195.963	-39.53
196.181	42.96
196.399	78.12
196.618	71.05
196.836	101.25
197.055	135.29
197.273	153.87
197.491	159.03
197.71	119.19
197.928	120.5
198.146	168.36
198.365	205.79
198.583	-43.23
198.801	-106.32
199.019	269.19
199.238	170.49
199.456	300.78
199.674	177.88
199.892	199.73
200.111	78.57
200.329	125.92
200.547	85.01
200.765	108.62
200.983	36.46
201.202	11.13
201.42	-13.41
201.638	4.38
201.856	14.28
202.074	3.35
202.292	48.84
202.51	59.11
202.728	44.22
202.946	58.05
203.165	73.54
203.383	45.39
203.601	46.65
203.819	18.22
204.037	-7.11
204.255	2.44
204.473	7.15
204.691	-15.12
204.909	-6.46
205.127	-14.24
205.345	-20.09
205.562	-44.28
205.78	-6.09
205.998	12.52
206.216	8.28
206.434	6.9
206.652	-72.14
206.87	-88.03
207.088	-4779.69
207.306	-677.3
207.523	686.26
207.741	490.23
207.959	-1375.68
208.177	-292.35
208.395	-474.87
208.612	-227.18
208.83	-87.66
209.048	-38.02
209.266	-23.89
209.483	25.47
209.701	4.11
209.919	2.75
210.136	5.33
210.354	19.07
210.572	24.4
210.79	37.07
211.007	36.09
211.225	20.38
211.442	2.69
211.66	-3.76
211.878	-10.69
212.095	1.73
212.313	-9.93
212.53	-8.24
212.748	18.96
212.966	23.84
213.183	47.33
213.401	54.54
213.618	45.53
213.836	37.63
214.053	47.04
214.271	35.22
214.488	-3162.34
214.705	-655.29
214.923	-423.49
215.14	-148.65
215.358	-103.59
215.575	56.52
215.793	167.34
216.01	-133.07
216.227	-4800
216.445	169.41
216.662	28.86
216.879	6.04
217.097	14.67
217.314	32.42
217.531	31.53
217.749	25.79
217.966	30.38
218.183	24.48
218.4	21.19
218.618	57.71
218.835	46.58
219.052	68.83
219.269	78.2
219.487	97.17
219.704	122.93
219.921	136.53
220.138	176.85
220.355	158.52
220.572	74.21
220.79	66.88
221.007	39.41
221.224	52.76
221.441	10.87
221.658	17.02
221.875	22.32
222.092	-21.51
222.309	1.74
222.526	-8.76
222.743	-2.51
222.96	3.86
223.177	-40.97
223.394	-76.94
223.611	-52.75
223.828	-40.71
224.045	-31.98
224.262	-46.79
224.479	-24.52
224.696	0.52
224.913	-6.74
225.13	-30.81
225.347	-36.92
225.564	-14.29
225.781	6.03
225.997	11.49
226.214	15.36
226.431	4.16
226.648	4.98
226.865	-1.7
227.082	-12.84
227.298	-5.41
227.515	2.85
227.732	8.5
227.949	6.68
228.165	0.55
228.382	1.72
228.599	-0.34
228.816	-0.84
229.032	-3.77
229.249	7.97
229.466	7.62
229.682	6.08
229.899	3.61
230.116	-7.36
230.332	-17.25
230.549	-14.45
230.765	-10.39
230.982	-15.03
231.199	-5.83
231.415	-5.54
231.632	-10.35
231.848	-7.72
232.065	15.92
232.281	20.96
232.498	23.54
232.714	29.44
232.931	25.59
233.147	21.56
233.364	43.06
233.58	35.3
233.797	31.04
234.013	27.71
234.23	16.45
234.446	-10.31
234.662	-20.56
234.879	-8.49
235.095	-8.73
235.312	-12.61
235.528	1.41
235.744	-2.48
235.961	-5.77
236.177	-12.12
236.393	-14.05
236.61	-14.84
236.826	-9.33
237.042	1.79
237.258	-10.2
237.475	-21.28
237.691	-19.23
237.907	-19.79
238.123	-17.56
238.339	-9.19
238.556	-4.6
238.772	-2.79
238.988	20.88
239.204	35.73
239.42	31.56
239.636	41.61
239.853	48.11
240.069	45.3
240.285	41.73
240.501	33.85
240.717	39.43
240.933	37.12
241.149	38.85
241.365	31.95
241.581	23.93
241.797	22.69
242.013	18.9
242.229	20.86
242.445	22.7
242.661	21.15
242.877	23.31
243.093	20.35
243.309	26.17
243.525	25.3
243.741	28
243.957	26.37
244.173	22.35
244.388	21.04
244.604	17.29
244.82	15.1
245.036	15.15
245.252	16.01
245.468	15.24
245.683	12.29
245.899	12.56
246.115	10.7
246.331	13.02
246.547	13.64
246.762	15.16
246.978	15.34
247.194	12.89
247.409	11.96
247.625	10.19
247.841	11.41
248.057	11.75
248.272	10.31
248.488	13.27
248.703	15.74
248.919	17.38
249.135	15.35
249.35	11.67
249.566	12.95
249.782	10.55
249.997	14.38
250.213	9.91
250.428	10.9
250.644	4.98
250.859	1.41
251.075	-3.69
251.29	-4.72
251.506	-8.03
251.721	-7.19
251.937	-3.27
252.152	-0.63
252.368	-8.87
252.583	-8.53
252.798	-9.26
253.014	-6.96
253.229	-7.87
253.445	-9.28
253.66	-6.35
253.875	-2.07
254.091	-6.71
254.306	-4.33
254.521	-10.17
254.737	-1.33
254.952	-5.5
255.167	-10.65
255.383	-3.29
255.598	-4.38
255.813	-1.07
256.028	-10.57
256.244	-7.88
256.459	-5.18
256.674	-5.06
256.889	0.11
257.104	5.12
257.32	11.48
257.535	14.36
257.75	9.42
257.965	12.29
258.18	11.28
258.395	11.87
258.61	10.68
258.826	12.79
259.041	12.13
259.256	9.96
259.471	7.17
259.686	4.88
259.901	4.61
260.116	5.44
260.331	4.23
260.546	3.45
260.761	6.51
260.976	9.62
261.191	9.92
261.406	11.34
261.621	8.69
261.836	7
262.05	6.42
262.265	2.63
262.48	6.22
262.695	5.49
262.91	9.14
263.125	6.8
263.34	5.79
263.555	5.51
263.769	-2.43
263.984	2.27
264.199	6.65
264.414	9.85
264.629	15.97
264.843	15.7
265.058	17.38
265.273	13.33
265.488	12.08
265.702	11.11
265.917	7.63
266.132	6.62
266.346	10.46
266.561	8.78
266.776	5.56
266.99	1.84
267.205	2.44
267.42	1.55
267.634	1.88
267.849	4.37
268.063	-0.6
268.278	1.98
268.492	4.46
268.707	4.72
268.922	3.35
269.136	6.29
269.351	12.61
269.565	11.53
269.78	11.75
269.994	11.43
270.209	13.29
270.423	15.31
270.637	14.15
270.852	14.8
271.066	14.61
271.281	16.11
271.495	13.51
271.709	6.39
271.924	4.67
272.138	4.08
272.353	2.4
272.567	-0.71
272.781	-2.28
272.996	-1.02
273.21	-0.65
273.424	-2.26
273.638	-2.3
273.853	-2.08
274.067	0.96
274.281	4.12
274.495	5.26
274.71	10.85
274.924	8.21
275.138	10.2
275.352	5.41
275.566	3.63
275.781	0.94
275.995	1.98
276.209	-3.35
276.423	-4.66
276.637	-7.48
276.851	-9.65
277.065	-17.93
277.279	-14.33
277.493	-13.73
277.707	-12.34
277.921	-10.02
278.135	-9.66
278.349	-4.61
278.563	3.33
278.777	3.73
278.991	4.49
279.205	3.4
279.419	7.36
279.633	9.25
279.847	9.39
280.061	10.2
280.275	11.14
280.489	10.55
280.703	1.68
280.917	4.16
281.131	7.52
281.344	6.13
281.558	8.17
281.772	10.02
281.986	6.89
282.2	5.73
282.414	5.35
282.627	6.67
282.841	7.22
283.055	14.15
283.269	11.5
283.482	8.93
283.696	8.91
283.91	9.94
284.123	6.1
284.337	6.13
284.551	4.02
284.764	6.65
284.978	5.5
285.192	6.72
285.405	3.34
285.619	5.11
285.833	7.91
286.046	9.2
286.26	9.06
286.473	11.8
286.687	13.16
286.9	17.44
287.114	17.05
287.327	15.8
287.541	16.77
287.754	18.8
287.968	14.43
288.181	11.48
288.395	9.62
288.608	10.88
288.822	8.44
289.035	7.27
289.248	4.72
289.462	3.09
289.675	5.38
289.889	4.53
290.102	6.89
290.315	10.26
290.529	9.91
290.742	9.7
290.955	7.95
291.169	9.98
291.382	10.27
291.595	10.95
291.808	12.75
292.022	10.36
292.235	11.38
292.448	6.95
292.661	5.04
292.875	3.51
293.088	3.61
293.301	2.8
293.514	-1.48
293.727	-0.86
293.94	-3.29
294.153	-4.98
294.367	-4.5
294.58	-6.31
294.793	-6.18
295.006	-6.75
295.219	-4.04
295.432	-2.35
295.645	-1.31
295.858	0.73
296.071	-0.26
296.284	1.36
296.497	2.43
296.71	2.02
296.923	4.36
297.136	5.15
297.349	4.06
297.562	5.32
297.775	4.77
297.988	2.85
298.201	1.51
298.414	2.96
298.626	3.4
298.839	2.76
299.052	4.62
299.265	3.46
299.478	4.45
299.691	4.59
299.903	4.89
300.116	7.76
300.329	10.01
300.542	12.16
300.755	11.94
300.967	9.56
301.18	9.36
301.393	9.6
301.605	10.96
301.818	9.84
302.031	10.6
302.243	8.64
302.456	7.26
302.669	9.11
302.881	6.19
303.094	6.98
303.307	8.7
303.519	11.56
303.732	8.86
303.944	5.8
304.157	4.53
304.37	5.35
304.582	6.01
304.795	3.93
305.007	1.95
305.22	6.29
305.432	4.96
305.645	5
305.857	4.45
306.069	6.16
306.282	7.41
306.494	9.41
306.707	9.75
306.919	8.65
307.132	7.14
307.344	6.01
307.556	3.86
307.769	1.86
307.981	0.84
308.193	-1.89
308.406	-1.37
308.618	-0.85
308.83	-2.4
309.043	-0.67
309.255	-0.82
309.467	0.68
309.679	1.88
309.892	3.65
310.104	4.12
310.316	5.32
310.528	6.31
310.74	5.87
310.953	5.53
311.165	6.15
311.377	5.53
311.589	6.2
311.801	6.11
312.013	3.76
312.225	1.39
312.437	0.81
312.649	0.2
312.862	1.32
313.074	1.52
313.286	0.91
313.498	3.98
313.71	-2.89
313.922	-4.55
314.134	-7.71
314.346	-9.19
314.558	-10.14
314.77	-6.82
314.982	-5.78
315.193	-8.58
315.405	-8.4
315.617	-4.07
315.829	-9.67
316.041	-2.74
316.253	1.47
316.465	4.38
316.677	4.55
316.888	6.71
317.1	8.45
317.312	9.58
317.524	9.23
317.736	8.06
317.947	3.51
318.159	6.74
318.371	9.24
318.583	6.81
318.794	6.08
319.006	8.79
319.218	8.75
319.43	5.05
319.641	3.62
319.853	6.57
320.064	8.62
320.276	10.55
320.488	9.36
320.699	6.67
320.911	5.8
321.123	6.8
321.334	3.83
321.546	4.28
321.757	6.79
321.969	8.59
322.18	6.96
322.392	5.64
322.603	3.51
322.815	4.9
323.026	4.88
323.238	5.09
323.449	4.52
323.661	6.18
323.872	5.87
324.083	4.23
324.295	4.61
324.506	3.43
324.718	3.66
324.929	6.73
325.14	7.11
325.352	4.8
325.563	7.93
325.774	10.27
325.986	11.22
326.197	10.76
326.408	11.54
326.62	9.68
326.831	9.51
327.042	9.06
327.253	7.92
327.464	6
327.676	7.75
327.887	5.19
328.098	4.47
328.309	4.49
328.52	5.03
328.732	3.94
328.943	5.18
329.154	7.4
329.365	6.32
329.576	4.84
329.787	5.92
329.998	6.38
330.209	5.92
330.42	4.92
330.631	5.2
330.842	4.83
331.053	4.79
331.264	3.28
331.475	1.75
331.686	2.89
331.897	3.29
332.108	1.71
332.319	2.13
332.53	4.03
332.741	4.94
332.952	6.64
333.163	5.22
333.374	7.29
333.585	6.18
333.795	5.74
334.006	5.38
334.217	7.23
334.428	7.72
334.639	6.89
334.849	5.62
335.06	7.06
335.271	3.52
335.482	6.68
335.692	6.88
335.903	7.97
336.114	9.28
336.325	10.79
336.535	9.17
336.746	9.55
336.957	10.74
337.167	11.24
337.378	7.11
337.589	10.71
337.799	10.7
338.01	9.16
338.22	9.7
338.431	12.04
338.642	9.93
338.852	11.4
339.063	10.85
339.273	9.21
339.484	9.27
339.694	11.66
339.905	8.45
340.115	5.06
340.326	4.21
340.536	2.86
340.746	0.39
340.957	2.21
341.167	0.93
341.378	1.69
341.588	3.61
341.799	2.94
342.009	1.78
342.219	4.77
342.43	7.08
342.64	8.96
342.85	10.66
343.061	10.23
343.271	8.31
343.481	8.19
343.691	6.81
343.902	4.46
344.112	4.87
344.322	6.21
344.532	5.22
344.743	6.34
344.953	5.38
345.163	5.35
345.373	4.38
345.583	4.84
345.793	3.09
346.004	2.43
346.214	3.68
346.424	5.41
346.634	5.93
346.844	5.68
347.054	5.8
347.264	7.02
347.474	7.4
347.684	8.88
347.894	8.23
348.104	8.7
348.314	9.52
348.524	11.47
348.734	11.48
348.944	11.01
349.154	12.5
349.364	11.33
349.574	10.77
349.784	9.59
349.994	10.03
350.204	10.24
350.413	10.32
350.623	10.95
350.833	8.23
351.043	7.82
351.253	7.66
351.463	8.17
351.672	8.16
351.882	8.34
352.092	8.11
352.302	7.64
352.511	7.99
352.721	7.75
352.931	7.43
353.141	9.23
353.35	8.56
353.56	9.09
353.77	6.78
353.979	5.92
354.189	5.14
354.399	5.41
354.608	4.08
354.818	5.13
355.027	6.69
355.237	5.92
355.447	4.78
355.656	3.31
355.866	1.81
356.075	2.14
356.285	2.98
356.494	1.83
356.704	2.71
356.913	3.62
357.123	3.81
357.332	2.33
357.542	2.53
357.751	3.5
357.96	4.95
358.17	6.03
358.379	6.69
358.589	6.23
358.798	6.92
359.007	6.96
359.217	8.83
359.426	7.69
359.635	7.83
359.845	9.07
360.054	7.72
360.263	7.39
360.472	7.95
360.682	7.55
360.891	8.48
361.1	8.73
361.309	9.02
361.519	7.49
361.728	6.77
361.937	8.45
362.146	7.78
362.355	9.36
362.564	9.04
362.774	7.55
362.983	6.97
363.192	5.87
363.401	6.11
363.61	4.21
363.819	3.21
364.028	5.81
364.237	5.01
364.446	5.58
364.655	4.62
364.864	4.77
365.073	7.07
365.282	7.57
365.491	7.54
365.7	6.48
365.909	8.27
366.118	8.76
366.327	7.65
366.536	7.91
366.745	8.22
366.954	7.35
367.162	6.22
367.371	4.58
367.58	4.15
367.789	5.51
367.998	7.13
368.207	7.53
368.415	7.58
368.624	8.31
368.833	7.5
369.042	6.02
369.25	7.41
369.459	8.36
369.668	8.67
369.877	9.36
370.085	9.58
370.294	8.39
370.503	6.33
370.711	6.76
370.92	5.7
371.129	6.35
371.337	6.53
371.546	6.4
371.754	6.86
371.963	5.65
372.171	5.11
372.38	4.28
372.589	4.37
372.797	5.85
373.006	4.2
373.214	4.88
373.423	3.34
373.631	4.58
373.84	4.79
374.048	4.41
374.256	5.7
374.465	5.39
374.673	4.57
374.882	4.68
375.09	4.25
375.298	5.84
375.507	6.3
375.715	7.1
375.923	8.48
376.132	8.68
376.34	9.84
376.548	9.74
376.757	9
376.965	8.94
377.173	7.92
377.381	6.51
377.59	5.84
377.798	4.08
378.006	3.93
378.214	2.56
378.423	2.1
378.631	1.68
378.839	0.62
379.047	1.53
379.255	1.89
379.463	3.58
379.671	3.51
379.879	4.49
380.088	5.35
380.296	6.29
380.504	5.03
380.712	4.6
380.92	3.83
381.128	5.16
381.336	5.46
381.544	4.62
381.752	3.07
381.96	5.93
382.168	5.14
382.376	5.26
382.584	4.21
382.791	4.22
382.999	3.98
383.207	4.45
383.415	4.27
383.623	3.94
383.831	4.85
384.039	5.54
384.247	3.67
384.454	5.43
384.662	5.32
384.87	6.77
385.078	6.83
385.285	7.44
385.493	6.37
385.701	6.21
385.909	5.78
386.116	5.71
386.324	6.57
386.532	7.73
386.739	5.88
386.947	5.43
387.155	4.65
387.362	4.42
387.57	3.85
387.778	4.44
387.985	4.91
388.193	5.44
388.4	4.61
388.608	4.4
388.816	3.24
389.023	4.62
389.231	5.03
389.438	4.19
389.646	3.85
389.853	3.15
390.061	3.65
390.268	2.68
390.475	3.5
390.683	4.12
390.89	3.55
391.098	4.21
391.305	3.53
391.512	3.21
391.72	3.32
391.927	5.39
392.135	5.93
392.342	5.65
392.549	5.82
392.756	5.71
392.964	6.17
393.171	5.99
393.378	5.09
393.586	4.72
393.793	5.26
394	6.01
394.207	5.1
394.414	5.91
394.622	5.16
394.829	4.54
395.036	3.86
395.243	2.96
395.45	3.06
395.657	3.71
395.864	3.99
396.072	4
396.279	4.05
396.486	3.64
396.693	3.5
396.9	4.27
397.107	4.73
397.314	5.43
397.521	6.38
397.728	6.42
397.935	5.69
398.142	5.14
398.349	5.06
398.556	4.87
398.763	5.56
398.97	4.5
399.177	3.99
399.383	4.99
399.59	4.75
399.797	4.16
400.004	4.67
400.211	4.78
400.418	5.18
400.625	5.03
400.831	3.93
401.038	3.37
401.245	3.78
401.452	3.94
401.658	3.25
401.865	3.55
402.072	4
402.279	2.98
402.485	2.49
402.692	2.51
402.899	1.39
403.105	2.81
403.312	3.37
403.519	2.8
403.725	2.4
403.932	1.99
404.138	1.2
404.345	1.43
404.552	2.17
404.758	2.69
404.965	2.22
405.171	3.85
405.378	3.14
405.584	2.44
405.791	2.64
405.997	2.93
406.204	3.89
406.41	3.18
406.617	2.23
406.823	1.19
407.029	1.72
407.236	1.57
407.442	-0.06
407.649	-0.82
407.855	-0.73
408.061	-1.73
408.268	-0.38
408.474	-0.1
408.68	1.1
408.887	1.93
409.093	2.79
409.299	1.17
409.505	2.54
409.712	2.98
409.918	4.01
410.124	3.85
410.33	4.66
410.537	3.33
410.743	2.49
410.949	2.2
411.155	2.22
411.361	3.06
411.567	4.35
411.773	3.91
411.98	4.85
412.186	3.7
412.392	4.18
412.598	4.94
412.804	5.31
413.01	4.99
413.216	4.91
413.422	4.02
413.628	3.03
413.834	2.86
414.04	1.87
414.246	1.98
414.452	2.18
414.658	2.4
414.864	1.73
415.07	2.44
415.275	3.09
415.481	3.75
415.687	3.12
415.893	2.98
416.099	3.6
416.305	4.31
416.511	4.07
416.716	4.53
416.922	4.03
417.128	3.63
417.334	3.46
417.539	2.31
417.745	2.43
417.951	3.42
418.157	3.84
418.362	3.03
418.568	2.77
418.774	2.27
418.979	2.19
419.185	2.11
419.391	2.73
419.596	2.3
419.802	3.3
420.008	3.08
420.213	2.86
420.419	2.68
420.624	3.08
420.83	3.47
421.035	3.4
421.241	4.14
421.446	4.37
421.652	4.23
421.857	4.59
422.063	4.3
422.268	3.75
422.474	3.36
422.679	3.61
422.885	3.66
423.09	3.19
423.295	3.87
423.501	2.94
423.706	3.07
423.911	3.38
424.117	3.4
424.322	3.13
424.527	3.73
424.733	3.99
424.938	3.54
425.143	3.01
425.349	3.68
425.554	3.34
425.759	3.65
425.964	3.04
426.169	3.13
426.375	2.92
426.58	3.45
426.785	2.87
426.99	3
427.195	3.19
427.4	3.43
427.605	2.83
427.811	3.52
428.016	3.28
428.221	3
428.426	2.66
428.631	1.93
428.836	1.68
429.041	1.97
429.246	1.69
429.451	1.54
429.656	1.87
429.861	1.74
430.066	1.73
430.271	3.15
430.476	3.52
430.681	3.1
430.886	3.6
431.09	3.7
431.295	3.83
431.5	3.64
431.705	4.04
431.91	4.01
432.115	4.92
432.32	4.51
432.524	3.73
432.729	3.78
432.934	3.86
433.139	4.3
433.343	4.44
433.548	4.1
433.753	4.17
433.958	4.25
434.162	4.09
434.367	3.87
434.572	3.08
434.776	2.95
434.981	2.59
435.186	2.83
435.39	2.36
435.595	2.08
435.799	2.39
436.004	2.73
436.209	2.86
436.413	2.85
436.618	2.39
436.822	2.77
437.027	1.99
437.231	2.92
437.436	3
437.64	2.5
437.845	2.37
438.049	2.17
438.253	2.28
438.458	1.72
438.662	1.84
438.867	1.7
439.071	1.58
439.275	2.25
439.48	1.73
439.684	1.3
439.888	1.27
440.093	1.43
440.297	1.32
440.501	1.11
440.706	1.13
440.91	1.16
441.114	0.7
441.318	0.51
441.523	0.18
441.727	1.13
441.931	1.22
442.135	2.39
442.339	2.25
442.543	2.4
442.748	2.77
442.952	3.01
443.156	2.76
443.36	3.18
443.564	3.74
443.768	3.68
443.972	2.54
444.176	3.37
444.38	3.39
444.584	3.42
444.788	3.48
444.992	3.31
445.196	3.13
445.4	3.14
445.604	3.39
445.808	3.22
446.012	3.76
446.216	4.38
446.42	3.52
446.624	2.8
446.828	2.58
447.032	2.6
447.235	2.83
447.439	2.8
447.643	3.09
447.847	2.89
448.051	2.59
448.254	2.54
448.458	2.54
448.662	2.93
448.866	3.25
449.069	3.04
449.273	3.22
449.477	2.78
449.681	3.08
449.884	2.68
450.088	2.69
450.292	3.66
450.495	3.21
450.699	2.77
450.902	3.56
451.106	3.62
451.31	4.33
451.513	3.58
451.717	3.9
451.92	3.5
452.124	3.46
452.327	3.37
452.531	2.68
452.734	2.71
452.938	2.84
453.141	2.21
453.345	2.27
453.548	2.45
453.752	3.08
453.955	2.39
454.158	3.27
454.362	2.73
454.565	3.51
454.769	3.25
454.972	3.44
455.175	3.67
455.379	4.07
455.582	3.7
455.785	2.7
455.988	2.49
456.192	2.98
456.395	2.49
456.598	2.74
456.801	2.25
457.005	2.63
457.208	2.83
457.411	2.52
457.614	2.5
457.817	2.35
458.021	2.8
458.224	2.79
458.427	3.23
458.63	2.97
458.833	3.34
459.036	3
459.239	3.03
459.442	2.4
459.645	2.5
459.848	2.33
460.051	2.57
460.254	2.87
460.457	2.61
460.66	2.15
460.863	2.62
461.066	2.7
461.269	3.23
461.472	3.17
461.675	3.64
461.878	3.4
462.081	3.78
462.284	3.63
462.486	3.33
462.689	3.43
462.892	3.35
463.095	2.97
463.298	2.57
463.5	2.3
463.703	2.26
463.906	2.47
464.109	2.17
464.311	1.48
464.514	1.75
464.717	2.24
464.92	2.83
465.122	3.27
465.325	3.31
465.528	3.49
465.73	3.57
465.933	3.89
466.135	3.09
466.338	3.68
466.541	3.68
466.743	4.07
466.946	3.57
