Data from JASIL_3013_Reflection_02.txt Node
Date: Mon Nov 09 10:36:17 EST 2015
User: Geneva
Spectrometer: USB4E03002
Autoset integration time: false
Trigger mode: 4
Integration Time (sec): 1.000000E-1
Scans to average: 10
Electric dark correction enabled: false
Nonlinearity correction enabled: false
Boxcar width: 5
Stray light correction enabled: false
XAxis mode: Wavelengths
Stop averaging: false
Number of Pixels in Spectrum: 3648
>>>>>Begin Spectral Data<<<<<
177.575	93.91
177.794	102.08
178.014	78.11
178.233	130.04
178.452	166.67
178.672	603.51
178.891	1482.61
179.11	-541.46
179.33	-1127.27
179.549	-21.15
179.768	24.5
179.987	-98.61
180.207	168.33
180.426	317.91
180.645	126.3
180.864	90.17
181.084	69.62
181.303	60.65
181.522	82.04
181.741	130.74
181.96	103.83
182.179	119.7
182.398	72.22
182.618	61.22
182.837	41.26
183.056	-235.79
183.275	229.63
183.494	-174.44
183.713	-517.5
183.932	-196.81
184.151	-818.18
184.37	-98.43
184.589	-2150
184.808	220.71
185.027	120
185.246	21.91
185.465	34.56
185.684	8.09
185.903	20.77
186.122	38.22
186.341	49.14
186.56	2.12
186.779	-191.84
186.998	231.87
187.216	136
187.435	164.58
187.654	27.34
187.873	84.11
188.092	130.39
188.311	112.28
188.53	117.69
188.748	130.88
188.967	197.28
189.186	-189.25
189.405	-123.6
189.623	-239.25
189.842	-426.98
190.061	6820
190.28	414.89
190.498	373.33
190.717	114.76
190.936	155.17
191.154	133.16
191.373	163.32
191.592	253.15
191.81	148.47
192.029	159.26
192.248	88.31
192.466	106.19
192.685	51.23
192.904	-452.17
193.122	-55.07
193.341	3340
193.559	-1916.67
193.778	-297.73
193.996	-582.14
194.215	-360.64
194.433	-295.41
194.652	-223.42
194.87	-58.57
195.089	-55.66
195.307	-142.67
195.526	-154.94
195.744	-28.78
195.963	-82.35
196.181	34.04
196.399	-9.64
196.618	49.64
196.836	51.6
197.055	19.63
197.273	128.16
197.491	163.5
197.71	134.72
197.928	71.34
198.146	126.53
198.365	99.53
198.583	2744.44
198.801	-111.95
199.019	-52.9
199.238	14.01
199.456	-23.27
199.674	3.45
199.892	-76.85
200.111	-96
200.329	-446.43
200.547	1533.33
200.765	-90.91
200.983	106.62
201.202	45.24
201.42	90.62
201.638	133.15
201.856	328.15
202.074	282.83
202.292	298.41
202.51	377.78
202.728	4550
202.946	-80.3
203.165	1289.47
203.383	-215.38
203.601	-350
203.819	72.09
204.037	186.25
204.255	77
204.473	250.38
204.691	252.94
204.909	-895.24
205.127	481.82
205.345	462.75
205.562	-381.48
205.78	502
205.998	457.97
206.216	323.58
206.434	292.13
206.652	3000
206.87	113.56
207.088	-13.94
207.306	-76.43
207.523	-131.06
207.741	-369.23
207.959	-161.71
208.177	-123.84
208.395	-109.46
208.612	-45.17
208.83	11.01
209.048	-22.15
209.266	-237.5
209.483	-485.25
209.701	855.17
209.919	-10050
210.136	32.73
210.354	1850
210.572	-536.17
210.79	-666.67
211.007	215.33
211.225	78.36
211.442	336.84
211.66	-1.64
211.878	32.89
212.095	-1841.51
212.313	-33433.33
212.53	-776.23
212.748	-339.34
212.966	-1970.73
213.183	-38400
213.401	-309.29
213.618	-243.69
213.836	-294.42
214.053	-430.05
214.271	-630.2
214.488	59.06
214.705	61.13
214.923	107.18
215.14	158.27
215.358	167.04
215.575	187.94
215.793	619.7
216.01	1858.33
216.227	568.52
216.445	-135.07
216.662	-343.88
216.879	-104.53
217.097	-131.92
217.314	-203.23
217.531	-465.52
217.749	166.05
217.966	190
218.183	129.31
218.4	114
218.618	153.04
218.835	82.76
219.052	75.23
219.269	58.11
219.487	52.04
219.704	61.6
219.921	40.69
220.138	28.4
220.355	60.41
220.572	-2166.67
220.79	182.41
221.007	168.38
221.224	196.87
221.441	134.9
221.658	-9.95
221.875	83.21
222.092	90.93
222.309	97.86
222.526	112.24
222.743	66.6
222.96	47.98
223.177	47.07
223.394	54.39
223.611	57.45
223.828	50.6
224.045	60.53
224.262	40.25
224.479	36.32
224.696	25.11
224.913	12.84
225.13	17.46
225.347	31.75
225.564	23.55
225.781	15.65
225.997	25.78
226.214	14.69
226.431	1.4
226.648	6
226.865	6.04
227.082	9.99
227.298	8.5
227.515	5.68
227.732	-1.11
227.949	2.27
228.165	3.25
228.382	0.99
228.599	5.13
228.816	12.95
229.032	7.61
229.249	-1.14
229.466	-4.34
229.682	-2.74
229.899	0.41
230.116	6.9
230.332	5.4
230.549	-4.83
230.765	-5.12
230.982	3.61
231.199	7.57
231.415	17.52
231.632	26.71
231.848	29.68
232.065	33.86
232.281	22.59
232.498	17.42
232.714	25.52
232.931	27.37
233.147	19.31
233.364	18.74
233.58	0.6
233.797	-5.42
234.013	0.13
234.23	-8.25
234.446	-3.99
234.662	22.7
234.879	30.76
235.095	30.88
235.312	35.97
235.528	38.84
235.744	37.44
235.961	44.01
236.177	42.44
236.393	41.84
236.61	41.1
236.826	30.24
237.042	12.32
237.258	11.42
237.475	8.41
237.691	10.62
237.907	16.86
238.123	8.79
238.339	11.3
238.556	15.22
238.772	20.35
238.988	14.01
239.204	16.89
239.42	19.16
239.636	15.33
239.853	11.66
240.069	9.13
240.285	3.84
240.501	8.33
240.717	10.28
240.933	10.56
241.149	8.08
241.365	9.48
241.581	9.99
241.797	12.14
242.013	12.34
242.229	15.48
242.445	14.68
242.661	14.11
242.877	13.56
243.093	12.82
243.309	13.17
243.525	10.66
243.741	18.83
243.957	19.42
244.173	16.5
244.388	17.14
244.604	14.24
244.82	14.29
245.036	13.78
245.252	12.67
245.468	10.86
245.683	9.42
245.899	8.81
246.115	6.37
246.331	6.6
246.547	6.74
246.762	4.51
246.978	3.94
247.194	3.43
247.409	4.02
247.625	1.03
247.841	1.33
248.057	4.42
248.272	3.76
248.488	5.03
248.703	1.52
248.919	3.49
249.135	7.57
249.35	8.57
249.566	10.38
249.782	6.96
249.997	10.28
250.213	13.3
250.428	13.62
250.644	15.34
250.859	13.53
251.075	17.65
251.29	13.07
251.506	15.43
251.721	14.5
251.937	12.9
252.152	17.01
252.368	17.96
252.583	19.65
252.798	19.14
253.014	23.27
253.229	26.68
253.445	20.94
253.66	21.31
253.875	11.06
254.091	8.16
254.306	10.39
254.521	10.93
254.737	4.93
254.952	3.49
255.167	2.54
255.383	-3.37
255.598	-3.06
255.813	-0.27
256.028	-2.22
256.244	7.03
256.459	9.18
256.674	11.8
256.889	9.23
257.104	12.16
257.32	9.66
257.535	7.16
257.75	7.81
257.965	7.29
258.18	8.4
258.395	9.12
258.61	7.22
258.826	6.76
259.041	3.61
259.256	4.89
259.471	3.91
259.686	4.48
259.901	6.58
260.116	3.8
260.331	5.53
260.546	4.4
260.761	3.82
260.976	5.31
261.191	5.95
261.406	7.83
261.621	6.8
261.836	8.19
262.05	5.53
262.265	2.14
262.48	6.52
262.695	5.42
262.91	11.05
263.125	14.93
263.34	14.93
263.555	13.85
263.769	14.04
263.984	15.68
264.199	17.52
264.414	19.11
264.629	16.23
264.843	16.68
265.058	15.99
265.273	9.73
265.488	8.34
265.702	6.04
265.917	5.05
266.132	9.75
266.346	8.96
266.561	10.29
266.776	9.6
266.99	12.09
267.205	13.42
267.42	12.18
267.634	14.06
267.849	16.04
268.063	17.85
268.278	21.13
268.492	18.9
268.707	18.41
268.922	16.29
269.136	14.8
269.351	13.21
269.565	10.85
269.78	11.12
269.994	8.27
270.209	5.75
270.423	3.49
270.637	0.87
270.852	2.13
271.066	2.01
271.281	0.24
271.495	3.5
271.709	3.67
271.924	3.66
272.138	4.4
272.353	5.61
272.567	5.9
272.781	6.27
272.996	6.5
273.21	5.03
273.424	6.53
273.638	6.1
273.853	2.97
274.067	4.56
274.281	5.06
274.495	5.81
274.71	6.06
274.924	4.2
275.138	5.74
275.352	6.66
275.566	7.69
275.781	5.8
275.995	7.28
276.209	6.34
276.423	4.88
276.637	5.67
276.851	5.12
277.065	5.51
277.279	7.25
277.493	8.38
277.707	6.47
277.921	4.45
278.135	4.24
278.349	4.23
278.563	3.09
278.777	2.93
278.991	4.1
279.205	3.23
279.419	1.93
279.633	3.13
279.847	2.29
280.061	-0.76
280.275	-1.04
280.489	-1.1
280.703	-2.32
280.917	-0.06
281.131	2.52
281.344	0.57
281.558	0.27
281.772	1.08
281.986	-0.79
282.2	-1.48
282.414	3.13
282.627	6.12
282.841	3.86
283.055	4.96
283.269	5.09
283.482	2.53
283.696	3.93
283.91	3.68
284.123	2.96
284.337	2.96
284.551	2.58
284.764	2.75
284.978	1.3
285.192	4.41
285.405	6.32
285.619	6.4
285.833	7.12
286.046	6.95
286.26	6.26
286.473	7.55
286.687	7.21
286.9	9.67
287.114	7.8
287.327	8.26
287.541	6.6
287.754	3.61
287.968	6.58
288.181	6.47
288.395	5.94
288.608	7.1
288.822	4.93
289.035	7.07
289.248	4.23
289.462	8.53
289.675	6.75
289.889	6.42
290.102	6.52
290.315	4.13
290.529	4.9
290.742	5.86
290.955	5.41
291.169	6.88
291.382	5.68
291.595	5.55
291.808	3.05
292.022	3.14
292.235	2.68
292.448	3.39
292.661	3.66
292.875	2.23
293.088	-1.75
293.301	-0.47
293.514	-0.06
293.727	-0.17
293.94	0.63
294.153	0.29
294.367	1.77
294.58	1.99
294.793	2.01
295.006	1.83
295.219	1.71
295.432	4.63
295.645	4.5
295.858	4.47
296.071	4.06
296.284	3.6
296.497	4.12
296.71	2.81
296.923	3.16
297.136	2.83
297.349	1.58
297.562	2.24
297.775	1.94
297.988	0.75
298.201	-0.38
298.414	0.07
298.626	1.33
298.839	-0.63
299.052	-0.4
299.265	0.42
299.478	0.68
299.691	2.14
299.903	2.07
300.116	1.32
300.329	2.55
300.542	4.83
300.755	3.5
300.967	4.37
301.18	2.69
301.393	5.71
301.605	4.73
301.818	4.58
302.031	4.69
302.243	4.73
302.456	4.89
302.669	4.81
302.881	4.84
303.094	4.73
303.307	3.78
303.519	7.02
303.732	3.08
303.944	4.01
304.157	6.3
304.37	5.81
304.582	4.4
304.795	6.49
305.007	6.95
305.22	6.39
305.432	7.18
305.645	7.5
305.857	5.74
306.069	6.19
306.282	6.35
306.494	5.33
306.707	5.85
306.919	6.95
307.132	5.07
307.344	4.54
307.556	6.45
307.769	7.86
307.981	8.37
308.193	8.78
308.406	11.16
308.618	9.19
308.83	9.32
309.043	7.66
309.255	8.89
309.467	9.25
309.679	9.01
309.892	7.76
310.104	8.8
310.316	8.49
310.528	6.75
310.74	5.53
310.953	7.73
311.165	6.05
311.377	9.33
311.589	7.68
311.801	8.89
312.013	9.91
312.225	11.73
312.437	10.89
312.649	9.29
312.862	11.52
313.074	9.56
313.286	9.75
313.498	11.64
313.71	10.1
313.922	11.67
314.134	9.63
314.346	9.67
314.558	6.02
314.77	5.3
314.982	5.24
315.193	6.7
315.405	9.69
315.617	8.33
315.829	10.96
316.041	11.39
316.253	14.64
316.465	15.04
316.677	16.5
316.888	16.9
317.1	17.97
317.312	18.42
317.524	16.47
317.736	15.09
317.947	15.89
318.159	16.23
318.371	16.69
318.583	11.48
318.794	13.13
319.006	6.61
319.218	6.11
319.43	5.29
319.641	7.52
319.853	8.7
320.064	10.46
320.276	10.6
320.488	8.08
320.699	8.1
320.911	10.68
321.123	10.8
321.334	13.16
321.546	14.55
321.757	16.15
321.969	18.41
322.18	16.86
322.392	15.78
322.603	14.89
322.815	12.45
323.026	11.77
323.238	12.52
323.449	11.84
323.661	13.29
323.872	14.61
324.083	13.34
324.295	11.4
324.506	10.38
324.718	9.43
324.929	8.86
325.14	10.84
325.352	9.7
325.563	8.58
325.774	7.29
325.986	8.97
326.197	6.74
326.408	5.58
326.62	6.44
326.831	8.78
327.042	11.59
327.253	14.91
327.464	13.78
327.676	15.66
327.887	15.9
328.098	15.37
328.309	12.74
328.52	14.86
328.732	15.24
328.943	14.47
329.154	14.7
329.365	13.08
329.576	11.82
329.787	11.81
329.998	10.09
330.209	8.13
330.42	10.71
330.631	15.58
330.842	14.75
331.053	13.49
331.264	12.99
331.475	14.14
331.686	15.82
331.897	16.48
332.108	14.28
332.319	16.15
332.53	18.42
332.741	18.09
332.952	15.41
333.163	15.71
333.374	17.85
333.585	18.61
333.795	19.05
334.006	17.7
334.217	16.3
334.428	21.32
334.639	18.9
334.849	17.75
335.06	18.26
335.271	20.46
335.482	18.75
335.692	19.41
335.903	18.52
336.114	16.95
336.325	16.49
336.535	18.1
336.746	17.09
336.957	18.17
337.167	20.43
337.378	19.48
337.589	16.04
337.799	15.72
338.01	15.34
338.22	18.03
338.431	17.04
338.642	15.66
338.852	13.69
339.063	9.8
339.273	11.41
339.484	8.7
339.694	6.59
339.905	7.83
340.115	9.47
340.326	10.84
340.536	8.05
340.746	9.47
340.957	10.28
341.167	11.73
341.378	14.73
341.588	13.13
341.799	11.6
342.009	15.73
342.219	16.69
342.43	17.04
342.64	16.28
342.85	16.99
343.061	14.85
343.271	15.4
343.481	15.46
343.691	13.64
343.902	13.5
344.112	14.99
344.322	12.3
344.532	13.57
344.743	12.54
344.953	10.91
345.163	11.11
345.373	14.35
345.583	15.28
345.793	14.62
346.004	14.42
346.214	15.72
346.424	16.02
346.634	17.16
346.844	16.38
347.054	16.4
347.264	16.4
347.474	16.82
347.684	16.03
347.894	15.24
348.104	15.12
348.314	16.66
348.524	14.99
348.734	15.62
348.944	17.25
349.154	16.74
349.364	19.1
349.574	19.06
349.784	16.31
349.994	15.3
350.204	16.63
350.413	15.98
350.623	14.82
350.833	14.54
351.043	12.66
351.253	9.71
351.463	9.75
351.672	7.43
351.882	9.66
352.092	12.9
352.302	13.18
352.511	12.91
352.721	14.72
352.931	15.88
353.141	15.71
353.35	17.13
353.56	18.8
353.77	20.52
353.979	20.96
354.189	19.57
354.399	18.77
354.608	19.3
354.818	17.98
355.027	15.75
355.237	15.36
355.447	17.16
355.656	15.8
355.866	14.29
356.075	12.32
356.285	12.12
356.494	12.65
356.704	12.31
356.913	11.5
357.123	12.52
357.332	13.14
357.542	13.32
357.751	12.83
357.96	14.32
358.17	15.77
358.379	14.77
358.589	14.94
358.798	13.7
359.007	13.53
359.217	14.21
359.426	14.96
359.635	15.85
359.845	16.26
360.054	14.96
360.263	13.93
360.472	13.64
360.682	15.59
360.891	15.64
361.1	17.28
361.309	17
361.519	16.56
361.728	15.57
361.937	15.14
362.146	14.39
362.355	15.89
362.564	15.84
362.774	16.52
362.983	14.82
363.192	15
363.401	13.69
363.61	14.88
363.819	15.25
364.028	15.38
364.237	15.34
364.446	16.48
364.655	15.66
364.864	18.13
365.073	18.61
365.282	18.59
365.491	19.38
365.7	22.09
365.909	22
366.118	22.82
366.327	22.83
366.536	24.62
366.745	24.54
366.954	25.04
367.162	24.81
367.371	25.45
367.58	25.12
367.789	22.97
367.998	19.2
368.207	19.83
368.415	19.53
368.624	19.4
368.833	17.52
369.042	16.93
369.25	16.06
369.459	16.01
369.668	13.56
369.877	12.32
370.085	13.67
370.294	15.26
370.503	12.64
370.711	10.87
370.92	10.01
371.129	9.45
371.337	7.97
371.546	9.46
371.754	8.7
371.963	9.59
372.171	12.52
372.38	12.7
372.589	12.08
372.797	12.74
373.006	13.41
373.214	14.08
373.423	14.54
373.631	16.38
373.84	14.68
374.048	13.4
374.256	13.69
374.465	13
374.673	12.77
374.882	13.48
375.09	16.03
375.298	14.82
375.507	14.88
375.715	14.68
375.923	14.13
376.132	15.69
376.34	17.1
376.548	17.09
376.757	17.67
376.965	17.8
377.173	17.37
377.381	15.53
377.59	16.74
377.798	17.47
378.006	16.5
378.214	16.45
378.423	15.66
378.631	15.58
378.839	15.06
379.047	14.75
379.255	14.94
379.463	13.32
379.671	13.87
379.879	14.22
380.088	14
380.296	14.96
380.504	15.87
380.712	16.15
380.92	15.46
381.128	15.65
381.336	15.75
381.544	14.16
381.752	15.64
381.96	15.93
382.168	15.39
382.376	16.01
382.584	16.07
382.791	15.04
382.999	14.24
383.207	14.7
383.415	13.65
383.623	12.81
383.831	13.05
384.039	13.44
384.247	13.55
384.454	12.9
384.662	12.25
384.87	13.01
385.078	12.53
385.285	13.55
385.493	12.7
385.701	13.92
385.909	14.56
386.116	13.52
386.324	13.44
386.532	12.57
386.739	12.82
386.947	13.05
387.155	12.79
387.362	12.91
387.57	12.77
387.778	12.57
387.985	9.84
388.193	8.15
388.4	9.73
388.608	8.55
388.816	9.54
389.023	9.92
389.231	9.85
389.438	8.7
389.646	7.56
389.853	7.39
390.061	8.08
390.268	10.21
390.475	12.02
390.683	12.46
390.89	12.7
391.098	12.62
391.305	13.43
391.512	13.97
391.72	14.42
391.927	15.78
392.135	16.2
392.342	16.32
392.549	14.87
392.756	13.96
392.964	14.02
393.171	13.93
393.378	13.35
393.586	12.45
393.793	10.79
394	10.93
394.207	11.75
394.414	11.74
394.622	11.47
394.829	12.39
395.036	13.76
395.243	14.07
395.45	13.76
395.657	13.6
395.864	13.63
396.072	13.87
396.279	14.29
396.486	13.94
396.693	13.56
396.9	12.81
397.107	13.51
397.314	12.28
397.521	11.42
397.728	12.09
397.935	12.53
398.142	12.44
398.349	12.42
398.556	10.4
398.763	8.81
398.97	8.05
399.177	8.31
399.383	8.55
399.59	8.22
399.797	7.99
400.004	8.49
400.211	8.82
400.418	8.24
400.625	9.32
400.831	11.02
401.038	11.84
401.245	12.8
401.452	13.43
401.658	12.34
401.865	13.58
402.072	14.57
402.279	14.24
402.485	12.87
402.692	13.58
402.899	12.86
403.105	13.13
403.312	13.43
403.519	14.24
403.725	13.92
403.932	14.82
404.138	14.94
404.345	13.8
404.552	13.41
404.758	15.2
404.965	14.65
405.171	14.83
405.378	14.8
405.584	14.91
405.791	13.99
405.997	14.22
406.204	13.39
406.41	12.71
406.617	13.82
406.823	14.16
407.029	13.7
407.236	14.61
407.442	14.47
407.649	14.22
407.855	13.94
408.061	14.28
408.268	14.45
408.474	14.38
408.68	15.22
408.887	14.61
409.093	14.37
409.299	13.36
409.505	13.03
409.712	13.49
409.918	13.63
410.124	14.36
410.33	12.59
410.537	13.21
410.743	13.36
410.949	11.78
411.155	12.14
411.361	12.48
411.567	13.05
411.773	13.15
411.98	12.69
412.186	12.43
412.392	10.86
412.598	12.38
412.804	11.63
413.01	12.07
413.216	12.6
413.422	12.69
413.628	12.74
413.834	12.38
414.04	12.16
414.246	12.46
414.452	13.08
414.658	13.94
414.864	13.35
415.07	12.25
415.275	12
415.481	11.44
415.687	11.25
415.893	10.58
416.099	11.28
416.305	10.93
416.511	11.3
416.716	10.88
416.922	10.6
417.128	10.95
417.334	11.45
417.539	11.15
417.745	11.46
417.951	11.63
418.157	12.62
418.362	12.21
418.568	12.27
418.774	11.81
418.979	11.38
419.185	11.89
419.391	11.42
419.596	11.58
419.802	11.34
420.008	11.09
420.213	6.43
420.419	5.88
420.624	5.68
420.83	5.67
421.035	5.47
421.241	6.21
421.446	5.81
421.652	5.85
421.857	5.24
422.063	5.81
422.268	5.72
422.474	9.95
422.679	9.67
422.885	10.1
423.09	10.34
423.295	10.62
423.501	10.13
423.706	10.29
423.911	10.71
424.117	11.3
424.322	11.12
424.527	11.68
424.733	12.17
424.938	12.52
425.143	12.27
425.349	11.9
425.554	11.42
425.759	12.13
425.964	12.6
426.169	12.85
426.375	13.1
426.58	13.68
426.785	13.4
426.99	12.83
427.195	12.44
427.4	13.08
427.605	13.59
427.811	14.49
428.016	13.7
428.221	12.69
428.426	11.66
428.631	11.74
428.836	11.63
429.041	12.06
429.246	12.55
429.451	12.86
429.656	12.32
429.861	12.49
430.066	12.34
430.271	12.18
430.476	12.7
430.681	12.95
430.886	12.54
431.09	11.97
431.295	11.78
431.5	11.63
431.705	11.53
431.91	11.26
432.115	11.73
432.32	11.1
432.524	11.76
432.729	11.35
432.934	11.28
433.139	11.65
433.343	11.65
433.548	11.85
433.753	11.59
433.958	11.58
434.162	11.82
434.367	11.44
434.572	11.97
434.776	11.69
434.981	11.89
435.186	11.95
435.39	11.93
435.595	12.33
435.799	11.68
436.004	12.28
436.209	12.21
436.413	11.98
436.618	11.92
436.822	11.97
437.027	11.88
437.231	12.32
437.436	11.88
437.64	11.55
437.845	11.66
438.049	11.73
438.253	11.11
438.458	11.45
438.662	11.42
438.867	11.1
439.071	11.01
439.275	10.68
439.48	9.68
439.684	9.91
439.888	9.87
440.093	9.47
440.297	9.09
440.501	9.46
440.706	9.6
440.91	9.95
441.114	9.77
441.318	9.47
441.523	9.59
441.727	10.11
441.931	10.57
442.135	10.34
442.339	10.64
442.543	11.54
442.748	11.6
442.952	11.24
443.156	10.55
443.36	10.86
443.564	11.49
443.768	11.48
443.972	11.27
444.176	10.87
444.38	11.27
444.584	11.33
444.788	11.38
444.992	11.22
445.196	10.81
445.4	10.92
445.604	10.66
445.808	9.71
446.012	9.73
446.216	9.63
446.42	9.51
446.624	9.55
446.828	9.4
447.032	9.17
447.235	8.99
447.439	9.05
447.643	9.53
447.847	9.79
448.051	10.31
448.254	10
448.458	10.34
448.662	11.34
448.866	10.78
449.069	10.69
449.273	10.17
449.477	10.53
449.681	11.21
449.884	10.88
450.088	10.79
450.292	11.64
450.495	12.29
450.699	12
450.902	11.31
451.106	11.35
451.31	11.37
451.513	11.88
451.717	12.17
451.92	11.75
452.124	11.84
452.327	11.49
452.531	10.85
452.734	10.72
452.938	10.87
453.141	10.53
453.345	11.02
453.548	10.6
453.752	10.77
453.955	10.65
454.158	10.9
454.362	10.54
454.565	11.07
454.769	11.01
454.972	11.17
455.175	10.99
455.379	11.33
455.582	10.8
455.785	11.72
455.988	11.06
456.192	10.98
456.395	11.16
456.598	11.78
456.801	11.31
457.005	11.92
457.208	11.03
457.411	11.34
457.614	11.36
457.817	11.57
458.021	11.42
458.224	11.42
458.427	11.5
458.63	11.67
458.833	11.3
459.036	11.51
459.239	11.38
459.442	11.45
459.645	11.22
