Data from JASIL_3003_Reflection_01.txt Node
Date: Mon Nov 09 10:10:19 EST 2015
User: Geneva
Spectrometer: USB4E03002
Autoset integration time: false
Trigger mode: 4
Integration Time (sec): 1.000000E-1
Scans to average: 10
Electric dark correction enabled: false
Nonlinearity correction enabled: false
Boxcar width: 5
Stray light correction enabled: false
XAxis mode: Wavelengths
Stop averaging: false
Number of Pixels in Spectrum: 3648
>>>>>Begin Spectral Data<<<<<
177.575	-690.91
177.794	3742.86
178.014	-922.22
178.233	2368.42
178.452	446.09
178.672	2018.18
178.891	-1647.83
179.11	-305.66
179.33	3466.67
179.549	-433.33
179.768	304.55
179.987	187.02
180.207	150.2
180.426	81.01
180.645	68.72
180.864	160.28
181.084	153.7
181.303	162.71
181.522	79.78
181.741	2500
181.96	198.95
182.179	8.06
182.398	1150
182.618	123.81
182.837	74.19
183.056	87.5
183.275	120.18
183.494	100.63
183.713	144.37
183.932	102.15
184.151	365.85
184.37	63.68
184.589	-220.43
184.808	-43.18
185.027	-13.56
185.246	-225.74
185.465	1447.37
185.684	-123.85
185.903	134.72
186.122	124.7
186.341	29.67
186.56	479.31
186.779	-120.2
186.998	-697.4
187.216	-423.02
187.435	-387.91
187.654	-248.08
187.873	-503.06
188.092	-247.88
188.311	-1348.39
188.53	1470.59
188.748	-40
188.967	13.81
189.186	69.23
189.405	125
189.623	246.99
189.842	265.65
190.061	94.12
190.28	183.45
190.498	102.14
190.717	65.8
190.936	-15.13
191.154	-8.6
191.373	2.4
191.592	11.51
191.81	-16.41
192.029	-26.23
192.248	-38.04
192.466	-40.63
192.685	-29.19
192.904	-34.22
193.122	7.14
193.341	44.09
193.559	42.14
193.778	95.83
193.996	-23.17
194.215	53.97
194.433	6.21
194.652	-418.42
194.87	-231.25
195.089	-13.41
195.307	-67.79
195.526	-662.5
195.744	129.81
195.963	291.46
196.181	437.5
196.399	156.81
196.618	107.29
196.836	-420
197.055	-168.33
197.273	-262.34
197.491	613.95
197.71	161.11
197.928	385
198.146	55.56
198.365	59.13
198.583	151.61
198.801	278.18
199.019	-330.43
199.238	-7.32
199.456	-116.74
199.674	-147.73
199.892	-254.84
200.111	-173.3
200.329	-191.58
200.547	1202.5
200.765	312.84
200.983	-377
201.202	-136.93
201.42	-63.27
201.638	189.8
201.856	67.5
202.074	-2445.45
202.292	377.5
202.51	-131.82
202.728	-32.1
202.946	-221.9
203.165	-266.04
203.383	17.26
203.601	78.71
203.819	126.05
204.037	204.43
204.255	375.9
204.473	439.41
204.691	831.4
204.909	3216.67
205.127	-2826.92
205.345	-1962.16
205.562	-4642.86
205.78	-1830.3
205.998	496.52
206.216	432.43
206.434	545.33
206.652	151.63
206.87	232.8
207.088	278.91
207.306	727.5
207.523	-528.33
207.741	-124.03
207.959	-66.86
208.177	-20.33
208.395	-5.2
208.612	12.91
208.83	27.91
209.048	37.48
209.266	-0.18
209.483	41.36
209.701	28.01
209.919	36.91
210.136	-6.05
210.354	-188.41
210.572	159.18
210.79	267.05
211.007	132.12
211.225	116.74
211.442	117.54
211.66	115.22
211.878	98.17
212.095	110.15
212.313	89.74
212.53	81.75
212.748	80.99
212.966	100.28
213.183	45.92
213.401	192
213.618	-376.67
213.836	-148.61
214.053	482.76
214.271	367.33
214.488	315.87
214.705	-329.23
214.923	516.28
215.14	182.52
215.358	-180.49
215.575	557.89
215.793	30.3
216.01	-284
216.227	-618.75
216.445	88.43
216.662	75.17
216.879	29.15
217.097	42.9
217.314	56.45
217.531	68.97
217.749	84.47
217.966	88.35
218.183	48.08
218.4	36.83
218.618	36.67
218.835	51.99
219.052	-42.19
219.269	-80.77
219.487	65.52
219.704	58.02
219.921	-5.84
220.138	-26.04
220.355	-177.71
220.572	-45.48
220.79	-52.05
221.007	-93.47
221.224	-76.99
221.441	-78.24
221.658	-39.29
221.875	-59.59
222.092	-99.42
222.309	-246.47
222.526	-228.95
222.743	-196.82
222.96	-539.73
223.177	-4825
223.394	815.25
223.611	396.61
223.828	-365.69
224.045	-218.99
224.262	-150.94
224.479	-52.25
224.696	6.7
224.913	41.67
225.13	62.2
225.347	64.84
225.564	38.73
225.781	34.03
225.997	27.93
226.214	19.21
226.431	25.24
226.648	29.93
226.865	28.82
227.082	25.03
227.298	15.86
227.515	10.6
227.732	8.94
227.949	18.73
228.165	19.88
228.382	20.53
228.599	21.73
228.816	16.07
229.032	9.6
229.249	12.06
229.466	7.15
229.682	10.89
229.899	13.17
230.116	14.45
230.332	11.74
230.549	11.31
230.765	2.61
230.982	9.4
231.199	15.34
231.415	38.91
231.632	31.8
231.848	32.44
232.065	29.64
232.281	36.46
232.498	34.4
232.714	22.06
232.931	21.15
233.147	22.24
233.364	11.13
233.58	6.23
233.797	-18.91
234.013	-13.42
234.23	-4.88
234.446	-18.02
234.662	-24.44
234.879	-21.04
235.095	-6.7
235.312	-14.99
235.528	2.69
235.744	1.9
235.961	-1.68
236.177	6.41
236.393	3.16
236.61	-2.68
236.826	13.12
237.042	22.16
237.258	15.98
237.475	-0.36
237.691	2.15
237.907	-7.81
238.123	-2.66
238.339	-5.07
238.556	2.36
238.772	-8.64
238.988	-7.99
239.204	-15.22
239.42	-19.36
239.636	-16.89
239.853	-9.06
240.069	-10.07
240.285	-14.09
240.501	-11.56
240.717	-8.64
240.933	-10.76
241.149	-4.75
241.365	-5.99
241.581	-2.23
241.797	-0.98
242.013	-1.65
242.229	-7.22
242.445	-8.57
242.661	-2.76
242.877	-2.63
243.093	-8.95
243.309	-12.15
243.525	-18.67
243.741	-25.34
243.957	-24.08
244.173	-18.96
244.388	-15.08
244.604	-7.93
244.82	-3.12
245.036	-2.4
245.252	-0.21
245.468	0.57
245.683	3.43
245.899	3.45
246.115	6.61
246.331	4.8
246.547	4.58
246.762	5.29
246.978	4.82
247.194	3.76
247.409	3.84
247.625	4.72
247.841	7.92
248.057	9.27
248.272	8.36
248.488	10.43
248.703	12.36
248.919	13.07
249.135	14.35
249.35	18.61
249.566	20.33
249.782	19.54
249.997	18.82
250.213	14.82
250.428	14.32
250.644	15.83
250.859	12.45
251.075	9.42
251.29	6.75
251.506	7.69
251.721	7.24
251.937	7.08
252.152	3.67
252.368	-0.27
252.583	2.95
252.798	0.92
253.014	-0
253.229	1.16
253.445	6.9
253.66	13.83
253.875	10.12
254.091	2.21
254.306	2.55
254.521	14.81
254.737	16.1
254.952	16.99
255.167	7.74
255.383	8.38
255.598	6.2
255.813	10.44
256.028	6.38
256.244	5.74
256.459	7.54
256.674	5.54
256.889	1.66
257.104	3.87
257.32	1.33
257.535	6.25
257.75	7.66
257.965	9.61
258.18	6.51
258.395	3.76
258.61	4.78
258.826	4.1
259.041	4.37
259.256	5.86
259.471	6.05
259.686	5.53
259.901	4.71
260.116	3.43
260.331	0.94
260.546	2.68
260.761	5.99
260.976	2.91
261.191	3.54
261.406	3.77
261.621	1.42
261.836	1.14
262.05	3.24
262.265	4.59
262.48	5.84
262.695	6.48
262.91	6.4
263.125	3.47
263.34	7.78
263.555	8.74
263.769	9.16
263.984	11.25
264.199	10.19
264.414	12.19
264.629	14.07
264.843	12.27
265.058	12.99
265.273	10.3
265.488	10.66
265.702	8.25
265.917	6.48
266.132	2.68
266.346	-0.11
266.561	0.02
266.776	-3
266.99	-10.07
267.205	-9.64
267.42	-11.23
267.634	-11.54
267.849	-10.75
268.063	-8.28
268.278	-5.95
268.492	-3.69
268.707	-2.65
268.922	-4.12
269.136	-1.07
269.351	1.51
269.565	0.33
269.78	4.04
269.994	4.32
270.209	3.8
270.423	3.53
270.637	2.5
270.852	4.52
271.066	2.86
271.281	3.65
271.495	4.23
271.709	3.83
271.924	2.84
272.138	2.83
272.353	3.14
272.567	2.72
272.781	2.22
272.996	3.35
273.21	7.23
273.424	9.4
273.638	10.91
273.853	4.88
274.067	3.81
274.281	4.89
274.495	3.99
274.71	3.87
274.924	6.19
275.138	4.46
275.352	6.62
275.566	-1.06
275.781	-4.01
275.995	-4.9
276.209	-3.56
276.423	-2.37
276.637	-4.65
276.851	-3.51
277.065	-1.83
277.279	-3.09
277.493	0.71
277.707	-0.58
277.921	5.36
278.135	4.71
278.349	6.87
278.563	8.56
278.777	10.47
278.991	14.59
279.205	13.87
279.419	12.18
279.633	8.92
279.847	6.55
280.061	5.23
280.275	3.08
280.489	6.22
280.703	2.21
280.917	2.07
281.131	-2.55
281.344	-4.29
281.558	-6.96
281.772	-4.12
281.986	-4.62
282.2	-4.04
282.414	-3.36
282.627	-1.43
282.841	0.91
283.055	4.41
283.269	3.44
283.482	4.56
283.696	6.62
283.91	8.39
284.123	5.53
284.337	6.64
284.551	7.18
284.764	5.62
284.978	4.36
285.192	1.84
285.405	0.4
285.619	-0.03
285.833	1.07
286.046	-1.69
286.26	-3.6
286.473	-3.05
286.687	-3.07
286.9	-6.67
287.114	-5.92
287.327	-6.52
287.541	-6.26
287.754	-6.88
287.968	-4.29
288.181	-6.96
288.395	-4.73
288.608	-3.35
288.822	-2.14
289.035	-3.5
289.248	0.34
289.462	1.68
289.675	2.66
289.889	2.95
290.102	4.48
290.315	4.71
290.529	6.6
290.742	6.29
290.955	7.08
291.169	6.55
291.382	6.54
291.595	5.71
291.808	4.9
292.022	7.07
292.235	6.2
292.448	4.66
292.661	3.61
292.875	5.93
293.088	4.04
293.301	3
293.514	3.88
293.727	6.37
293.94	7.93
294.153	6.06
294.367	4.46
294.58	4.79
294.793	6.36
295.006	7.31
295.219	5.35
295.432	6.67
295.645	6.9
295.858	7.34
296.071	5.82
296.284	4.49
296.497	6.2
296.71	7.2
296.923	6.96
297.136	6.18
297.349	6.4
297.562	7.58
297.775	5.74
297.988	5.5
298.201	3.22
298.414	4.92
298.626	5.15
298.839	6.03
299.052	5.32
299.265	6.51
299.478	7.6
299.691	7.08
299.903	6.02
300.116	10.93
300.329	13.7
300.542	15.16
300.755	15.15
300.967	16
301.18	15.19
301.393	14.47
301.605	16.15
301.818	13.26
302.031	13.06
302.243	12.17
302.456	10.65
302.669	9.02
302.881	8.46
303.094	7.93
303.307	3.47
303.519	2.83
303.732	-0.1
303.944	-3.33
304.157	-2.61
304.37	-3.41
304.582	-0.34
304.795	-1.39
305.007	-6.23
305.22	-4.16
305.432	-2.67
305.645	1.47
305.857	2.38
306.069	5.01
306.282	6.37
306.494	4.88
306.707	5.14
306.919	6.4
307.132	8.64
307.344	12.41
307.556	8.5
307.769	6.8
307.981	5.69
308.193	4.27
308.406	5.21
308.618	4.53
308.83	7.84
309.043	9.37
309.255	4.51
309.467	3.17
309.679	1.94
309.892	5.3
310.104	6.47
310.316	7.77
310.528	8.54
310.74	7.16
310.953	7.11
311.165	6.74
311.377	5.63
311.589	7.15
311.801	6.91
312.013	6.34
312.225	7.51
312.437	5.68
312.649	4.06
312.862	4.62
313.074	4.79
313.286	1.61
313.498	1.9
313.71	1.32
313.922	2.89
314.134	2.08
314.346	6.04
314.558	3.89
314.77	6.56
314.982	8.37
315.193	5.74
315.405	6.04
315.617	9.7
315.829	7.51
316.041	7.72
316.253	7.71
316.465	8.37
316.677	4.24
316.888	4.38
317.1	1.67
317.312	-2.68
317.524	1.1
317.736	1.23
317.947	3.19
318.159	6.59
318.371	7.37
318.583	11.26
318.794	9.92
319.006	11.74
319.218	12.25
319.43	14.77
319.641	17.89
319.853	15.97
320.064	14.83
320.276	14.69
320.488	11.21
320.699	12.01
320.911	9.21
321.123	11.83
321.334	13.52
321.546	12.05
321.757	12.11
321.969	10.03
322.18	14
322.392	11.08
322.603	10.47
322.815	12.41
323.026	10.47
323.238	11.93
323.449	11.19
323.661	10.42
323.872	12.87
324.083	13.11
324.295	16.63
324.506	12.74
324.718	17.33
324.929	16.76
325.14	18.36
325.352	19.51
325.563	20.06
325.774	22.5
325.986	23.24
326.197	22.29
326.408	21.09
326.62	20.62
326.831	23.21
327.042	23.44
327.253	24.38
327.464	22.62
327.676	25.5
327.887	24.64
328.098	23.88
328.309	24.61
328.52	26.05
328.732	28.17
328.943	28.08
329.154	28.11
329.365	28.75
329.576	28.42
329.787	29.59
329.998	28.63
330.209	30.97
330.42	28.92
330.631	27.51
330.842	26.64
331.053	27.01
331.264	27.44
331.475	28.01
331.686	27.15
331.897	27.4
332.108	28.46
332.319	25.81
332.53	22.99
332.741	24.65
332.952	24.6
333.163	25.03
333.374	21.2
333.585	22.83
333.795	21.05
334.006	19.45
334.217	18.75
334.428	17.74
334.639	20.9
334.849	21.07
335.06	21.76
335.271	22.66
335.482	24.09
335.692	26.61
335.903	25.75
336.114	27.66
336.325	29.26
336.535	31.89
336.746	29.54
336.957	29.16
337.167	29.96
337.378	30.79
337.589	30.02
337.799	26.69
338.01	24.11
338.22	25.27
338.431	24.29
338.642	24.35
338.852	24.06
339.063	27.31
339.273	26.23
339.484	25.81
339.694	23.75
339.905	26.14
340.115	30.37
340.326	33.19
340.536	32.27
340.746	31.98
340.957	32.48
341.167	32.81
341.378	32.67
341.588	34.03
341.799	32.78
342.009	30.98
342.219	29.51
342.43	28.39
342.64	28.28
342.85	29.67
343.061	30.55
343.271	29.18
343.481	27.54
343.691	25.77
343.902	25.63
344.112	26.97
344.322	29.88
344.532	31.18
344.743	29.39
344.953	28.43
345.163	26.62
345.373	26.57
345.583	26.81
345.793	26.93
346.004	26.71
346.214	26.19
346.424	25.13
346.634	26.19
346.844	23.92
347.054	23.8
347.264	25.4
347.474	22.29
347.684	22.14
347.894	21.92
348.104	21.64
348.314	22.68
348.524	22.2
348.734	22.11
348.944	21.62
349.154	20.33
349.364	21.65
349.574	18.97
349.784	20.6
349.994	21.4
350.204	20.09
350.413	21.66
350.623	23.08
350.833	23.79
351.043	24.37
351.253	25.19
351.463	27.04
351.672	25.78
351.882	27.51
352.092	28.19
352.302	27.02
352.511	28.26
352.721	27.91
352.931	26.68
353.141	26.49
353.35	25.35
353.56	24.4
353.77	21.86
353.979	23.42
354.189	24.12
354.399	23.09
354.608	23.01
354.818	23.68
355.027	20.94
355.237	21.14
355.447	20.79
355.656	22.02
355.866	21.36
356.075	23.36
356.285	23.65
356.494	23.21
356.704	24.66
356.913	24.42
357.123	24.58
357.332	26.46
357.542	26
357.751	25.84
357.96	25.88
358.17	24.52
358.379	25.12
358.589	25.05
358.798	24.91
359.007	23.96
359.217	23.58
359.426	23.45
359.635	21.68
359.845	22.77
360.054	22.95
360.263	22.53
360.472	23.6
360.682	23.21
360.891	22.68
361.1	21.15
361.309	22.45
361.519	23.02
361.728	22.53
361.937	24.32
362.146	22.97
362.355	23.3
362.564	23.24
362.774	23.07
362.983	21.85
363.192	21.44
363.401	23.23
363.61	22.02
363.819	21.64
364.028	21.28
364.237	20.8
364.446	21.54
364.655	18.44
364.864	18.68
365.073	17.92
365.282	20.43
365.491	20.33
365.7	19.42
365.909	19.47
366.118	20.85
366.327	21.73
366.536	20.31
366.745	20.22
366.954	22.3
367.162	23.43
367.371	23.74
367.58	22.64
367.789	23.84
367.998	24.14
368.207	23.36
368.415	20.34
368.624	20.98
368.833	21.69
369.042	22.51
369.25	22.05
369.459	22.05
369.668	22.91
369.877	23.03
370.085	23.49
370.294	24.23
370.503	25.68
370.711	27.03
370.92	28.59
371.129	28.68
371.337	27.25
371.546	26.96
371.754	25.57
371.963	25.26
372.171	24.14
372.38	23.43
372.589	22.01
372.797	21.19
373.006	21.03
373.214	18.97
373.423	19.12
373.631	20.15
373.84	21.01
374.048	20.27
374.256	19.26
374.465	20.49
374.673	19.92
374.882	20.33
375.09	20.51
375.298	20.8
375.507	20.98
375.715	21.37
375.923	20.53
376.132	21.12
376.34	21.81
376.548	22.55
376.757	22.28
376.965	22.39
377.173	22.28
377.381	22.92
377.59	22.24
377.798	22.5
378.006	22.25
378.214	23.17
378.423	22.99
378.631	22.5
378.839	22.21
379.047	23.05
379.255	22.55
379.463	21.68
379.671	20.46
379.879	20.57
380.088	19.86
380.296	19.12
380.504	19.05
380.712	19.91
380.92	19.8
381.128	20.11
381.336	18.9
381.544	18.86
381.752	20.19
381.96	20.86
382.168	20.86
382.376	21.21
382.584	22.43
382.791	22.51
382.999	21.49
383.207	21.33
383.415	20.32
383.623	20.93
383.831	20.91
384.039	20.55
384.247	19.58
384.454	20.44
384.662	20.17
384.87	19.28
385.078	18.49
385.285	18.24
385.493	19.52
385.701	19.85
385.909	19.43
386.116	19.23
386.324	19.74
386.532	19.25
386.739	18.78
386.947	19.47
387.155	19.56
387.362	19.16
387.57	17.97
387.778	16.7
387.985	16.61
388.193	17.53
388.4	17.32
388.608	17.91
388.816	19.17
389.023	19.48
389.231	18.78
389.438	19.68
389.646	19.63
389.853	20.58
390.061	21.23
390.268	22.27
390.475	21.68
390.683	23.15
390.89	22.99
391.098	22.34
391.305	22.66
391.512	22.5
391.72	20.79
391.927	21.36
392.135	21.09
392.342	21.52
392.549	21.18
392.756	20.85
392.964	19.09
393.171	18.72
393.378	18.07
393.586	17.78
393.793	17.67
394	18.85
394.207	18.66
394.414	19
394.622	18.39
394.829	18.35
395.036	18.96
395.243	19.79
395.45	19.86
395.657	20.97
395.864	20.16
396.072	20.39
396.279	20.42
396.486	20.82
396.693	21.26
396.9	21.39
397.107	21.33
397.314	20.85
397.521	21.29
397.728	20.03
397.935	20.53
398.142	21.06
398.349	19.45
398.556	18.65
398.763	18.91
398.97	18.25
399.177	18.26
399.383	17.37
399.59	17.42
399.797	15.78
400.004	17.87
400.211	16.62
400.418	16.38
400.625	18.21
400.831	18.13
401.038	17.47
401.245	17.88
401.452	18.23
401.658	18.35
401.865	17.79
402.072	18.82
402.279	18.02
402.485	18.38
402.692	17.94
402.899	18.06
403.105	18.73
403.312	18.69
403.519	19.07
403.725	18.22
403.932	19.13
404.138	20.55
404.345	20.84
404.552	21.23
404.758	20.81
404.965	22.52
405.171	21.44
405.378	21.56
405.584	21.76
405.791	21.84
405.997	22.13
406.204	21.34
406.41	20.61
406.617	20.73
406.823	20.76
407.029	21.76
407.236	20.25
407.442	20.92
407.649	20.76
407.855	21.12
408.061	20.4
408.268	20.34
408.474	20.52
408.68	19.75
408.887	18.89
409.093	17.52
409.299	16.85
409.505	16.94
409.712	16.69
409.918	16.19
410.124	16.14
410.33	16.24
410.537	16.34
410.743	15.88
410.949	14.99
411.155	15.73
411.361	15.67
411.567	16.54
411.773	16.34
411.98	17.36
412.186	17.25
412.392	16.49
412.598	16.77
412.804	15.63
413.01	16.73
413.216	17.65
413.422	17.86
413.628	18.85
413.834	17.92
414.04	17.63
414.246	17.4
414.452	17.4
414.658	17.25
414.864	17.38
415.07	18.22
415.275	17.66
415.481	17.48
415.687	17.4
415.893	17.41
416.099	16.82
416.305	17.2
416.511	16.82
416.716	17.22
416.922	17.56
417.128	17.13
417.334	17.78
417.539	18.42
417.745	18.61
417.951	18.28
418.157	18.44
418.362	19.22
418.568	19.96
418.774	20.27
418.979	19.52
419.185	19.57
419.391	19.51
419.596	19.18
419.802	18.93
420.008	19.11
420.213	23.27
420.419	23.07
420.624	22.52
420.83	21.76
421.035	21.81
421.241	22.64
421.446	22.96
421.652	23.2
421.857	23.02
422.063	22.26
422.268	22
422.474	17.92
422.679	17.53
422.885	17.81
423.09	17.93
423.295	17.79
423.501	17.82
423.706	17.54
423.911	17.29
424.117	17.3
424.322	17.55
424.527	17.67
424.733	17.6
424.938	18.33
425.143	18.95
425.349	19.12
425.554	19.05
425.759	18.56
425.964	18.61
426.169	18.9
426.375	19.16
426.58	19.37
426.785	19.3
426.99	19.49
427.195	18.75
427.4	18.14
427.605	18.24
427.811	18.22
428.016	18.82
428.221	18.24
428.426	18.39
428.631	18.02
428.836	17.68
429.041	17.84
429.246	17.5
429.451	18.54
429.656	18.64
429.861	18.34
430.066	18.2
430.271	17.47
430.476	18.13
430.681	18.15
430.886	17.84
431.09	18.54
431.295	18.77
431.5	18.96
431.705	18.34
431.91	18.54
432.115	18.97
432.32	19.15
432.524	19.09
432.729	19.4
432.934	18.97
433.139	18.96
433.343	18.97
433.548	18.77
433.753	19
433.958	18.93
434.162	18.94
434.367	18.68
434.572	18.53
434.776	18.64
434.981	18.95
435.186	18.8
435.39	19.21
435.595	18.28
435.799	18.34
436.004	17.66
436.209	18.03
436.413	17.62
436.618	17.83
436.822	17.88
437.027	18.12
437.231	16.92
437.436	17.38
437.64	17.52
437.845	17.34
438.049	17.38
438.253	18
438.458	17.71
438.662	18.41
438.867	17.88
439.071	17.55
439.275	17.12
439.48	17.43
439.684	17.06
439.888	16.94
440.093	17.01
440.297	16.55
440.501	16.39
440.706	16.2
440.91	15.38
441.114	15.51
441.318	15.68
441.523	16.15
441.727	15.82
441.931	16.28
442.135	15.86
442.339	16.53
442.543	16.34
442.748	15.95
442.952	16.56
443.156	16.43
443.36	16.54
443.564	16.43
443.768	16.32
443.972	16.44
444.176	16.51
444.38	16.46
444.584	15.95
444.788	16.48
444.992	16.79
445.196	16.59
445.4	17.01
445.604	17.12
445.808	17.04
446.012	16.93
446.216	16.95
446.42	16.72
446.624	16.97
446.828	17.25
447.032	17.66
447.235	16.96
447.439	16.62
447.643	16.65
447.847	16.55
448.051	16.81
448.254	16.94
448.458	16.41
448.662	16.73
448.866	16.5
449.069	16.71
449.273	16.56
449.477	17.35
449.681	17.36
449.884	17.06
450.088	17.12
450.292	16.92
450.495	17.23
450.699	18.15
450.902	17.9
451.106	18.63
451.31	18.54
451.513	18.51
451.717	18.41
451.92	18.51
452.124	18.48
452.327	18.5
452.531	18.24
452.734	17.66
452.938	17.87
453.141	17.76
453.345	17.54
453.548	17.34
453.752	17.07
453.955	16.95
454.158	16.67
454.362	16.52
454.565	16.09
454.769	16.29
454.972	15.72
455.175	15.71
455.379	15.71
455.582	15.63
455.785	15.5
455.988	15.14
456.192	14.97
456.395	15.06
456.598	14.95
456.801	15.39
457.005	15.52
457.208	15.96
