Data from JASIL_2991_Reflection_01.txt Node
Date: Mon Nov 09 09:45:38 EST 2015
User: Geneva
Spectrometer: USB4E03002
Autoset integration time: false
Trigger mode: 4
Integration Time (sec): 1.000000E-1
Scans to average: 10
Electric dark correction enabled: false
Nonlinearity correction enabled: false
Boxcar width: 5
Stray light correction enabled: false
XAxis mode: Wavelengths
Stop averaging: false
Number of Pixels in Spectrum: 3648
>>>>>Begin Spectral Data<<<<<
177.575	13.52
177.794	-7.94
178.014	2.67
178.233	-3.43
178.452	13.23
178.672	17.33
178.891	27.5
179.11	24.26
179.33	42.86
179.549	23.39
179.768	12.93
179.987	23.24
180.207	65.14
180.426	59.15
180.645	45.55
180.864	20.77
181.084	12.31
181.303	7.79
181.522	1.33
181.741	-0.62
181.96	12.59
182.179	6.21
182.398	10.92
182.618	17.43
182.837	25.63
183.056	41.65
183.275	28.07
183.494	42.71
183.713	39.64
183.932	62.54
184.151	48.19
184.37	40.63
184.589	36.75
184.808	26.64
185.027	5.06
185.246	-21.7
185.465	1.46
185.684	11.1
185.903	0.34
186.122	4.43
186.341	-25.09
186.56	-43.07
186.779	0.52
186.998	23.53
187.216	17.83
187.435	9.72
187.654	33.84
187.873	12.13
188.092	40.56
188.311	55.48
188.53	50.14
188.748	46.23
188.967	39.46
189.186	21.14
189.405	-0
189.623	21.22
189.842	44.52
190.061	46.15
190.28	84
190.498	55.38
190.717	50
190.936	12.73
191.154	35.25
191.373	84.8
191.592	125.28
191.81	174.47
192.029	258.62
192.248	241.22
192.466	89.31
192.685	87.54
192.904	87.06
193.122	111.49
193.341	151.9
193.559	138.65
193.778	145.03
193.996	78.71
194.215	39.02
194.433	60.53
194.652	24.76
194.87	38.66
195.089	31.48
195.307	25.79
195.526	21.91
195.744	12.41
195.963	17.66
196.181	-17.12
196.399	-39.22
196.618	-3.34
196.836	-11.59
197.055	7.45
197.273	-10.98
197.491	-31.92
197.71	-34.78
197.928	-53.58
198.146	-36.62
198.365	-64.36
198.583	-25.14
198.801	-0.53
199.019	-32.78
199.238	-33.33
199.456	-46.55
199.674	-18.05
199.892	-3.21
200.111	-11.08
200.329	-22.34
200.547	38.99
200.765	37.04
200.983	-0.75
201.202	-49.57
201.42	-65.55
201.638	-106.47
201.856	-402.82
202.074	1129.73
202.292	817.07
202.51	-115.76
202.728	-88.49
202.946	-272.73
203.165	-165.9
203.383	-118.64
203.601	-175.17
203.819	-316.86
204.037	-167.62
204.255	-124.74
204.473	-83.82
204.691	-93.89
204.909	-156.99
205.127	-151.96
205.345	-147.6
205.562	-367.42
205.78	-114.84
205.998	-39.02
206.216	-74.07
206.434	-128.28
206.652	-86.87
206.87	-43.88
207.088	-82.14
207.306	-104.79
207.523	-119.07
207.741	-79.75
207.959	-82.13
208.177	-176.68
208.395	-122.26
208.612	-11.11
208.83	45.92
209.048	44.25
209.266	1.56
209.483	10.35
209.701	57.04
209.919	64.66
210.136	9.97
210.354	73.3
210.572	114.25
210.79	84.3
211.007	73.63
211.225	54.15
211.442	39.58
211.66	58.18
211.878	84.34
212.095	94.19
212.313	94.76
212.53	88.49
212.748	81.68
212.966	84.05
213.183	84.9
213.401	76.99
213.618	74.93
213.836	81.93
214.053	76.21
214.271	71.44
214.488	50.15
214.705	42.96
214.923	53.33
215.14	59.24
215.358	39.89
215.575	34.63
215.793	38.95
216.01	44.23
216.227	42.67
216.445	53.32
216.662	31.29
216.879	52.56
217.097	42.17
217.314	13.03
217.531	-26.16
217.749	-46.26
217.966	-45.14
218.183	-57.05
218.4	-204.65
218.618	-134.33
218.835	-88.53
219.052	-342.86
219.269	-785.96
219.487	-279.53
219.704	-682.54
219.921	708.77
220.138	174.36
220.355	193.15
220.572	0
220.79	-609.09
221.007	-128.03
221.224	-192.65
221.441	-46.52
221.658	-108.61
221.875	-90.36
222.092	-39.57
222.309	-30.09
222.526	-43.69
222.743	-54.87
222.96	-48.02
223.177	-22.98
223.394	-41.03
223.611	-36.44
223.828	-105.81
224.045	-72.55
224.262	-16.54
224.479	-36.7
224.696	-38.36
224.913	-45.21
225.13	-42.22
225.347	-27.27
225.564	-45.14
225.781	-44.27
225.997	-40.55
226.214	-21.41
226.431	-21.73
226.648	-35.99
226.865	-26.33
227.082	-29.76
227.298	-32.15
227.515	-30.72
227.732	-31.03
227.949	-28.19
228.165	-19.63
228.382	-15.13
228.599	-12.46
228.816	-14.69
229.032	-21.58
229.249	-29.21
229.466	-18.48
229.682	-18.11
229.899	-5.29
230.116	-10.96
230.332	-10.75
230.549	-12.14
230.765	-33.02
230.982	-26.36
231.199	-14.06
231.415	12.7
231.632	16.62
231.848	8.73
232.065	16
232.281	-5.06
232.498	20.09
232.714	36.69
232.931	36.94
233.147	41.86
233.364	43.08
233.58	37.22
233.797	15.14
234.013	13.58
234.23	7.26
234.446	13.6
234.662	24.59
234.879	11.1
235.095	6.57
235.312	-4.13
235.528	-16.64
235.744	-11.1
235.961	-8.19
236.177	7.18
236.393	5.27
236.61	6.66
236.826	2.5
237.042	5.67
237.258	6.82
237.475	5.26
237.691	5.85
237.907	5.19
238.123	-16.94
238.339	-22.49
238.556	-27.14
238.772	-39.9
238.988	-30.11
239.204	-25.37
239.42	-26.19
239.636	-14.31
239.853	-9.69
240.069	-8.84
240.285	-4.14
240.501	4.2
240.717	5.38
240.933	9.23
241.149	16.5
241.365	19.83
241.581	17.65
241.797	18.22
242.013	14.31
242.229	11.63
242.445	17.04
242.661	20.89
242.877	18.37
243.093	20.1
243.309	13.55
243.525	5.35
243.741	2.01
243.957	2.88
244.173	1.37
244.388	-0.29
244.604	0.29
244.82	-5.76
245.036	-6.18
245.252	-3.69
245.468	-2.81
245.683	-1.2
245.899	2.6
246.115	1.12
246.331	-0.1
246.547	-0.43
246.762	1.57
246.978	0.44
247.194	2.56
247.409	2.89
247.625	4.5
247.841	7.82
248.057	8.77
248.272	11.79
248.488	17.41
248.703	22.9
248.919	19.23
249.135	16.19
249.35	22.55
249.566	17.55
249.782	14.82
249.997	14.37
250.213	9.56
250.428	15.03
250.644	14.93
250.859	13.56
251.075	10.21
251.29	11.64
251.506	16.01
251.721	9.09
251.937	13.93
252.152	16.76
252.368	16.01
252.583	11.75
252.798	4.68
253.014	5.25
253.229	4.87
253.445	3.41
253.66	11.67
253.875	1.49
254.091	3.52
254.306	3.56
254.521	5.18
254.737	9.17
254.952	10.1
255.167	10.43
255.383	3.16
255.598	2.78
255.813	7.5
256.028	5.31
256.244	7.19
256.459	7.22
256.674	11.61
256.889	9.2
257.104	3.66
257.32	7.93
257.535	8.06
257.75	5.47
257.965	6.03
258.18	7.26
258.395	6.06
258.61	6.74
258.826	5.77
259.041	3.74
259.256	1.85
259.471	3.49
259.686	3.28
259.901	1
260.116	0.97
260.331	-2.2
260.546	-1.46
260.761	0
260.976	-3.13
261.191	0.37
261.406	-3.18
261.621	2.66
261.836	0
262.05	-5.32
262.265	-1.53
262.48	-0.7
262.695	0.16
262.91	-5.99
263.125	-6.07
263.34	-0.52
263.555	2.51
263.769	3.64
263.984	7.31
264.199	6.72
264.414	10.15
264.629	9.41
264.843	10.65
265.058	9.83
265.273	10.79
265.488	12.32
265.702	11.62
265.917	9.78
266.132	11.97
266.346	9.04
266.561	14.41
266.776	15.29
266.99	15.5
267.205	17.89
267.42	19.76
267.634	18
267.849	16.01
268.063	16.9
268.278	15.37
268.492	16.13
268.707	14.63
268.922	11.76
269.136	8.47
269.351	5
269.565	3.93
269.78	5.4
269.994	9.92
270.209	9.9
270.423	8.52
270.637	8.63
270.852	6.93
271.066	7.24
271.281	7.08
271.495	6.47
271.709	8.15
271.924	8.23
272.138	7.45
272.353	7.42
272.567	7.24
272.781	6.78
272.996	9.55
273.21	8.26
273.424	5.79
273.638	5.47
273.853	6.88
274.067	8.2
274.281	8.35
274.495	9.78
274.71	8.87
274.924	8.18
275.138	7.11
275.352	6.42
275.566	8.75
275.781	10.64
275.995	11.51
276.209	13.73
276.423	13.45
276.637	11.36
276.851	10.11
277.065	9.13
277.279	8.48
277.493	9.79
277.707	6.26
277.921	3.42
278.135	2.93
278.349	0.68
278.563	-3.76
278.777	-6.55
278.991	-7.56
279.205	-7.57
279.419	-8.08
279.633	-11
279.847	-15.1
280.061	-15.16
280.275	-10.8
280.489	-9.96
280.703	-8.24
280.917	-4.23
281.131	-1.89
281.344	2.05
281.558	1.29
281.772	0.83
281.986	2.43
282.2	5.54
282.414	7.34
282.627	7.85
282.841	7.86
283.055	6.2
283.269	5.41
283.482	4.86
283.696	4.66
283.91	5.35
284.123	3.65
284.337	5.2
284.551	3.53
284.764	6.51
284.978	5.99
285.192	6.63
285.405	6.85
285.619	5.87
285.833	6.99
286.046	4.87
286.26	1.82
286.473	3.56
286.687	2.21
286.9	5.4
287.114	-0.1
287.327	0.22
287.541	-2.02
287.754	-2.57
287.968	-1.59
288.181	-3.75
288.395	-2.94
288.608	-0.66
288.822	0.5
289.035	0.65
289.248	-1.58
289.462	-1.09
289.675	-1.28
289.889	-0.93
290.102	4.02
290.315	3.69
290.529	3.64
290.742	2.98
290.955	3.24
291.169	4.66
291.382	6.79
291.595	3.65
291.808	7.17
292.022	4.37
292.235	7.64
292.448	5.6
292.661	4.38
292.875	2.49
293.088	4.24
293.301	4.83
293.514	2.88
293.727	0.97
293.94	3.66
294.153	1
294.367	2.37
294.58	-0.74
294.793	-2.33
295.006	-2.43
295.219	0.15
295.432	-1.02
295.645	-1.15
295.858	-1.18
296.071	-0.27
296.284	-0.07
296.497	-0.27
296.71	-1.37
296.923	0.44
297.136	0.63
297.349	4.31
297.562	5.95
297.775	6.83
297.988	8.42
298.201	10.09
298.414	10.75
298.626	11.72
298.839	11.09
299.052	13.52
299.265	12.38
299.478	12.18
299.691	11.56
299.903	11.66
300.116	6.75
300.329	5.39
300.542	4.17
300.755	5.74
300.967	6.76
301.18	7.81
301.393	4.64
301.605	4.26
301.818	2.09
302.031	-0.72
302.243	-4.08
302.456	-1.01
302.669	-0.12
302.881	-0.42
303.094	-3.17
303.307	-4.55
303.519	-4.78
303.732	-3.85
303.944	-1.06
304.157	3.95
304.37	6.4
304.582	6
304.795	8.52
305.007	8.36
305.22	7.05
305.432	4.89
305.645	3.51
305.857	5.25
306.069	8.32
306.282	5.48
306.494	3.19
306.707	-1.71
306.919	0.48
307.132	0.38
307.344	-1.53
307.556	-1.1
307.769	4.05
307.981	4.31
308.193	2.67
308.406	1.11
308.618	4.01
308.83	6.26
309.043	11.35
309.255	12.25
309.467	11.08
309.679	12.2
309.892	13.54
310.104	12.15
310.316	13.07
310.528	15.37
310.74	14.9
310.953	14.59
311.165	14.42
311.377	10.86
311.589	8.11
311.801	9.23
312.013	9.2
312.225	10.35
312.437	11.4
312.649	11.4
312.862	8.87
313.074	7.97
313.286	9.92
313.498	8.68
313.71	8.12
313.922	9.64
314.134	11.8
314.346	10.94
314.558	9.51
314.77	7.98
314.982	9.88
315.193	12.13
315.405	12.28
315.617	10.69
315.829	9.58
316.041	12.52
316.253	11.61
316.465	7.86
316.677	7.64
316.888	9.39
317.1	9.34
317.312	6.5
317.524	3.35
317.736	7.5
317.947	5.91
318.159	5.53
318.371	6.64
318.583	6.09
318.794	6.75
319.006	8.23
319.218	4.82
319.43	4.94
319.641	7.79
319.853	8.14
320.064	3.22
320.276	3.4
320.488	4.79
320.699	4.24
320.911	7.95
321.123	11.52
321.334	8.52
321.546	9.87
321.757	8.56
321.969	8.51
322.18	11.28
322.392	11.51
322.603	7.46
322.815	8.82
323.026	10.61
323.238	8.67
323.449	6.78
323.661	9.4
323.872	7.3
324.083	9.88
324.295	6.8
324.506	3.95
324.718	4.11
324.929	8.4
325.14	6.38
325.352	6.21
325.563	8.56
325.774	8.09
325.986	7.93
326.197	10.12
326.408	8.51
326.62	9.56
326.831	13.68
327.042	12.93
327.253	14.09
327.464	13.75
327.676	13.49
327.887	12.98
328.098	12.3
328.309	13.72
328.52	9.95
328.732	11.18
328.943	11.22
329.154	8.5
329.365	12.2
329.576	10.9
329.787	12.49
329.998	9.25
330.209	7.92
330.42	10.85
330.631	7.11
330.842	12.12
331.053	12.33
331.264	11.23
331.475	12.17
331.686	13.08
331.897	12.77
332.108	10.91
332.319	13.26
332.53	12.13
332.741	11.59
332.952	14.79
333.163	11.52
333.374	12.39
333.585	12.5
333.795	11.75
334.006	12.57
334.217	14.77
334.428	16.89
334.639	18.02
334.849	17.36
335.06	17.95
335.271	16.5
335.482	18.2
335.692	15.31
335.903	17.34
336.114	18.33
336.325	17.41
336.535	15.12
336.746	15.2
336.957	15.2
337.167	15.42
337.378	15.48
337.589	15.28
337.799	15.02
338.01	17.58
338.22	17.91
338.431	15.2
338.642	12.72
338.852	13.05
339.063	11.18
339.273	11.22
339.484	13.55
339.694	11.16
339.905	10.4
340.115	12.31
340.326	10.09
340.536	9.51
340.746	9.72
340.957	10.54
341.167	11.75
341.378	11.8
341.588	9.07
341.799	8.46
342.009	8.77
342.219	8.13
342.43	6.21
342.64	7.45
342.85	9.32
343.061	10.93
343.271	10.09
343.481	10.54
343.691	10.86
343.902	12.76
344.112	12.14
344.322	10.99
344.532	13.54
344.743	11.98
344.953	10.74
345.163	7.78
345.373	7.85
345.583	7.05
345.793	5.44
346.004	6.17
346.214	3.85
346.424	3.87
346.634	4.07
346.844	3.42
347.054	7.35
347.264	6.77
347.474	7.41
347.684	9
347.894	11.19
348.104	11.87
348.314	11.91
348.524	12.53
348.734	14.81
348.944	15.43
349.154	13.32
349.364	12.74
349.574	15.11
349.784	15.7
349.994	15.45
350.204	14.97
350.413	15.03
350.623	16.86
350.833	17.48
351.043	13.79
351.253	15.63
351.463	17.19
351.672	15.14
351.882	15.52
352.092	14.09
352.302	15.36
352.511	14.67
352.721	13.07
352.931	12.53
353.141	10.87
353.35	13.36
353.56	11.55
353.77	8.97
353.979	9.92
354.189	8.51
354.399	8.76
354.608	8.34
354.818	8.02
355.027	9.06
355.237	7.84
355.447	10.19
355.656	8.46
355.866	9.16
356.075	11.46
356.285	11.45
356.494	10.33
356.704	11.09
356.913	9.22
357.123	9.67
357.332	9.12
357.542	8.54
357.751	6.93
357.96	7.41
358.17	7.9
358.379	6.06
358.589	5.9
358.798	7.28
359.007	8.02
359.217	7.49
359.426	6.92
359.635	5.95
359.845	6.16
360.054	6.37
360.263	8.16
360.472	8.19
360.682	8.22
360.891	8.15
361.1	8.65
361.309	8.16
361.519	8.49
361.728	10.36
361.937	10.77
362.146	11.26
362.355	12.3
362.564	10.41
362.774	8.55
362.983	9.23
363.192	9.53
363.401	9.24
363.61	8.67
363.819	9.53
364.028	7
364.237	8.63
364.446	8.76
364.655	8.49
364.864	9.44
365.073	10.77
365.282	9.94
365.491	11.13
365.7	10.88
365.909	11
366.118	9.95
366.327	9.71
366.536	8.87
366.745	7.92
366.954	8.48
367.162	8.32
367.371	7.31
367.58	8.11
367.789	6.07
367.998	7.63
368.207	9.01
368.415	10.2
368.624	11.4
368.833	11.83
369.042	12.1
369.25	11.4
369.459	11.19
369.668	12.14
369.877	12.33
370.085	13.81
370.294	12.8
370.503	11.42
370.711	11.85
370.92	10.95
371.129	10.28
371.337	9.36
371.546	8.91
371.754	10.7
371.963	10.32
372.171	10.93
372.38	10.26
372.589	9.23
372.797	7.81
373.006	6.92
373.214	5.99
373.423	7.14
373.631	8.76
373.84	8.68
374.048	7.06
374.256	6.77
374.465	6.46
374.673	6.25
374.882	6.66
375.09	7.86
375.298	7.12
375.507	8.28
375.715	7.42
375.923	6.54
376.132	7.21
376.34	6.25
376.548	7.26
376.757	5.99
376.965	5.2
377.173	5.8
377.381	4.36
377.59	5.01
377.798	5.42
378.006	4.4
378.214	4.16
378.423	4.55
378.631	5.27
378.839	3.67
379.047	5
379.255	4.56
379.463	4.26
379.671	6.01
379.879	4.68
380.088	4.65
380.296	4.22
380.504	5.81
380.712	5.06
380.92	5.37
381.128	7.67
381.336	7.72
381.544	9.8
381.752	8.31
381.96	8.37
382.168	9.14
382.376	9.23
382.584	9.11
382.791	7.87
382.999	7.15
383.207	6.14
383.415	6.17
383.623	6.67
383.831	6.34
384.039	6.63
384.247	6.9
384.454	6.29
384.662	5.82
384.87	6.62
385.078	7.36
385.285	8.3
385.493	8.06
385.701	7.04
385.909	6.35
386.116	6.43
386.324	8.49
386.532	8.25
386.739	9.81
386.947	10.77
387.155	10.86
387.362	11.12
387.57	9.83
387.778	11.5
387.985	12.7
388.193	12.69
388.4	12.34
388.608	10.41
388.816	9.19
389.023	8.59
389.231	7.41
389.438	8.74
389.646	8.38
389.853	10.55
390.061	8.96
390.268	7.42
390.475	7.95
390.683	6.73
390.89	8.37
391.098	9.24
391.305	8.53
391.512	9.33
391.72	8.53
391.927	7.86
392.135	5.71
392.342	6.22
392.549	6.46
392.756	6.43
392.964	7.67
393.171	6.82
393.378	6.49
393.586	7
393.793	6.64
394	6.2
394.207	7.92
394.414	9.57
394.622	8.75
394.829	8.7
395.036	7.79
395.243	7.81
395.45	9.52
395.657	9.27
395.864	8.25
396.072	8.27
396.279	9.93
396.486	8.63
396.693	8.69
396.9	10.2
397.107	11.2
397.314	10.92
397.521	10.1
397.728	8.86
397.935	8.56
398.142	9.13
398.349	8.62
398.556	6.69
398.763	6.38
398.97	5.48
399.177	5.27
399.383	4.94
399.59	4.43
399.797	4.3
400.004	4.58
400.211	4.59
400.418	5.79
400.625	7.09
400.831	8.97
401.038	9.36
401.245	8.65
401.452	8.33
401.658	8.47
401.865	10.07
402.072	10.68
402.279	9.55
402.485	10.84
402.692	9.36
402.899	8.73
403.105	7.45
403.312	7.42
403.519	7.65
403.725	7.53
403.932	7.05
404.138	6.67
404.345	6.36
404.552	6.21
404.758	5.74
404.965	6.87
405.171	7.12
405.378	7.5
405.584	8.13
405.791	10.28
405.997	10.6
406.204	10.77
406.41	10.46
406.617	10.89
406.823	11.17
407.029	10.96
407.236	10.28
407.442	10.6
407.649	10.85
407.855	10.06
408.061	8.31
408.268	8.53
408.474	9.17
408.68	9.16
408.887	8.55
409.093	9.19
409.299	8.83
409.505	10.02
409.712	8.75
409.918	8.48
410.124	9.45
410.33	9.16
410.537	10.33
410.743	9.17
410.949	9.09
411.155	8.88
411.361	8.68
411.567	8.74
411.773	8.63
411.98	8.84
412.186	9.51
412.392	7.64
412.598	8.15
412.804	6.83
413.01	6.79
413.216	7.23
413.422	7.19
413.628	6.45
413.834	7.76
414.04	6.2
414.246	6.68
414.452	5.63
414.658	5.72
414.864	4.31
415.07	3.91
415.275	4.59
415.481	6.04
415.687	6.03
415.893	7.34
416.099	5.71
416.305	6.62
416.511	7.11
416.716	7.15
416.922	8.04
417.128	8.71
417.334	8.67
417.539	8.76
417.745	8.06
417.951	8.15
418.157	7.29
418.362	7.76
418.568	7.37
418.774	7.31
418.979	7.7
419.185	7.27
419.391	6.97
419.596	7.14
419.802	6.98
420.008	6.71
420.213	2.8
420.419	2.91
420.624	3.02
420.83	3.09
421.035	3.08
421.241	3.06
421.446	2.64
421.652	2.75
421.857	2.36
422.063	2.23
422.268	1.85
422.474	5.49
422.679	5.57
422.885	5.46
423.09	5.63
423.295	5.3
423.501	4.75
423.706	5.01
423.911	5.11
424.117	5.35
424.322	5.79
424.527	5.86
424.733	6.22
424.938	5.8
425.143	5.51
425.349	5.2
425.554	5.99
425.759	6.25
425.964	6.37
426.169	6.3
426.375	6.03
426.58	5.15
426.785	5.5
426.99	5.43
427.195	6.52
427.4	7.12
427.605	7.67
427.811	6.64
428.016	6.92
428.221	7.18
428.426	7.64
428.631	8.16
428.836	8.42
429.041	7.98
429.246	7.95
429.451	7.44
429.656	6.91
429.861	6.03
430.066	6.07
430.271	6.87
430.476	6.76
430.681	6.32
430.886	6.16
431.09	6.7
431.295	6.31
431.5	7.07
431.705	7.14
431.91	7.62
432.115	7.55
432.32	7.44
432.524	6.84
432.729	6.12
432.934	5.87
433.139	6.09
433.343	5.4
433.548	6.12
433.753	5.73
433.958	5.83
434.162	5.5
434.367	5.42
434.572	4.63
434.776	4.3
434.981	4.68
435.186	4.65
435.39	4.93
435.595	5.17
435.799	4.92
436.004	5.33
436.209	5.41
436.413	5.64
436.618	6.37
436.822	6.69
437.027	6.66
437.231	7.07
437.436	7.2
437.64	6.57
437.845	5.63
438.049	5.87
438.253	5.29
438.458	4.48
438.662	3.77
438.867	3.53
439.071	3.8
439.275	4.03
439.48	3.92
439.684	4.21
439.888	4.22
440.093	4.28
440.297	4.43
440.501	5.17
440.706	5.86
440.91	6.38
441.114	6.36
441.318	6.37
441.523	6.37
441.727	5.91
441.931	5.7
442.135	5.81
442.339	5.87
442.543	5.73
442.748	4.93
442.952	4.5
443.156	4.51
443.36	4.93
443.564	4.97
443.768	5.11
443.972	4.98
444.176	5.06
444.38	5.24
444.584	5.91
444.788	5.9
444.992	5.92
445.196	5.52
445.4	5.89
445.604	5.75
445.808	5.83
446.012	5.72
446.216	6.27
446.42	6.63
446.624	6.4
446.828	6.51
447.032	6.36
447.235	6.13
447.439	6.57
447.643	6.87
447.847	6.52
448.051	6
448.254	6.07
448.458	5.88
448.662	5.96
448.866	5.8
449.069	5.97
449.273	6.11
449.477	6.56
449.681	6.96
449.884	6.17
450.088	6.47
450.292	7.5
450.495	7.59
450.699	8.39
450.902	8
451.106	8.53
451.31	7.72
451.513	8
451.717	8.56
451.92	8.65
452.124	8.79
452.327	8.51
452.531	8.27
452.734	7.71
452.938	6.78
453.141	6.7
453.345	6.25
453.548	6.38
453.752	6.58
453.955	6.55
454.158	5.87
454.362	5.9
454.565	6.36
454.769	6.49
454.972	6.96
455.175	6.89
455.379	6.36
455.582	6.65
455.785	7.09
455.988	5.94
456.192	4.82
456.395	5.05
456.598	4.68
456.801	4.37
457.005	4.56
457.208	4.18
457.411	4.14
457.614	4.19
457.817	3.95
458.021	3.83
458.224	3.9
458.427	3.5
458.63	3.5
458.833	3.24
459.036	3.06
459.239	2.55
459.442	3
459.645	3.39
459.848	3.63
460.051	3.93
460.254	4.09
460.457	4.35
460.66	4.89
460.863	4.72
461.066	5.15
461.269	5.33
461.472	5.71
461.675	5.71
461.878	5.29
462.081	5.04
462.284	4.78
462.486	4.91
462.689	4.97
462.892	5.02
463.095	5.75
463.298	5.56
463.5	6.39
463.703	6.23
463.906	5.86
464.109	6.2
464.311	6.87
464.514	7.06
464.717	6.81
464.92	7.31
465.122	6.87
465.325	6.13
465.528	6.28
465.73	5.7
