Data from JASIL_3901_Reflection_2.txt Node
Date: Sat Nov 07 20:10:08 EST 2015
User: Geneva
Spectrometer: USB4E03002
Autoset integration time: false
Trigger mode: 4
Integration Time (sec): 1.000000E-1
Scans to average: 10
Electric dark correction enabled: true
Nonlinearity correction enabled: false
Boxcar width: 5
Stray light correction enabled: false
XAxis mode: Wavelengths
Stop averaging: false
Number of Pixels in Spectrum: 3648
>>>>>Begin Spectral Data<<<<<
177.575	75.97
177.794	53.97
178.014	2.32
178.233	-11.92
178.452	-54.98
178.672	-40.21
178.891	121.9
179.11	318.05
179.33	236.74
179.549	145.44
179.768	99.93
179.987	110.39
180.207	120.07
180.426	117.8
180.645	169.94
180.864	178.57
181.084	194.92
181.303	322.15
181.522	229.62
181.741	208.56
181.96	166.02
182.179	181.52
182.398	242.17
182.618	209.94
182.837	165.82
183.056	219.15
183.275	254.19
183.494	238.14
183.713	164.04
183.932	195.8
184.151	191.93
184.37	193.44
184.589	127.3
184.808	102.84
185.027	117.48
185.246	133.32
185.465	92.29
185.684	89.89
185.903	93.03
186.122	114.02
186.341	132.69
186.56	153.57
186.779	170.85
186.998	162.69
187.216	173.83
187.435	156.11
187.654	151.6
187.873	207.47
188.092	156.41
188.311	152.02
188.53	149.38
188.748	114.1
188.967	103.07
189.186	105.06
189.405	138.33
189.623	139.06
189.842	125.6
190.061	122.83
190.28	154.29
190.498	176.32
190.717	162.42
190.936	159.8
191.154	177.85
191.373	158.42
191.592	159.51
191.81	142.53
192.029	134.54
192.248	154.35
192.466	141.69
192.685	100.06
192.904	104.04
193.122	116.3
193.341	121.32
193.559	114.27
193.778	122.25
193.996	107.35
194.215	136.33
194.433	151.7
194.652	168.13
194.87	187.9
195.089	205.96
195.307	196.61
195.526	178.83
195.744	160.41
195.963	139.3
196.181	138.37
196.399	164.57
196.618	148.33
196.836	140.86
197.055	130.82
197.273	128.95
197.491	122.5
197.71	123.73
197.928	125.58
198.146	125.29
198.365	165.49
198.583	154.28
198.801	152.61
199.019	121.9
199.238	151.21
199.456	128.76
199.674	139.51
199.892	179.26
200.111	150.11
200.329	151.75
200.547	163.8
200.765	151.42
200.983	153.13
201.202	154.93
201.42	170.31
201.638	119.99
201.856	159.62
202.074	169.88
202.292	171.62
202.51	183.92
202.728	184.72
202.946	176.96
203.165	147.04
203.383	158.27
203.601	150.36
203.819	151.63
204.037	158.63
204.255	151
204.473	170.33
204.691	196.08
204.909	182.06
205.127	191.15
205.345	173.77
205.562	186.83
205.78	187
205.998	183.37
206.216	175.58
206.434	180.36
206.652	160.33
206.87	137.26
207.088	139.42
207.306	149.36
207.523	134.82
207.741	139.17
207.959	136.72
208.177	162.05
208.395	159.77
208.612	177.87
208.83	188.13
209.048	234
209.266	247.52
209.483	225.45
209.701	262.17
209.919	343.94
210.136	352.92
210.354	296.34
210.572	175.26
210.79	180.04
211.007	149.79
211.225	134.18
211.442	139.75
211.66	124.95
211.878	127.07
212.095	40.77
212.313	30.02
212.53	31.97
212.748	35.7
212.966	54.53
213.183	43.41
213.401	37.63
213.618	43.66
213.836	38.64
214.053	43.67
214.271	36.28
214.488	102.44
214.705	107.48
214.923	117.31
215.14	128.15
215.358	123.45
215.575	131.94
215.793	138.06
216.01	153.84
216.227	168.46
216.445	150.38
216.662	144.82
216.879	144.27
217.097	156.8
217.314	158.27
217.531	147.94
217.749	127.87
217.966	127.07
218.183	121.45
218.4	121.9
218.618	115.84
218.835	114.74
219.052	105.64
219.269	112.72
219.487	97.51
219.704	91.29
219.921	86.75
220.138	90.13
220.355	93.9
220.572	96.8
220.79	95.97
221.007	91.76
221.224	96.39
221.441	105.88
221.658	99.7
221.875	107.9
222.092	102.37
222.309	98.29
222.526	101.77
222.743	98.35
222.96	100.96
223.177	108.01
223.394	99.44
223.611	105.38
223.828	97.71
224.045	95.03
224.262	88.23
224.479	89.41
224.696	90.55
224.913	85.89
225.13	84.14
225.347	80.29
225.564	80.47
225.781	81.94
225.997	78.57
226.214	81.08
226.431	75.97
226.648	76.61
226.865	71.22
227.082	70.89
227.298	70.47
227.515	67.87
227.732	66.28
227.949	64.76
228.165	63.59
228.382	60.21
228.599	58.55
228.816	57.66
229.032	57.49
229.249	59.91
229.466	58.55
229.682	55.99
229.899	55.76
230.116	53.44
230.332	51.32
230.549	54.1
230.765	59.08
230.982	59.83
231.199	65.55
231.415	67.55
231.632	68.67
231.848	69.18
232.065	72.15
232.281	72.28
232.498	75.98
232.714	76.53
232.931	72.68
233.147	68.85
233.364	68.82
233.58	65.95
233.797	66.34
234.013	64.85
234.23	64.83
234.446	64.18
234.662	63.05
234.879	64.01
235.095	60.96
235.312	62.19
235.528	65.08
235.744	66.98
235.961	67.57
236.177	63.08
236.393	61.69
236.61	65.32
236.826	62.05
237.042	59.64
237.258	58.48
237.475	59.32
237.691	58.59
237.907	54.55
238.123	52.68
238.339	51.04
238.556	55.22
238.772	56.63
238.988	54.16
239.204	55.25
239.42	59.16
239.636	57.25
239.853	56.45
240.069	53.17
240.285	51.74
240.501	48.21
240.717	46.95
240.933	44.57
241.149	42.81
241.365	42.73
241.581	43.41
241.797	41.18
242.013	42.07
242.229	43.19
242.445	42.92
242.661	43.71
242.877	47.02
243.093	48.6
243.309	49.69
243.525	51.38
243.741	51.6
243.957	51.06
244.173	51.94
244.388	49.26
244.604	45.75
244.82	44.28
245.036	42.31
245.252	39.98
245.468	39.39
245.683	38.24
245.899	37
246.115	36.81
246.331	36.34
246.547	35.64
246.762	35.41
246.978	35.97
247.194	35.86
247.409	36.09
247.625	36.14
247.841	34.99
248.057	35.02
248.272	35.33
248.488	34.61
248.703	33.63
248.919	35.09
249.135	36.19
249.35	35.58
249.566	37.98
249.782	38.24
249.997	38.77
250.213	39.07
250.428	38.91
250.644	38.52
250.859	39.4
251.075	40.46
251.29	39.05
251.506	38.47
251.721	37.69
251.937	36.34
252.152	37.04
252.368	36.91
252.583	38
252.798	38.86
253.014	39.18
253.229	38.44
253.445	37.93
253.66	38.45
253.875	37.47
254.091	37.34
254.306	37.92
254.521	35.55
254.737	35.34
254.952	33.41
255.167	31.38
255.383	32.15
255.598	32.94
255.813	31.57
256.028	31.83
256.244	31
256.459	32.55
256.674	31.16
256.889	29.43
257.104	27.7
257.32	28.42
257.535	28.34
257.75	26.31
257.965	25.07
258.18	25.53
258.395	24.68
258.61	25.06
258.826	24.35
259.041	24.47
259.256	24.67
259.471	24.57
259.686	24.25
259.901	23.97
260.116	24.58
260.331	24.77
260.546	24.56
260.761	24.45
260.976	24.39
261.191	24.3
261.406	24.01
261.621	23.99
261.836	25.07
262.05	25.17
262.265	25.14
262.48	24.2
262.695	23.66
262.91	24.22
263.125	24.55
263.34	24.32
263.555	26.26
263.769	26.66
263.984	27.23
264.199	26.68
264.414	25.87
264.629	26.94
264.843	27.54
265.058	27.25
265.273	25.38
265.488	24.71
265.702	24.27
265.917	22.66
266.132	22.16
266.346	21.8
266.561	21.44
266.776	22.27
266.99	20.95
267.205	21.41
267.42	21.05
267.634	21.51
267.849	21.87
268.063	21.81
268.278	22.75
268.492	23.19
268.707	22.39
268.922	22.67
269.136	21.18
269.351	21.17
269.565	21.27
269.78	21.55
269.994	21.98
270.209	22.01
270.423	22.21
270.637	20.87
270.852	20.4
271.066	20.89
271.281	20.82
271.495	21.85
271.709	22.65
271.924	21.72
272.138	21.74
272.353	21.39
272.567	21.14
272.781	20.76
272.996	21.45
273.21	21.9
273.424	22.17
273.638	21.54
273.853	21.37
274.067	21.03
274.281	21.48
274.495	21.81
274.71	21.94
274.924	21.37
275.138	21.72
275.352	22.08
275.566	22.23
275.781	22.22
275.995	22.71
276.209	22.58
276.423	22.2
276.637	21.98
276.851	21.8
277.065	22.03
277.279	23.3
277.493	22.94
277.707	22.56
277.921	22.02
278.135	20.91
278.349	20.76
278.563	20.63
278.777	20.73
278.991	20.82
279.205	20.7
279.419	20.21
279.633	20.17
279.847	20.56
280.061	20.47
280.275	19.6
280.489	20.49
280.703	19.83
280.917	19.04
281.131	18.82
281.344	18.72
281.558	18.24
281.772	18.01
281.986	17.82
282.2	17.32
282.414	16.86
282.627	17.12
282.841	17.12
283.055	17.91
283.269	18.23
283.482	17.95
283.696	17.5
283.91	17.45
284.123	17.08
284.337	17.15
284.551	16.91
284.764	17.3
284.978	17.5
285.192	16.96
285.405	16.49
285.619	16.33
285.833	16.69
286.046	16.81
286.26	16.97
286.473	17.75
286.687	17.39
286.9	17.97
287.114	17.64
287.327	17.41
287.541	17.6
287.754	17.95
287.968	18.04
288.181	18
288.395	17.94
288.608	18.46
288.822	18.07
289.035	17.61
289.248	17.51
289.462	17.78
289.675	17.44
289.889	17.6
290.102	17.35
290.315	17.96
290.529	17.56
290.742	17.98
290.955	17.53
291.169	17.6
291.382	17.8
291.595	17.8
291.808	17.25
292.022	17.66
292.235	17.68
292.448	17.47
292.661	16.93
292.875	17.06
293.088	16.93
293.301	16.63
293.514	16.41
293.727	16.53
293.94	16.75
294.153	17.01
294.367	17.24
294.58	16.87
294.793	16.79
295.006	16.76
295.219	17.12
295.432	16.69
295.645	17.06
295.858	16.69
296.071	16.42
296.284	15.87
296.497	15.85
296.71	15.53
296.923	15.57
297.136	15.48
297.349	15.49
297.562	15.19
297.775	15.48
297.988	15.19
298.201	15.67
298.414	15.78
298.626	16.14
298.839	16.45
299.052	17.22
299.265	17.71
299.478	17.63
299.691	17.76
299.903	17.69
300.116	17.66
300.329	17.86
300.542	18.15
300.755	18.91
300.967	18.6
301.18	17.88
301.393	17.24
301.605	16.73
301.818	17.02
302.031	16.94
302.243	16.86
302.456	16.51
302.669	16.43
302.881	16.52
303.094	16.03
303.307	15.98
303.519	16.71
303.732	16.92
303.944	16.92
304.157	16.84
304.37	16.89
304.582	16.89
304.795	16.99
305.007	17.53
305.22	17.58
305.432	18.08
305.645	18.58
305.857	17.94
306.069	17.29
306.282	17.87
306.494	18.23
306.707	18.44
306.919	18.59
307.132	18.31
307.344	17.71
307.556	16.83
307.769	16.73
307.981	16.43
308.193	16.39
308.406	16.65
308.618	16.14
308.83	15.86
309.043	15.78
309.255	15.94
309.467	16.27
309.679	16.35
309.892	16.66
310.104	16.34
310.316	16.12
310.528	16.27
310.74	16.34
310.953	16.21
311.165	16.15
311.377	15.3
311.589	15.23
311.801	15.17
312.013	14.79
312.225	14.88
312.437	15.12
312.649	15.72
312.862	15.7
313.074	15.49
313.286	15.54
313.498	15.53
313.71	16.3
313.922	16.46
314.134	16.53
314.346	17.05
314.558	16.98
314.77	17.35
314.982	17.54
315.193	17.47
315.405	17.67
315.617	18.05
315.829	18.08
316.041	18.45
316.253	18.24
316.465	18.24
316.677	18.1
316.888	18.01
317.1	17.04
317.312	16.6
317.524	16.96
317.736	17.51
317.947	17.18
318.159	17.57
318.371	16.9
318.583	16.89
318.794	16.37
319.006	16.49
319.218	16.72
319.43	17.03
319.641	17.28
319.853	17.55
320.064	17.26
320.276	17.71
320.488	17.96
320.699	18.38
320.911	18.39
321.123	19.72
321.334	19.99
321.546	19.98
321.757	20.01
321.969	20.15
322.18	19.64
322.392	19.7
322.603	19.23
322.815	18.62
323.026	18.44
323.238	18.25
323.449	17.69
323.661	17.75
323.872	17.99
324.083	18.43
324.295	18.45
324.506	18.28
324.718	18.37
324.929	18.57
325.14	19.16
325.352	19.23
325.563	19.81
325.774	19.63
325.986	19.47
326.197	19.29
326.408	19.12
326.62	18.64
326.831	18.85
327.042	18.66
327.253	18.52
327.464	18.47
327.676	18.63
327.887	18.19
328.098	18.11
328.309	17.86
328.52	17.88
328.732	17.59
328.943	18.35
329.154	18.12
329.365	18.87
329.576	19.31
329.787	19.37
329.998	19.51
330.209	19.46
330.42	19.63
330.631	19.97
330.842	19.73
331.053	20.17
331.264	19.64
331.475	20.14
331.686	19.13
331.897	19.15
332.108	18.9
332.319	18.64
332.53	18.63
332.741	18.55
332.952	19.04
333.163	19.13
333.374	19.23
333.585	19.19
333.795	18.79
334.006	19.12
334.217	19.02
334.428	18.89
334.639	19.09
334.849	19.25
335.06	19.1
335.271	18.4
335.482	18.47
335.692	18
335.903	18.06
336.114	18.57
336.325	18.43
336.535	18.77
336.746	19.19
336.957	18.96
337.167	18.97
337.378	19.24
337.589	19.61
337.799	19.69
338.01	19.6
338.22	19.44
338.431	19.43
338.642	19.86
338.852	19.49
339.063	18.4
339.273	18.58
339.484	18.47
339.694	18.52
339.905	18.45
340.115	18.39
340.326	18.65
340.536	18.32
340.746	17.92
340.957	17.5
341.167	17.35
341.378	18.11
341.588	17.9
341.799	17.73
342.009	17.61
342.219	17.35
342.43	17.51
342.64	17.21
342.85	17.54
343.061	17.51
343.271	17.74
343.481	17.61
343.691	16.92
343.902	16.81
344.112	16.7
344.322	16.83
344.532	17.01
344.743	16.47
344.953	16.34
345.163	16.05
345.373	16.03
345.583	15.66
345.793	15.65
346.004	16.17
346.214	16.21
346.424	16.89
346.634	16.67
346.844	16.57
347.054	16.87
347.264	17.39
347.474	17.59
347.684	17.49
347.894	17.73
348.104	18.02
348.314	18.29
348.524	18.17
348.734	17.63
348.944	17.74
349.154	17.61
349.364	17.37
349.574	17.08
349.784	17.07
349.994	17.41
350.204	17.03
350.413	16.79
350.623	16.3
350.833	16.37
351.043	16.08
351.253	15.87
351.463	15.71
351.672	16.11
351.882	16.04
352.092	15.99
352.302	15.76
352.511	16.44
352.721	16.35
352.931	16.4
353.141	16.57
353.35	17.05
353.56	16.68
353.77	16.66
353.979	16.14
354.189	16.12
354.399	15.9
354.608	15.7
354.818	15.24
355.027	15.08
355.237	15.11
355.447	14.7
355.656	14.55
355.866	14.92
356.075	15.02
356.285	15.17
356.494	15.18
356.704	15.17
356.913	15.34
357.123	15.46
357.332	15.58
357.542	15.84
357.751	15.94
357.96	15.95
358.17	15.55
358.379	15.37
358.589	15.57
358.798	15.28
359.007	15.68
359.217	15.48
359.426	15.42
359.635	15.44
359.845	15.39
360.054	15.27
360.263	15.23
360.472	15.33
360.682	15.33
360.891	15.02
361.1	15.15
361.309	14.73
361.519	14.77
361.728	14.66
361.937	14.58
362.146	14.37
362.355	14.51
362.564	14.3
362.774	14.27
362.983	14.28
363.192	14.49
363.401	14.59
363.61	14.56
363.819	14.63
364.028	14.64
364.237	14.32
364.446	14.18
364.655	14.32
364.864	14.53
365.073	14.49
365.282	14.5
365.491	14.28
365.7	13.97
365.909	14.38
366.118	14.18
366.327	13.82
366.536	14.25
366.745	14.29
366.954	14.31
367.162	14.22
367.371	14.2
367.58	13.97
367.789	13.93
367.998	14.2
368.207	14.12
368.415	14.37
368.624	14.78
368.833	14.68
369.042	14.66
369.25	14.44
369.459	14.32
369.668	14.36
369.877	14.44
370.085	14.47
370.294	14.38
370.503	14
370.711	13.65
370.92	13.45
371.129	13.38
371.337	13.15
371.546	12.95
371.754	12.92
371.963	12.69
372.171	12.7
372.38	12.54
372.589	12.62
372.797	12.37
373.006	12.26
373.214	12.35
373.423	12.33
373.631	12.55
373.84	12.67
374.048	12.53
374.256	12.48
374.465	12.57
374.673	12.48
374.882	12.24
375.09	12.57
375.298	12.73
375.507	12.39
375.715	12.39
375.923	12.06
376.132	12.09
376.34	12.12
376.548	12.19
376.757	12.22
376.965	12.4
377.173	12.59
377.381	12.9
377.59	13.05
377.798	13.13
378.006	12.81
378.214	12.86
378.423	12.79
378.631	12.85
378.839	12.89
379.047	12.72
379.255	12.72
379.463	12.48
379.671	11.91
379.879	11.86
380.088	12.31
380.296	12.53
380.504	12.53
380.712	12.31
380.92	12.38
381.128	12.32
381.336	12
381.544	11.95
381.752	11.87
381.96	12.12
382.168	11.78
382.376	11.23
382.584	11.24
382.791	11.43
382.999	11.53
383.207	11.27
383.415	11.41
383.623	11.51
383.831	11.42
384.039	11.56
384.247	11.31
384.454	11.37
384.662	11.5
384.87	11.51
385.078	11.3
385.285	11.01
385.493	11.13
385.701	10.91
385.909	10.91
386.116	10.9
386.324	10.58
386.532	10.67
386.739	10.54
386.947	10.49
387.155	10.42
387.362	10.27
387.57	10.5
387.778	10.41
387.985	10.53
388.193	10.6
388.4	10.56
388.608	10.65
388.816	10.61
389.023	10.56
389.231	10.46
389.438	10.49
389.646	10.49
389.853	10.43
390.061	10.2
390.268	9.94
390.475	9.79
390.683	9.7
390.89	9.71
391.098	9.69
391.305	9.89
391.512	9.88
391.72	9.67
391.927	9.83
392.135	9.91
392.342	9.94
392.549	9.97
392.756	10.02
392.964	10.03
393.171	10.04
393.378	10
393.586	9.75
393.793	9.78
394	9.79
394.207	9.76
394.414	9.57
394.622	9.65
394.829	9.52
395.036	9.54
395.243	9.48
395.45	9.08
395.657	9.16
395.864	9.26
396.072	9.17
396.279	9.37
396.486	9.15
396.693	9.29
396.9	9.17
397.107	9.19
397.314	9.07
397.521	8.97
397.728	9.15
397.935	9.17
398.142	9.03
398.349	8.92
398.556	8.67
398.763	8.55
398.97	8.44
399.177	8.63
399.383	8.75
399.59	8.95
399.797	9.05
400.004	8.91
400.211	8.77
400.418	8.74
400.625	8.88
400.831	9.05
401.038	9.24
401.245	9.32
401.452	9.17
401.658	9.07
401.865	8.83
402.072	8.88
402.279	8.89
402.485	8.74
402.692	8.7
402.899	8.52
403.105	8.33
403.312	8.52
403.519	8.41
403.725	8.37
403.932	8.4
404.138	8.33
404.345	8.09
404.552	8.14
404.758	8.22
404.965	8.23
405.171	8.34
405.378	8.38
405.584	8.16
405.791	8.04
405.997	8.02
406.204	8.08
406.41	8.2
406.617	8.3
406.823	8.16
407.029	8.17
407.236	8.2
407.442	8.05
407.649	7.87
407.855	7.66
408.061	7.67
408.268	7.68
408.474	7.39
408.68	7.23
408.887	7.4
409.093	7.54
409.299	7.42
409.505	7.42
409.712	7.43
409.918	7.49
410.124	7.56
410.33	7.57
410.537	7.49
410.743	7.68
410.949	7.59
411.155	7.52
411.361	7.61
411.567	7.76
411.773	7.71
411.98	7.72
412.186	7.95
412.392	8.04
412.598	7.89
412.804	7.93
413.01	7.82
413.216	7.89
413.422	7.77
413.628	7.7
413.834	7.34
414.04	7.31
414.246	7.35
414.452	7.27
414.658	7.24
414.864	7.27
415.07	7.14
415.275	7.13
415.481	7.06
415.687	7.01
415.893	7
416.099	7.12
416.305	6.96
416.511	6.93
416.716	6.81
416.922	6.69
417.128	6.66
417.334	6.77
417.539	6.71
417.745	6.59
417.951	6.56
418.157	6.44
418.362	6.43
418.568	6.46
418.774	6.47
418.979	6.41
419.185	6.41
419.391	6.42
419.596	6.36
419.802	6.33
420.008	6.36
420.213	6.43
420.419	6.4
420.624	6.32
420.83	6.38
421.035	6.3
421.241	6.28
421.446	6.24
421.652	6.21
421.857	6.23
422.063	6.16
422.268	6.18
422.474	6.11
422.679	6.09
422.885	6.07
423.09	5.87
423.295	5.76
423.501	5.74
423.706	5.67
423.911	5.57
424.117	5.44
424.322	5.54
424.527	5.52
424.733	5.39
424.938	5.4
425.143	5.46
425.349	5.6
425.554	5.72
425.759	5.75
425.964	5.88
426.169	5.95
426.375	6.04
426.58	6.02
426.785	5.99
426.99	6.21
427.195	6.33
427.4	6.26
427.605	6.24
427.811	6.26
428.016	6.28
428.221	6.27
428.426	6.28
428.631	6.36
428.836	6.31
429.041	6.28
429.246	6.17
429.451	6.14
429.656	6.29
429.861	6.17
430.066	6.24
430.271	6.22
430.476	6.18
430.681	6.15
430.886	6.06
431.09	6.04
431.295	5.99
431.5	6.01
431.705	5.82
431.91	5.66
432.115	5.69
432.32	5.48
432.524	5.47
432.729	5.41
432.934	5.38
433.139	5.37
433.343	5.39
433.548	5.57
433.753	5.58
433.958	5.71
434.162	5.75
434.367	5.79
434.572	5.88
434.776	5.87
434.981	5.93
435.186	6
435.39	5.88
435.595	5.9
435.799	5.72
436.004	5.74
436.209	5.6
436.413	5.63
436.618	5.55
436.822	5.54
437.027	5.41
437.231	5.46
437.436	5.31
437.64	5.36
437.845	5.33
438.049	5.38
438.253	5.29
438.458	5.28
438.662	5.21
438.867	5.23
439.071	5.29
439.275	5.42
439.48	5.39
439.684	5.44
439.888	5.48
440.093	5.55
440.297	5.59
440.501	5.71
440.706	5.75
440.91	5.84
441.114	5.93
441.318	5.88
441.523	5.9
441.727	5.89
441.931	5.99
442.135	6.02
442.339	5.96
442.543	5.92
442.748	5.78
442.952	5.66
443.156	5.65
443.36	5.58
443.564	5.52
443.768	5.36
443.972	5.31
444.176	5.25
444.38	5.19
444.584	5.14
444.788	5.05
444.992	4.97
445.196	5.08
445.4	4.99
445.604	4.95
445.808	4.93
446.012	4.96
446.216	4.95
446.42	4.99
446.624	4.98
446.828	4.99
447.032	5.02
447.235	5.03
447.439	5.05
447.643	5.15
447.847	5.22
448.051	5.28
448.254	5.31
448.458	5.34
448.662	5.31
448.866	5.36
449.069	5.29
449.273	5.42
449.477	5.47
449.681	5.44
449.884	5.22
450.088	5.23
450.292	5.12
450.495	5.07
450.699	5.09
450.902	4.98
451.106	5.01
451.31	5.21
451.513	5.05
451.717	5.03
451.92	5.02
452.124	5.16
452.327	5.17
452.531	5.31
452.734	5.28
452.938	5.33
453.141	5.38
453.345	5.35
453.548	5.2
453.752	5.33
453.955	5.5
454.158	5.54
454.362	5.6
454.565	5.6
454.769	5.52
454.972	5.55
455.175	5.45
455.379	5.42
455.582	5.37
455.785	5.36
455.988	5.32
456.192	5.13
456.395	5.09
456.598	5.07
456.801	4.88
457.005	4.76
457.208	4.7
457.411	4.8
457.614	4.74
457.817	4.73
458.021	4.64
458.224	4.6
458.427	4.62
458.63	4.55
458.833	4.48
