Data from JASIL_2959_Reflection_1.txt Node
Date: Sat Nov 07 21:16:37 EST 2015
User: Geneva
Spectrometer: USB4E03002
Autoset integration time: false
Trigger mode: 4
Integration Time (sec): 1.000000E-1
Scans to average: 10
Electric dark correction enabled: true
Nonlinearity correction enabled: false
Boxcar width: 5
Stray light correction enabled: false
XAxis mode: Wavelengths
Stop averaging: false
Number of Pixels in Spectrum: 3648
>>>>>Begin Spectral Data<<<<<
177.575	61.59
177.794	74.22
178.014	38.4
178.233	-35.04
178.452	-43.55
178.672	154.75
178.891	90.99
179.11	101.27
179.33	174.61
179.549	108.38
179.768	46.73
179.987	22.81
180.207	-127.36
180.426	454.37
180.645	178.25
180.864	180.2
181.084	127.22
181.303	131.51
181.522	102.61
181.741	109.67
181.96	100.38
182.179	100.84
182.398	87.91
182.618	79.12
182.837	85.55
183.056	110.62
183.275	138.52
183.494	188.25
183.713	181.38
183.932	294.31
184.151	648.1
184.37	218.35
184.589	110.06
184.808	101.49
185.027	88.52
185.246	83.22
185.465	57.22
185.684	50.67
185.903	48.88
186.122	49.22
186.341	51.11
186.56	45.86
186.779	45.05
186.998	67.13
187.216	92.81
187.435	87.73
187.654	102.57
187.873	122.12
188.092	110.41
188.311	100.23
188.53	92.5
188.748	109.85
188.967	113.59
189.186	143.54
189.405	126.63
189.623	97.53
189.842	89.32
190.061	59.69
190.28	75.39
190.498	87.94
190.717	54.92
190.936	52.65
191.154	-130.16
191.373	1784.89
191.592	-256.44
191.81	-383.71
192.029	-62.91
192.248	-103.14
192.466	3.14
192.685	27.88
192.904	66.71
193.122	68.52
193.341	62.82
193.559	74.01
193.778	85.47
193.996	97.91
194.215	113.27
194.433	109.26
194.652	99.17
194.87	105.43
195.089	93.69
195.307	101.67
195.526	124.24
195.744	99
195.963	104.95
196.181	81.21
196.399	71.87
196.618	71.78
196.836	75.34
197.055	80.87
197.273	63.9
197.491	59.3
197.71	43.37
197.928	27.56
198.146	28.04
198.365	22.35
198.583	29.22
198.801	34.78
199.019	11.92
199.238	19.59
199.456	31.11
199.674	26.65
199.892	18.83
200.111	1.2
200.329	27.72
200.547	9.88
200.765	11.45
200.983	11.3
201.202	9.1
201.42	34.9
201.638	21.97
201.856	12.09
202.074	35.44
202.292	42.47
202.51	42.53
202.728	32.88
202.946	42.34
203.165	40.53
203.383	33.72
203.601	42.95
203.819	53.17
204.037	56.87
204.255	57.8
204.473	69.9
204.691	61.99
204.909	87.24
205.127	72.53
205.345	83.93
205.562	74.16
205.78	72.76
205.998	84.1
206.216	74.85
206.434	81.23
206.652	57.35
206.87	35.44
207.088	39.44
207.306	25.56
207.523	28.77
207.741	22.39
207.959	31.34
208.177	34.28
208.395	12.59
208.612	-10
208.83	-3.05
209.048	3.23
209.266	-8.88
209.483	-13.99
209.701	-6.06
209.919	-12.56
210.136	-12.83
210.354	5.85
210.572	14.26
210.79	23.22
211.007	29.64
211.225	20.13
211.442	26.76
211.66	32.63
211.878	28.68
212.095	33.53
212.313	37.08
212.53	28.07
212.748	20.56
212.966	22.28
213.183	26.37
213.401	28.57
213.618	40.22
213.836	39.3
214.053	31.29
214.271	31.5
214.488	29.28
214.705	24.92
214.923	35.01
215.14	42.23
215.358	47.74
215.575	47.97
215.793	49.81
216.01	43.26
216.227	39.17
216.445	39.05
216.662	39.05
216.879	36.13
217.097	35.58
217.314	31.86
217.531	27.66
217.749	15.59
217.966	16.65
218.183	12.29
218.4	7.59
218.618	13.2
218.835	16.37
219.052	19.55
219.269	17.39
219.487	17.43
219.704	14.52
219.921	16.86
220.138	22.51
220.355	21.13
220.572	21.68
220.79	23.03
221.007	24.99
221.224	23.97
221.441	25.97
221.658	25.41
221.875	25.54
222.092	24.65
222.309	20.11
222.526	11.83
222.743	9.89
222.96	6.18
223.177	5.32
223.394	4.74
223.611	9.3
223.828	5.6
224.045	8.41
224.262	9.02
224.479	8.75
224.696	9.33
224.913	14.01
225.13	15.4
225.347	15.11
225.564	16.9
225.781	15.84
225.997	14.3
226.214	13.68
226.431	14.1
226.648	13.4
226.865	14.69
227.082	15.21
227.298	14.51
227.515	13.77
227.732	13.13
227.949	13.64
228.165	13.23
228.382	12.76
228.599	12.59
228.816	12.24
229.032	11.73
229.249	11.25
229.466	11.03
229.682	10.8
229.899	11.73
230.116	13.18
230.332	12.99
230.549	14.41
230.765	15.53
230.982	16.25
231.199	16.08
231.415	16.38
231.632	15.96
231.848	16.48
232.065	17.72
232.281	16.09
232.498	15.85
232.714	15.27
232.931	13.73
233.147	12.92
233.364	13.87
233.58	15.58
233.797	16
234.013	16.5
234.23	15.57
234.446	15.72
234.662	15.83
234.879	16.97
235.095	16.56
235.312	16.16
235.528	16.73
235.744	15.36
235.961	14.03
236.177	13.84
236.393	14.44
236.61	16.25
236.826	14.86
237.042	14.96
237.258	13.46
237.475	13.36
237.691	13.63
237.907	13.84
238.123	14.23
238.339	14.05
238.556	13.77
238.772	13.29
238.988	12.12
239.204	12.43
239.42	12.29
239.636	12.29
239.853	12.65
240.069	12.5
240.285	12.21
240.501	12.38
240.717	12.1
240.933	12.61
241.149	12.53
241.365	12.79
241.581	12.52
241.797	12.61
242.013	12.7
242.229	12.91
242.445	12.88
242.661	12.68
242.877	12.64
243.093	12.9
243.309	12.64
243.525	12.73
243.741	12.46
243.957	13.09
244.173	13.53
244.388	13.05
244.604	12.31
244.82	12.44
245.036	12
245.252	11.81
245.468	11.51
245.683	11.13
245.899	11.18
246.115	10.85
246.331	10.65
246.547	10.36
246.762	10.31
246.978	10.38
247.194	10.15
247.409	10.24
247.625	9.91
247.841	9.88
248.057	10.09
248.272	9.8
248.488	10.01
248.703	9.74
248.919	9.88
249.135	9.96
249.35	9.5
249.566	9.52
249.782	9.77
249.997	10.33
250.213	10.4
250.428	10.37
250.644	10.18
250.859	9.92
251.075	10.31
251.29	10.07
251.506	9.74
251.721	9.94
251.937	9.88
252.152	10
252.368	9.79
252.583	9.76
252.798	9.21
253.014	9.17
253.229	9.43
253.445	9.5
253.66	9.64
253.875	10.15
254.091	9.88
254.306	10.27
254.521	9.45
254.737	9.49
254.952	9.3
255.167	9.75
255.383	9.91
255.598	10.22
255.813	9.88
256.028	9.43
256.244	9.17
256.459	8.92
256.674	8.77
256.889	9.02
257.104	9.07
257.32	8.97
257.535	8.94
257.75	8.72
257.965	8.39
258.18	8.24
258.395	8.28
258.61	7.95
258.826	8.01
259.041	7.94
259.256	7.8
259.471	7.57
259.686	7.63
259.901	7.55
260.116	7.59
260.331	7.61
260.546	7.68
260.761	7.59
260.976	7.84
261.191	7.93
261.406	7.63
261.621	7.76
261.836	7.67
262.05	7.31
262.265	6.77
262.48	6.8
262.695	6.53
262.91	6.37
263.125	6.13
263.34	6.58
263.555	6.49
263.769	6.52
263.984	6.49
264.199	7
264.414	7.43
264.629	7.66
264.843	7.73
265.058	7.85
265.273	7.87
265.488	7.93
265.702	7.66
265.917	8.09
266.132	8.47
266.346	8.46
266.561	8.27
266.776	8.19
266.99	8.53
267.205	8.4
267.42	8.28
267.634	8.18
267.849	8.32
268.063	8.19
268.278	7.79
268.492	7.5
268.707	7.54
268.922	7.59
269.136	7.39
269.351	7.32
269.565	7.43
269.78	7.41
269.994	7.26
270.209	7.25
270.423	7.26
270.637	7.25
270.852	7.28
271.066	7.21
271.281	7.29
271.495	7.46
271.709	7.44
271.924	7.37
272.138	7.32
272.353	7.4
272.567	7.28
272.781	7.31
272.996	7.24
273.21	7.11
273.424	6.92
273.638	6.74
273.853	6.8
274.067	6.61
274.281	6.56
274.495	6.67
274.71	6.72
274.924	6.64
275.138	6.55
275.352	6.57
275.566	6.86
275.781	7.09
275.995	7.26
276.209	7.13
276.423	7.15
276.637	7
276.851	6.96
277.065	6.85
277.279	6.96
277.493	7
277.707	7.01
277.921	6.82
278.135	6.91
278.349	6.7
278.563	6.42
278.777	6.25
278.991	6.48
279.205	6.63
279.419	6.77
279.633	6.74
279.847	6.54
280.061	6.53
280.275	6.69
280.489	6.57
280.703	6.44
280.917	6.49
281.131	6.85
281.344	6.66
281.558	6.35
281.772	6.4
281.986	6.37
282.2	6.59
282.414	6.72
282.627	6.63
282.841	6.7
283.055	6.79
283.269	6.74
283.482	6.62
283.696	6.77
283.91	7.07
284.123	6.92
284.337	6.77
284.551	6.71
284.764	6.6
284.978	6.66
285.192	6.52
285.405	6.61
285.619	6.8
285.833	6.62
286.046	6.5
286.26	6.39
286.473	6.23
286.687	6.46
286.9	6.63
287.114	6.61
287.327	6.91
287.541	6.99
287.754	6.95
287.968	6.88
288.181	7.02
288.395	6.93
288.608	6.76
288.822	6.93
289.035	6.83
289.248	6.69
289.462	6.93
289.675	6.65
289.889	6.56
290.102	6.64
290.315	6.56
290.529	6.61
290.742	6.77
290.955	6.98
291.169	6.97
291.382	7.01
291.595	6.96
291.808	6.76
292.022	6.92
292.235	6.89
292.448	7.03
292.661	7.19
292.875	7.21
293.088	7.19
293.301	7.14
293.514	7.22
293.727	7.21
293.94	7.39
294.153	7.18
294.367	6.75
294.58	6.75
294.793	6.54
295.006	6.52
295.219	6.61
295.432	6.41
295.645	6.5
295.858	6.45
296.071	6.53
296.284	6.44
296.497	6.63
296.71	6.83
296.923	6.85
297.136	6.98
297.349	7.05
297.562	6.94
297.775	7.16
297.988	7.07
298.201	7.14
298.414	6.97
298.626	6.8
298.839	6.61
299.052	6.51
299.265	6.52
299.478	6.38
299.691	6.18
299.903	6.09
300.116	6
300.329	5.99
300.542	5.94
300.755	6.08
300.967	6.28
301.18	6.53
301.393	6.62
301.605	6.55
301.818	6.46
302.031	6.7
302.243	6.71
302.456	6.97
302.669	7
302.881	7.03
303.094	6.96
303.307	6.98
303.519	6.97
303.732	7.08
303.944	7.19
304.157	7.27
304.37	7.19
304.582	7.42
304.795	7.22
305.007	7.41
305.22	7.48
305.432	7.44
305.645	7.35
305.857	7.46
306.069	7.52
306.282	7.5
306.494	7.72
306.707	7.56
306.919	7.48
307.132	7.34
307.344	7.06
307.556	6.98
307.769	7.15
307.981	7.28
308.193	7.17
308.406	6.89
308.618	7.05
308.83	6.99
309.043	7.14
309.255	7.21
309.467	7.26
309.679	7.31
309.892	7.31
310.104	7.25
310.316	7.19
310.528	7.26
310.74	7.43
310.953	7.47
311.165	7.36
311.377	7.27
311.589	7.08
311.801	7.27
312.013	7.27
312.225	7.27
312.437	7.39
312.649	7.4
312.862	7.34
313.074	7.18
313.286	6.91
313.498	6.81
313.71	7.07
313.922	7.23
314.134	7.12
314.346	7.16
314.558	7.15
314.77	7.05
314.982	6.89
315.193	6.85
315.405	6.9
315.617	7.09
315.829	7.19
316.041	6.99
316.253	6.9
316.465	6.89
316.677	6.93
316.888	7.12
317.1	7.26
317.312	7.47
317.524	7.57
317.736	7.85
317.947	7.91
318.159	8.09
318.371	8.1
318.583	8.28
318.794	8.19
319.006	8.2
319.218	8.22
319.43	7.96
319.641	8.02
319.853	7.98
320.064	7.76
320.276	7.78
320.488	7.83
320.699	8.03
320.911	8.24
321.123	8.57
321.334	8.52
321.546	8.33
321.757	8.6
321.969	8.49
322.18	8.63
322.392	8.66
322.603	8.51
322.815	8.45
323.026	8.44
323.238	8.21
323.449	8.18
323.661	8.1
323.872	8.2
324.083	8.19
324.295	8.21
324.506	7.95
324.718	7.95
324.929	8.16
325.14	8.21
325.352	8.24
325.563	8.49
325.774	8.41
325.986	8.7
326.197	8.77
326.408	8.8
326.62	8.8
326.831	9.15
327.042	9.24
327.253	9.28
327.464	9.26
327.676	9.23
327.887	9.18
328.098	9.23
328.309	9.11
328.52	9.35
328.732	9.74
328.943	9.93
329.154	10.12
329.365	10.21
329.576	10.34
329.787	10.27
329.998	10.53
330.209	10.56
330.42	10.69
330.631	10.78
330.842	10.55
331.053	10.33
331.264	10.37
331.475	10.32
331.686	10.54
331.897	10.47
332.108	10.61
332.319	10.55
332.53	10.49
332.741	10.46
332.952	10.5
333.163	10.81
333.374	10.94
333.585	11.03
333.795	10.83
334.006	10.77
334.217	10.75
334.428	10.76
334.639	10.74
334.849	10.8
335.06	10.86
335.271	10.93
335.482	10.74
335.692	10.57
335.903	10.57
336.114	10.58
336.325	10.82
336.535	10.89
336.746	10.84
336.957	10.5
337.167	10.57
337.378	10.46
337.589	10.39
337.799	10.48
338.01	10.63
338.22	10.63
338.431	10.41
338.642	10.19
338.852	10
339.063	9.97
339.273	10.02
339.484	10
339.694	10
339.905	9.93
340.115	9.71
340.326	9.55
340.536	9.67
340.746	9.91
340.957	9.74
341.167	9.8
341.378	9.94
341.588	10.39
341.799	10.35
342.009	10.32
342.219	10.29
342.43	10.55
342.64	10.57
342.85	10.35
343.061	10.57
343.271	10.74
343.481	10.79
343.691	10.6
343.902	10.26
344.112	10.13
344.322	10.23
344.532	10.25
344.743	10.03
344.953	9.87
345.163	10.02
345.373	9.75
345.583	9.58
345.793	9.41
346.004	9.54
346.214	9.71
346.424	9.83
346.634	9.9
346.844	9.93
347.054	10.1
347.264	10.36
347.474	10.15
347.684	10.12
347.894	10.15
348.104	10.28
348.314	10.23
348.524	10.24
348.734	10.2
348.944	10.1
349.154	10.05
349.364	9.89
349.574	9.79
349.784	9.84
349.994	9.93
350.204	9.79
350.413	9.69
350.623	9.63
350.833	9.43
351.043	9.25
351.253	9.37
351.463	9.39
351.672	9.27
351.882	9.34
352.092	9.33
352.302	9.35
352.511	9.44
352.721	9.44
352.931	9.4
353.141	9.44
353.35	9.42
353.56	9.2
353.77	9.17
353.979	9.36
354.189	9.25
354.399	9.28
354.608	9.25
354.818	9.32
355.027	9.32
355.237	9.34
355.447	9.38
355.656	9.51
355.866	9.51
356.075	9.5
356.285	9.45
356.494	9.36
356.704	9.27
356.913	9.24
357.123	9.21
357.332	9.18
357.542	9.25
357.751	9.23
357.96	9.12
358.17	9.16
358.379	9.25
358.589	9.2
358.798	9.4
359.007	9.42
359.217	9.31
359.426	9.31
359.635	9.38
359.845	9.27
360.054	9.19
360.263	9.24
360.472	9.15
360.682	9.04
360.891	9.07
361.1	8.94
361.309	8.99
361.519	9.04
361.728	8.99
361.937	8.93
362.146	8.92
362.355	8.97
362.564	8.99
362.774	9.03
362.983	8.97
363.192	8.91
363.401	8.94
363.61	8.83
363.819	8.91
364.028	8.96
364.237	8.92
364.446	8.96
364.655	8.88
364.864	8.82
365.073	8.87
365.282	9.03
365.491	8.94
365.7	8.93
365.909	8.91
366.118	8.83
366.327	8.72
366.536	8.75
366.745	8.68
366.954	8.65
367.162	8.59
367.371	8.52
367.58	8.49
367.789	8.42
367.998	8.33
368.207	8.38
368.415	8.29
368.624	8.22
368.833	8.23
369.042	8.35
369.25	8.4
369.459	8.43
369.668	8.34
369.877	8.17
370.085	8.26
370.294	8.29
370.503	8.34
370.711	8.38
370.92	8.39
371.129	8.26
371.337	8.07
371.546	7.99
371.754	7.99
371.963	8.08
372.171	8.08
372.38	7.91
372.589	7.96
372.797	7.84
373.006	7.76
373.214	7.69
373.423	7.68
373.631	7.75
373.84	7.78
374.048	7.72
374.256	7.61
374.465	7.59
374.673	7.59
374.882	7.42
375.09	7.4
375.298	7.35
375.507	7.42
375.715	7.49
375.923	7.49
376.132	7.48
376.34	7.39
376.548	7.43
376.757	7.53
376.965	7.57
377.173	7.67
377.381	7.72
377.59	7.75
377.798	7.77
378.006	7.67
378.214	7.7
378.423	7.75
378.631	7.78
378.839	7.7
379.047	7.6
379.255	7.56
379.463	7.4
379.671	7.21
379.879	7.14
380.088	7.12
380.296	7.15
380.504	7.18
380.712	7.11
380.92	7.09
381.128	7.11
381.336	7.13
381.544	7.17
381.752	7.3
381.96	7.35
382.168	7.4
382.376	7.42
382.584	7.36
382.791	7.22
382.999	7.14
383.207	7.13
383.415	7.09
383.623	7.15
383.831	7.02
384.039	6.94
384.247	6.93
384.454	6.99
384.662	6.96
384.87	6.94
385.078	6.99
385.285	7.01
385.493	7
385.701	6.9
385.909	6.75
386.116	6.82
386.324	6.83
386.532	6.79
386.739	6.68
386.947	6.54
387.155	6.46
387.362	6.45
387.57	6.48
387.778	6.46
387.985	6.59
388.193	6.61
388.4	6.73
388.608	6.66
388.816	6.64
389.023	6.56
389.231	6.62
389.438	6.7
389.646	6.51
389.853	6.47
390.061	6.45
390.268	6.37
390.475	6.38
390.683	6.25
390.89	6.26
391.098	6.24
391.305	6.34
391.512	6.23
391.72	6.18
391.927	6.24
392.135	6.19
392.342	6.14
392.549	6.16
392.756	6
392.964	5.96
393.171	6.02
393.378	6.01
393.586	5.9
393.793	5.93
394	5.85
394.207	5.92
394.414	5.87
394.622	5.9
394.829	5.82
395.036	5.81
395.243	5.86
395.45	5.71
395.657	5.66
395.864	5.69
396.072	5.82
396.279	5.95
396.486	5.89
396.693	6.01
396.9	6.06
397.107	5.95
397.314	6.04
397.521	6.02
397.728	6.1
397.935	6.12
398.142	6.11
398.349	5.97
398.556	5.9
398.763	5.83
398.97	5.73
399.177	5.67
399.383	5.84
399.59	5.82
399.797	5.84
400.004	5.82
400.211	5.78
400.418	5.77
400.625	5.69
400.831	5.65
401.038	5.67
401.245	5.63
401.452	5.59
401.658	5.55
401.865	5.65
402.072	5.57
402.279	5.55
402.485	5.54
402.692	5.5
402.899	5.54
403.105	5.62
403.312	5.61
403.519	5.58
403.725	5.59
403.932	5.53
404.138	5.44
404.345	5.41
404.552	5.41
404.758	5.46
404.965	5.46
405.171	5.41
405.378	5.34
405.584	5.4
405.791	5.37
405.997	5.34
406.204	5.34
406.41	5.3
406.617	5.37
406.823	5.37
407.029	5.33
407.236	5.37
407.442	5.4
407.649	5.45
407.855	5.43
408.061	5.47
408.268	5.42
408.474	5.41
408.68	5.47
408.887	5.35
409.093	5.33
409.299	5.32
409.505	5.29
409.712	5.25
409.918	5.19
410.124	5.14
410.33	5.16
410.537	5.21
410.743	5.11
410.949	5.04
411.155	5.16
411.361	5.14
411.567	5.09
411.773	5.04
411.98	5.02
412.186	4.98
412.392	4.96
412.598	4.97
412.804	4.95
413.01	4.98
413.216	4.95
413.422	4.98
413.628	5
413.834	4.91
414.04	4.95
414.246	4.97
414.452	5.03
414.658	5.02
414.864	4.98
415.07	4.98
415.275	5.03
415.481	5.01
415.687	4.9
415.893	4.83
416.099	4.91
416.305	4.93
416.511	4.88
416.716	4.81
416.922	4.76
417.128	4.75
417.334	4.75
417.539	4.73
417.745	4.74
417.951	4.76
418.157	4.79
418.362	4.8
418.568	4.77
418.774	4.78
418.979	4.79
419.185	4.78
419.391	4.74
419.596	4.67
419.802	4.63
420.008	4.59
420.213	4.93
420.419	4.92
420.624	4.87
420.83	4.85
421.035	4.89
421.241	4.85
421.446	4.88
421.652	4.87
421.857	4.88
422.063	4.89
422.268	4.9
422.474	4.55
422.679	4.54
422.885	4.54
423.09	4.54
423.295	4.5
423.501	4.5
423.706	4.46
423.911	4.49
424.117	4.49
424.322	4.5
424.527	4.52
424.733	4.5
424.938	4.51
425.143	4.52
425.349	4.52
425.554	4.51
425.759	4.51
425.964	4.53
426.169	4.5
426.375	4.51
426.58	4.48
426.785	4.46
426.99	4.5
427.195	4.44
427.4	4.47
427.605	4.46
427.811	4.47
428.016	4.49
428.221	4.52
428.426	4.52
428.631	4.52
428.836	4.48
429.041	4.46
429.246	4.45
429.451	4.52
429.656	4.47
429.861	4.48
430.066	4.52
430.271	4.51
430.476	4.45
430.681	4.42
430.886	4.42
431.09	4.47
431.295	4.52
431.5	4.52
431.705	4.49
431.91	4.48
432.115	4.5
432.32	4.44
432.524	4.41
432.729	4.4
432.934	4.39
433.139	4.38
433.343	4.41
433.548	4.37
433.753	4.37
433.958	4.32
434.162	4.32
434.367	4.33
434.572	4.32
434.776	4.35
434.981	4.41
435.186	4.4
435.39	4.44
435.595	4.43
435.799	4.43
436.004	4.41
436.209	4.4
436.413	4.41
436.618	4.33
436.822	4.39
437.027	4.39
437.231	4.33
437.436	4.36
437.64	4.31
437.845	4.27
438.049	4.28
438.253	4.26
438.458	4.26
438.662	4.27
438.867	4.28
439.071	4.28
439.275	4.29
439.48	4.33
439.684	4.33
439.888	4.35
440.093	4.32
440.297	4.3
440.501	4.35
440.706	4.37
440.91	4.38
441.114	4.36
441.318	4.35
441.523	4.33
441.727	4.31
441.931	4.35
442.135	4.31
442.339	4.35
442.543	4.37
442.748	4.27
442.952	4.25
443.156	4.22
443.36	4.25
443.564	4.23
443.768	4.21
443.972	4.17
444.176	4.12
444.38	4.17
444.584	4.14
444.788	4.13
444.992	4.19
445.196	4.17
445.4	4.19
445.604	4.15
445.808	4.16
446.012	4.17
446.216	4.2
446.42	4.19
446.624	4.19
446.828	4.18
447.032	4.18
447.235	4.13
447.439	4.15
447.643	4.16
447.847	4.17
448.051	4.16
448.254	4.18
448.458	4.16
448.662	4.21
448.866	4.15
449.069	4.2
449.273	4.24
449.477	4.27
449.681	4.29
449.884	4.28
450.088	4.29
450.292	4.29
450.495	4.32
450.699	4.31
450.902	4.21
451.106	4.26
451.31	4.19
451.513	4.17
451.717	4.12
451.92	4.07
452.124	4
452.327	3.98
452.531	3.99
452.734	3.97
452.938	3.98
453.141	4.04
453.345	4.04
453.548	4.05
453.752	4.06
453.955	4.1
454.158	4.12
454.362	4.14
454.565	4.18
454.769	4.14
454.972	4.13
455.175	4.1
455.379	4.11
455.582	4.09
455.785	4.09
455.988	4.04
456.192	4.01
456.395	3.99
456.598	4.04
456.801	4.02
457.005	4.05
457.208	4.04
457.411	4.06
457.614	4.06
457.817	4.07
458.021	4.05
458.224	4.07
458.427	4.1
458.63	4.1
458.833	4.09
459.036	4.07
459.239	4.04
459.442	4.01
459.645	4.01
459.848	4.04
460.051	4.03
460.254	4.07
460.457	4.09
460.66	4.1
460.863	4.13
461.066	4.14
461.269	4.18
461.472	4.25
461.675	4.32
461.878	4.36
462.081	4.3
462.284	4.33
462.486	4.29
462.689	4.29
462.892	4.27
463.095	4.27
463.298	4.22
463.5	4.18
463.703	4.16
463.906	4.18
464.109	4.13
464.311	4.16
464.514	4.13
464.717	4.16
464.92	4.16
465.122	4.14
465.325	4.19
465.528	4.25
465.73	4.21
465.933	4.21
466.135	4.18
466.338	4.17
466.541	4.17
466.743	4.18
466.946	4.17
467.148	4.17
467.351	4.19
467.553	4.15
467.756	4.14
467.958	4.23
468.161	4.21
468.363	4.18
468.566	4.15
468.768	4.13
468.971	4.12
469.173	4.09
469.375	4.08
469.578	4.09
469.78	4.04
