Data from JASIL_3025_Reflection_01.txt Node
Date: Mon Nov 09 10:49:04 EST 2015
User: Geneva
Spectrometer: USB4E03002
Autoset integration time: false
Trigger mode: 4
Integration Time (sec): 1.000000E-1
Scans to average: 10
Electric dark correction enabled: false
Nonlinearity correction enabled: false
Boxcar width: 5
Stray light correction enabled: false
XAxis mode: Wavelengths
Stop averaging: false
Number of Pixels in Spectrum: 3648
>>>>>Begin Spectral Data<<<<<
177.575	167.31
177.794	144.44
178.014	106.22
178.233	138.78
178.452	161.84
178.672	352.63
178.891	334.78
179.11	273.17
179.33	3045.45
179.549	389.1
179.768	283.94
179.987	802.78
180.207	-705
180.426	-620.9
180.645	-85.81
180.864	-37.89
181.084	4.55
181.303	7.87
181.522	17.4
181.741	66.67
181.96	54.04
182.179	95.82
182.398	83.64
182.618	92.02
182.837	51.94
183.056	-83.16
183.275	201.48
183.494	-476.67
183.713	-1617.5
183.932	-758.51
184.151	-2357.58
184.37	-278.01
184.589	-4116.67
184.808	479.8
185.027	398.18
185.246	243.82
185.465	206.86
185.684	396.53
185.903	140.58
186.122	92.82
186.341	71.55
186.56	42.8
186.779	285.71
186.998	-94.51
187.216	24
187.435	-27.08
187.654	-71.97
187.873	-45.83
188.092	-33.33
188.311	-74.19
188.53	-134.87
188.748	-156.09
188.967	-497.28
189.186	984.95
189.405	471.91
189.623	789.72
189.842	1328.57
190.061	-12340
190.28	-423.4
190.498	-378.1
190.717	-87.62
190.936	-29.89
191.154	-3.06
191.373	-13.07
191.592	93.71
191.81	23.14
192.029	65.08
192.248	41.13
192.466	94.25
192.685	77.83
192.904	-208.7
193.122	288.41
193.341	-3540
193.559	2050
193.778	123.86
193.996	264.29
194.215	143.62
194.433	266.97
194.652	186.71
194.87	173.21
195.089	232.11
195.307	386.67
195.526	321.6
195.744	346.83
195.963	545.59
196.181	-1672.34
196.399	-455.42
196.618	-493.43
196.836	-254.79
197.055	-227.57
197.273	-238.35
197.491	-229
197.71	-220.75
197.928	-180.49
198.146	-157.14
198.365	-207.98
198.583	-6655.56
198.801	307.08
199.019	262.93
199.238	187.89
199.456	314.69
199.674	377.59
199.892	447.22
200.111	414
200.329	646.43
200.547	-3100
200.765	309.09
200.983	-60.93
201.202	-50
201.42	-61.61
201.638	18.51
201.856	-19.26
202.074	-156.57
202.292	-84.13
202.51	-198.61
202.728	275
202.946	40.15
203.165	268.42
203.383	-48.08
203.601	-350
203.819	224.42
204.037	173.75
204.255	73
204.473	118.8
204.691	39.22
204.909	-171.43
205.127	-493.94
205.345	-362.75
205.562	655.56
205.78	-864
205.998	-704.35
206.216	-695.28
206.434	-916.85
206.652	-11814.29
206.87	1527.12
207.088	573.33
207.306	554.78
207.523	690.15
207.741	965.93
207.959	382.88
208.177	252.98
208.395	383.78
208.612	274.48
208.83	251.68
209.048	236.91
209.266	458.82
209.483	985.25
209.701	-2337.93
209.919	24300
210.136	954.55
210.354	4866.67
210.572	-1293.62
210.79	-1313.89
211.007	316.79
211.225	217.54
211.442	936.84
211.66	-158.2
211.878	-218.42
212.095	-337.74
212.313	-7366.67
212.53	-31.15
212.748	18.96
212.966	-117.07
213.183	-8200
213.401	13.27
213.618	2.59
213.836	-7.97
214.053	-15.02
214.271	-20.13
214.488	65.75
214.705	14.57
214.923	-86.15
215.14	-181.89
215.358	-118.99
215.575	-25.18
215.793	-456.06
216.01	-1295.83
216.227	-505.56
216.445	212.32
216.662	540.82
216.879	242.64
217.097	321.6
217.314	470.16
217.531	979.31
217.749	-197.21
217.966	-295.38
218.183	-48.84
218.4	-38.44
218.618	-30.11
218.835	-16.04
219.052	11.63
219.269	-40.79
219.487	-4.09
219.704	-7.73
219.921	-21.38
220.138	-69.14
220.355	-62.94
220.572	-11066.67
220.79	299.07
221.007	352.94
221.224	523.96
221.441	407.38
221.658	-225.59
221.875	-194.03
222.092	-95.1
222.309	-50.64
222.526	-30.61
222.743	-45.61
222.96	-53.86
223.177	-33.51
223.394	-13.86
223.611	-11.01
223.828	-8.01
224.045	0.48
224.262	-11.18
224.479	-27.11
224.696	-31.02
224.913	-42.09
225.13	-33.55
225.347	-11.98
225.564	-21.12
225.781	-26.44
225.997	-11.71
226.214	-13.48
226.431	-13.66
226.648	-3.68
226.865	2.67
227.082	7.25
227.298	7.33
227.515	5.5
227.732	3.14
227.949	2.74
228.165	2.66
228.382	1.61
228.599	1.84
228.816	2.88
229.032	-1.36
229.249	-13.41
229.466	-13.32
229.682	-16.2
229.899	-13.86
230.116	-16.44
230.332	-15.65
230.549	-18.12
230.765	-29.53
230.982	-20.77
231.199	-16.72
231.415	-21.34
231.632	-12.63
231.848	-22.45
232.065	-11.22
232.281	-21.69
232.498	-22.08
232.714	-19.09
232.931	-14.05
233.147	-13.46
233.364	-23.82
233.58	-33.69
233.797	-19.55
234.013	-16.67
234.23	-17.11
234.446	-19.06
234.662	-5
234.879	-1.45
235.095	7.18
235.312	11.95
235.528	6.64
235.744	11.24
235.961	21.38
236.177	6.95
236.393	11.42
236.61	4.2
236.826	0.31
237.042	-4.17
237.258	-6.73
237.475	-18.37
237.691	-23.81
237.907	-10.57
238.123	-12.79
238.339	-11.94
238.556	0.92
238.772	-2.72
238.988	-2.35
239.204	2.53
239.42	3.06
239.636	1.02
239.853	5.22
240.069	2.82
240.285	-1.57
240.501	2.66
240.717	7.21
240.933	7.63
241.149	7.04
241.365	5.1
241.581	4.68
241.797	8.04
242.013	12.13
242.229	8.5
242.445	11.14
242.661	13.21
242.877	8.48
243.093	1.52
243.309	-1.03
243.525	-5.46
243.741	3.73
243.957	1.42
244.173	-0.82
244.388	-2.04
244.604	1.43
244.82	2.24
245.036	5.75
245.252	6.63
245.468	7.05
245.683	6.94
245.899	8.59
246.115	7.91
246.331	8.07
246.547	6.42
246.762	4.83
246.978	5.18
247.194	5.16
247.409	0.89
247.625	-1.46
247.841	-0.85
248.057	-0.32
248.272	-0.89
248.488	-2.24
248.703	-2.5
248.919	0.41
249.135	0.06
249.35	-2.28
249.566	-1.78
249.782	-1.01
249.997	2.81
250.213	0.65
250.428	1.54
250.644	3.55
250.859	2.13
251.075	0.96
251.29	-0.34
251.506	3.42
251.721	1.94
251.937	1.08
252.152	3.68
252.368	1.83
252.583	3.26
252.798	1.67
253.014	-3.64
253.229	-2.02
253.445	-6.05
253.66	-8.9
253.875	-15.45
254.091	-12.26
254.306	-9.01
254.521	-7.27
254.737	-12.6
254.952	-9.75
255.167	-10.04
255.383	-6.55
255.598	-6.68
255.813	-1.04
256.028	-3.03
256.244	3.91
256.459	1.64
256.674	1.21
256.889	-2.29
257.104	4.39
257.32	0.09
257.535	-0.7
257.75	0.57
257.965	2.25
258.18	2.11
258.395	2.44
258.61	1.56
258.826	1.78
259.041	0.34
259.256	0.27
259.471	-1.57
259.686	-0.14
259.901	-0.34
260.116	-4.01
260.331	-5.56
260.546	-7.07
260.761	-4.69
260.976	-5.35
261.191	-7.07
261.406	-8.1
261.621	-4.14
261.836	0.73
262.05	-2.39
262.265	-0.79
262.48	4
262.695	4.22
262.91	7.87
263.125	2.9
263.34	1.55
263.555	0.86
263.769	3.08
263.984	1.89
264.199	-2.54
264.414	-1.86
264.629	-4.17
264.843	-8.16
265.058	-11.04
265.273	-12.73
265.488	-10.68
265.702	-13.09
265.917	-10.8
266.132	-8.74
266.346	-8.36
266.561	-7.6
266.776	-6.73
266.99	-6.08
267.205	-2.54
267.42	-2.27
267.634	-3.37
267.849	-1.69
268.063	-0.32
268.278	0.52
268.492	1.83
268.707	-1.74
268.922	-1.26
269.136	0
269.351	0.9
269.565	2.54
269.78	2.44
269.994	3.92
270.209	2.07
270.423	4.82
270.637	2.82
270.852	4.38
271.066	7.56
271.281	5.2
271.495	6.89
271.709	6.25
271.924	2.83
272.138	4.2
272.353	2.36
272.567	1.67
272.781	-0.13
272.996	1.1
273.21	-3.57
273.424	-4.93
273.638	-3.51
273.853	-7.56
274.067	-8.57
274.281	-6.16
274.495	-5.1
274.71	-5.58
274.924	-4.58
275.138	-3.28
275.352	-4.37
275.566	-2.52
275.781	-3.1
275.995	-3.6
276.209	-4.78
276.423	-5.8
276.637	-7.64
276.851	-6.69
277.065	-3.75
277.279	-5.02
277.493	-4.25
277.707	-4.47
277.921	-3.73
278.135	-4.44
278.349	-3.63
278.563	-5.67
278.777	-3.38
278.991	-2.63
279.205	-4.87
279.419	-6.76
279.633	-3.53
279.847	-3.76
280.061	-3.83
280.275	-7.98
280.489	-7.18
280.703	-10.72
280.917	-7.5
281.131	-6.85
281.344	-8.55
281.558	-8.87
281.772	-8.92
281.986	-9.68
282.2	-12.52
282.414	-12.21
282.627	-10.43
282.841	-12.66
283.055	-9.25
283.269	-8.95
283.482	-9.71
283.696	-7.78
283.91	-6.78
284.123	-6.28
284.337	-5.94
284.551	-5.37
284.764	-4.9
284.978	-3.97
285.192	-1.19
285.405	-2.02
285.619	-2.22
285.833	-3.27
286.046	-4.38
286.26	-6.3
286.473	-6.08
286.687	-8.25
286.9	-8.79
287.114	-9.29
287.327	-10.85
287.541	-14.29
287.754	-12.26
287.968	-8.94
288.181	-7.48
288.395	-6.4
288.608	-3.46
288.822	-2.76
289.035	-0.19
289.248	1.41
289.462	2.58
289.675	2.28
289.889	3.66
290.102	1.84
290.315	-0.19
290.529	1.83
290.742	2.98
290.955	0.57
291.169	-1.8
291.382	-2.84
291.595	-2.77
291.808	-2.87
292.022	-4.34
292.235	-5.05
292.448	-3.96
292.661	-4.18
292.875	-5.85
293.088	-8.91
293.301	-6.85
293.514	-7.55
293.727	-8.62
293.94	-9.58
294.153	-7.72
294.367	-5.68
294.58	-5.91
294.793	-3.64
295.006	-1.64
295.219	-1.7
295.432	0.66
295.645	1.88
295.858	4.18
296.071	5.2
296.284	6.02
296.497	5.82
296.71	4.81
296.923	4.96
297.136	2.36
297.349	1
297.562	-0.2
297.775	0.23
297.988	-2.87
298.201	-3.68
298.414	-5.84
298.626	-6.27
298.839	-7.79
299.052	-3.91
299.265	-3.24
299.478	-1.58
299.691	-0.19
299.903	-0.14
300.116	-1.98
300.329	-0.7
300.542	0.27
300.755	1.5
300.967	2.28
301.18	0.83
301.393	0.78
301.605	-1.14
301.818	-0.91
302.031	-2.33
302.243	0.16
302.456	1.12
302.669	0.48
302.881	0.69
303.094	-0.3
303.307	-3.11
303.519	-2.85
303.732	-7.19
303.944	-6.18
304.157	-5.13
304.37	-4.76
304.582	-6.4
304.795	-8.43
305.007	-7.07
305.22	-6.48
305.432	-5.45
305.645	-2.23
305.857	-4.07
306.069	-1.1
306.282	-1.51
306.494	-2.3
306.707	-4.02
306.919	-1.27
307.132	1.14
307.344	1.51
307.556	-0.28
307.769	0.04
307.981	-1.01
308.193	1.93
308.406	1.64
308.618	0.68
308.83	1.54
309.043	3.55
309.255	2.28
309.467	0.75
309.679	1.11
309.892	-0.4
310.104	0.81
310.316	0.29
310.528	-1.89
310.74	-1.15
310.953	0.65
311.165	-1.19
311.377	-0.61
311.589	-2.43
311.801	-1.55
312.013	-3.06
312.225	-1.29
312.437	-2.25
312.649	-3.31
312.862	-1.06
313.074	-3.88
313.286	-2.85
313.498	-2.01
313.71	-3.18
313.922	-0.46
314.134	-2.75
314.346	-2.96
314.558	-2.72
314.77	-4.39
314.982	-2.06
315.193	-0.44
315.405	2.82
315.617	3.38
315.829	5.64
316.041	6.13
316.253	6.5
316.465	9.28
316.677	9.38
316.888	8.85
317.1	11.54
317.312	11.22
317.524	10.62
317.736	9.94
317.947	7.78
318.159	6.81
318.371	8.52
318.583	6.31
318.794	7.67
319.006	7.32
319.218	8.26
319.43	6.65
319.641	6.7
319.853	5.96
320.064	5.53
320.276	6.45
320.488	6.91
320.699	6.4
320.911	8.76
321.123	7.77
321.334	8.68
321.546	9.2
321.757	9.53
321.969	10.47
322.18	11.67
322.392	12.06
322.603	13
322.815	11.71
323.026	9.98
323.238	11.01
323.449	7.84
323.661	7.82
323.872	7.02
324.083	5.1
324.295	3.18
324.506	0.96
324.718	0.19
324.929	-1.95
325.14	-1.85
325.352	-2.92
325.563	-6.04
325.774	-3.95
325.986	-4.02
326.197	-3.4
326.408	-1.72
326.62	-0.16
326.831	0.99
327.042	2.17
327.253	4.08
327.464	4.27
327.676	4.45
327.887	5.07
328.098	5.69
328.309	4.48
328.52	4.63
328.732	5.13
328.943	4.17
329.154	4.43
329.365	3.47
329.576	3.79
329.787	3.4
329.998	2.43
330.209	2.62
330.42	2.52
330.631	5.6
330.842	2.72
331.053	4.68
331.264	6.13
331.475	5.15
331.686	4.26
331.897	5.54
332.108	1.74
332.319	3.92
332.53	3.74
332.741	4.19
332.952	2.98
333.163	4.35
333.374	2.3
333.585	1.87
333.795	3.12
334.006	5.72
334.217	5.45
334.428	8.25
334.639	6.94
334.849	5.57
335.06	4.17
335.271	5.96
335.482	5.37
335.692	6.74
335.903	6.08
336.114	4.1
336.325	2.32
336.535	1.76
336.746	2.37
336.957	3.72
337.167	5.27
337.378	4.31
337.589	2.42
337.799	2.33
338.01	1.69
338.22	6.86
338.431	7.57
338.642	7.17
338.852	6.47
339.063	6.44
339.273	4.59
339.484	4.5
339.694	4.7
339.905	3.48
340.115	4.53
340.326	3.63
340.536	-1.59
340.746	-1.88
340.957	-1.37
341.167	-1.32
341.378	-0.64
341.588	-0.66
341.799	-1.48
342.009	-0.73
342.219	0.06
342.43	1.21
342.64	1.06
342.85	1.25
343.061	2.07
343.271	3.21
343.481	1.99
343.691	0.84
343.902	0.5
344.112	2.4
344.322	1.06
344.532	2.85
344.743	1.53
344.953	1.51
345.163	3.65
345.373	3.76
345.583	3.17
345.793	4.29
346.004	4.98
346.214	6.56
346.424	3.78
346.634	4.71
346.844	5.11
347.054	6.04
347.264	5.63
347.474	4.45
347.684	4.59
347.894	2.76
348.104	3.68
348.314	2.86
348.524	1.77
348.734	4.41
348.944	4.28
349.154	4.35
349.364	5.32
349.574	5.69
349.784	3.62
349.994	3.1
350.204	5.91
350.413	3.85
350.623	3.55
350.833	2.06
351.043	-0.32
351.253	0.93
351.463	-1.08
351.672	-2.03
351.882	-0.01
352.092	2.27
352.302	2.15
352.511	1.08
352.721	3.16
352.931	3.38
353.141	5.67
353.35	8.19
353.56	7.96
353.77	7.25
353.979	6.11
354.189	5.3
354.399	6.69
354.608	9.29
354.818	8.01
355.027	5.95
355.237	6.19
355.447	7.18
355.656	5.39
355.866	5.11
356.075	4.32
356.285	4.51
356.494	5.43
356.704	4.51
356.913	2.16
357.123	3.8
357.332	5.03
357.542	5.84
357.751	4.44
357.96	4.71
358.17	4.83
358.379	5.65
358.589	6.71
358.798	5.16
359.007	5.38
359.217	6.84
359.426	7.11
359.635	6.58
359.845	6.95
360.054	7.81
360.263	8.11
360.472	8.36
360.682	9.37
360.891	8.78
361.1	9.39
361.309	9.29
361.519	7.78
361.728	6.42
361.937	7.34
362.146	6.95
362.355	6.44
362.564	6.7
362.774	7.72
362.983	6.46
363.192	6.39
363.401	5.43
363.61	4.94
363.819	5.51
364.028	5.6
364.237	5.31
364.446	4.53
364.655	3.83
364.864	5.47
365.073	4.31
365.282	4.9
365.491	6.22
365.7	8.84
365.909	9.29
366.118	10.66
366.327	11.57
366.536	12.23
366.745	13.42
366.954	14.56
367.162	12.51
367.371	13.71
367.58	13.78
367.789	12.53
367.998	9.08
368.207	9.53
368.415	7.18
368.624	7.57
368.833	6.48
369.042	5.25
369.25	5.15
369.459	5.81
369.668	4.73
369.877	4.39
370.085	5.21
370.294	7.89
370.503	7.04
370.711	8.36
370.92	7.69
371.129	6.08
371.337	6.47
371.546	6.81
371.754	6.12
371.963	7.17
372.171	7.83
372.38	7.04
372.589	4.7
372.797	4.24
373.006	4.26
373.214	4.44
373.423	6.38
373.631	6.9
373.84	6.23
374.048	6.19
374.256	5.57
374.465	6.01
374.673	6
374.882	6.78
375.09	8.14
375.298	5.44
375.507	5.67
375.715	5.84
375.923	6.23
376.132	6.02
376.34	5.72
376.548	5.25
376.757	5.36
376.965	6.17
377.173	6.39
377.381	6.92
377.59	9.2
377.798	8.16
378.006	7.23
378.214	5.3
378.423	6.26
378.631	7.97
378.839	7.98
379.047	7.76
379.255	8.33
379.463	7.19
379.671	5.93
379.879	6.44
380.088	6.95
380.296	7.93
380.504	8.4
380.712	8.35
380.92	6.67
381.128	6.2
381.336	6.04
381.544	4.18
381.752	4.97
381.96	5.54
382.168	4.45
382.376	6.29
382.584	5.72
382.791	6.96
382.999	5.56
383.207	7.45
383.415	7.15
383.623	6.96
383.831	6.7
384.039	8.07
384.247	8.22
384.454	6.93
384.662	5.71
384.87	6.56
385.078	6.27
385.285	7.11
385.493	5.09
385.701	6.13
385.909	6.67
386.116	7.28
386.324	5.83
386.532	4.96
386.739	6.14
386.947	7.39
387.155	7.1
387.362	6.13
387.57	5.68
387.778	5.77
387.985	5.16
388.193	3.99
388.4	3.74
388.608	4.19
388.816	4.94
389.023	4.43
389.231	3.49
389.438	2.9
389.646	2.26
389.853	2.55
390.061	2.66
390.268	3.36
390.475	3.73
390.683	3.84
390.89	2.53
391.098	2.19
391.305	3.25
391.512	3.3
391.72	4.54
391.927	6.04
392.135	6.16
392.342	6.87
392.549	4.98
392.756	5.39
392.964	6.35
393.171	6.87
393.378	7.44
393.586	7.01
393.793	6.36
394	5.99
394.207	6.53
394.414	6.45
394.622	6.43
394.829	7.28
395.036	7.37
395.243	7.29
395.45	7.44
395.657	6.6
395.864	6.51
396.072	7.04
396.279	7.44
396.486	7.42
396.693	7.11
396.9	7.08
397.107	7.69
397.314	7.22
397.521	6
397.728	6.02
397.935	6.2
398.142	6.83
398.349	7.08
398.556	5.49
398.763	3.38
398.97	3.47
399.177	2.78
399.383	3.42
399.59	2.96
399.797	3.26
400.004	3.35
400.211	3.22
400.418	2.23
400.625	1.17
400.831	1.4
401.038	2.64
401.245	3.5
401.452	3.47
401.658	3.2
401.865	4.3
402.072	4.13
402.279	5.22
402.485	4.39
402.692	5.15
402.899	5.76
403.105	6.51
403.312	6.75
403.519	6.88
403.725	7.38
403.932	7.03
404.138	7.45
404.345	7.44
404.552	6.7
404.758	7.87
404.965	6.66
405.171	7.4
405.378	7.14
405.584	5.75
405.791	4.23
405.997	4.53
406.204	4.85
406.41	4.55
406.617	5.68
406.823	5.81
407.029	6.26
407.236	7.67
407.442	6.82
407.649	6.95
407.855	7.85
408.061	8.62
408.268	7.92
408.474	7.32
408.68	6.33
408.887	5.56
409.093	5.96
409.299	3.99
409.505	2.97
409.712	3.63
409.918	3.61
410.124	4.17
410.33	3.91
410.537	4.51
410.743	5.01
410.949	5.64
411.155	6.54
411.361	6.28
411.567	7.91
411.773	9.54
411.98	9.19
412.186	8.77
412.392	8.66
412.598	8.56
412.804	7.78
413.01	7.81
413.216	7.85
413.422	8.5
413.628	8.46
413.834	8.05
414.04	7.9
414.246	7.43
414.452	7.35
414.658	7.83
414.864	7.43
415.07	7.1
415.275	6
415.481	5.95
415.687	4.95
415.893	4.36
416.099	4.93
416.305	4.45
416.511	4.59
416.716	4.69
416.922	4.16
417.128	4.44
417.334	4.96
417.539	5.25
417.745	5.43
417.951	5.71
418.157	6.47
418.362	6.11
418.568	5.99
418.774	6.14
418.979	5.78
419.185	6.45
419.391	6.82
419.596	7.11
419.802	7.05
420.008	6.15
420.213	5.76
420.419	5.29
420.624	5.14
420.83	5.22
421.035	4.74
421.241	5.46
421.446	4.79
421.652	4.66
421.857	4.23
422.063	4.43
422.268	4.83
422.474	4.56
422.679	4.32
422.885	4.61
423.09	4.64
423.295	4.83
423.501	4.67
423.706	4.75
423.911	4.55
424.117	4.41
424.322	4.44
424.527	4.79
424.733	5.02
424.938	5.57
425.143	5.47
425.349	5.21
425.554	5.28
425.759	5.73
425.964	6.16
426.169	6.67
426.375	6.71
426.58	6.8
426.785	6.27
426.99	6.2
427.195	5.84
427.4	6.19
427.605	6.58
427.811	6.69
428.016	5.9
428.221	5.69
428.426	4.42
428.631	4.25
428.836	4.5
429.041	4.33
429.246	5
429.451	4.81
429.656	4.18
429.861	4.31
430.066	4.59
430.271	4.54
430.476	4.38
430.681	4.86
430.886	5.4
431.09	5.34
431.295	5.64
431.5	4.75
431.705	4.98
431.91	4.95
432.115	5.02
432.32	4.24
432.524	4.81
432.729	5.26
432.934	5.48
433.139	5.52
433.343	5.16
433.548	5.43
433.753	5.69
433.958	5.47
434.162	5.19
434.367	4.91
434.572	4.71
434.776	4.72
434.981	4.03
435.186	3.21
435.39	2.83
435.595	3.4
435.799	2.96
436.004	3.61
436.209	3.51
436.413	3.59
436.618	2.92
436.822	4.17
437.027	3.25
437.231	4.08
437.436	4.95
437.64	4.91
437.845	5.39
438.049	5.54
438.253	5.56
438.458	6.12
438.662	6.07
438.867	6.44
439.071	5.72
439.275	5.89
439.48	4.93
439.684	5.02
439.888	5.47
440.093	4.78
440.297	4.48
440.501	4.05
440.706	3.86
440.91	4.2
441.114	4.03
441.318	4.02
441.523	3.05
441.727	3.53
441.931	3.15
442.135	2.88
442.339	3.76
442.543	4.05
442.748	4.09
442.952	3.8
443.156	3.72
443.36	4.24
443.564	4.82
443.768	5.49
443.972	5.42
444.176	5.09
444.38	5.18
444.584	5.21
444.788	5.77
444.992	5.73
445.196	6.09
445.4	5.96
445.604	5.67
445.808	5.16
446.012	5.25
446.216	4.86
446.42	5.24
446.624	5.33
446.828	4.36
447.032	3.84
447.235	3.84
447.439	3.43
447.643	3.96
447.847	4.21
448.051	4.67
448.254	4.67
448.458	5.25
448.662	5.66
448.866	5.26
449.069	5.75
449.273	5.5
449.477	5.8
449.681	6.23
449.884	6.21
450.088	5.87
450.292	6.26
450.495	7.1
450.699	6.29
450.902	5.61
451.106	5.22
451.31	5
451.513	5.05
451.717	4.69
451.92	4.3
452.124	3.63
452.327	3.92
452.531	3.14
452.734	2.68
452.938	2.82
453.141	2.84
453.345	3.19
453.548	3.29
453.752	3.57
453.955	3.6
454.158	3.66
454.362	4.03
454.565	4.41
454.769	4.58
454.972	4.78
455.175	4.66
455.379	4.88
455.582	5.35
455.785	5.58
455.988	5.57
456.192	5.79
456.395	6.31
456.598	6.38
456.801	5.17
457.005	5.83
457.208	5.46
457.411	5.87
457.614	6.1
457.817	5.89
458.021	5.81
458.224	5.85
458.427	5.95
458.63	6.2
458.833	6.11
459.036	6.61
459.239	6.1
459.442	5.85
459.645	6.03
459.848	5.95
460.051	5.73
460.254	5.88
460.457	5.85
460.66	5.72
460.863	4.99
461.066	4.52
461.269	4.95
461.472	4.56
461.675	4.93
461.878	4.43
462.081	4.33
462.284	4.43
462.486	3.73
462.689	3.31
462.892	4.12
463.095	4.41
463.298	4.87
463.5	4.37
463.703	4.65
463.906	5.06
464.109	5.35
