Data from JASIL_3280_Reflection_1.txt Node
Date: Tue Nov 17 19:13:22 EST 2015
User: Geneva
Spectrometer: USB4E03002
Autoset integration time: false
Trigger mode: 4
Integration Time (sec): 1.000000E-1
Scans to average: 10
Electric dark correction enabled: false
Nonlinearity correction enabled: false
Boxcar width: 5
Stray light correction enabled: false
XAxis mode: Wavelengths
Stop averaging: false
Number of Pixels in Spectrum: 3648
>>>>>Begin Spectral Data<<<<<
177.575	-10.29
177.794	32.32
178.014	-32.89
178.233	-925
178.452	104.17
178.672	55.07
178.891	66.87
179.11	118.13
179.33	127.44
179.549	75.75
179.768	72.83
179.987	53.6
180.207	-226.39
180.426	-221.74
180.645	325
180.864	125.91
181.084	62.5
181.303	63.19
181.522	72.18
181.741	81.94
181.96	92.07
182.179	106.85
182.398	128.88
182.618	78.8
182.837	101.58
183.056	-633.33
183.275	4.56
183.494	-5.24
183.713	12.16
183.932	2.81
184.151	10.32
184.37	5.89
184.589	2.05
184.808	-0.77
185.027	-22.73
185.246	-42.34
185.465	-60.38
185.684	-2120
185.903	238.46
186.122	209.96
186.341	132.97
186.56	189.27
186.779	190.91
186.998	162.5
187.216	164.09
187.435	146.36
187.654	180.14
187.873	319.61
188.092	227.07
188.311	207.52
188.53	156.91
188.748	169.56
188.967	157.11
189.186	108.8
189.405	46.79
189.623	64
189.842	42.9
190.061	46.21
190.28	20.89
190.498	-30.67
190.717	2750
190.936	311.65
191.154	409.84
191.373	350
191.592	3436.36
191.81	-234.53
192.029	2046.15
192.248	-4690
192.466	-182.05
192.685	-602.99
192.904	-72.64
193.122	-30.02
193.341	-10.47
193.559	6.14
193.778	21.04
193.996	26.73
194.215	48.83
194.433	115.36
194.652	68.69
194.87	260
195.089	102.05
195.307	265.91
195.526	989.66
195.744	-201.75
195.963	177.42
196.181	133.72
196.399	147.18
196.618	109.34
196.836	165.91
197.055	256.96
197.273	353.57
197.491	344.09
197.71	386.09
197.928	402.74
198.146	145.45
198.365	168.08
198.583	125
198.801	147.5
199.019	162.63
199.238	97.11
199.456	55.07
199.674	53.14
199.892	77.04
200.111	80.13
200.329	93.22
200.547	86.25
200.765	104.84
200.983	152.19
201.202	134.09
201.42	150.81
201.638	156.99
201.856	644.9
202.074	-738.46
202.292	129.41
202.51	255.56
202.728	54.31
202.946	46.37
203.165	99.14
203.383	185.9
203.601	334.67
203.819	180.57
204.037	214.21
204.255	165.45
204.473	167.93
204.691	202.79
204.909	165.58
205.127	165.29
205.345	209.43
205.562	213.19
205.78	215.65
205.998	96.21
206.216	65.56
206.434	122.26
206.652	137.5
206.87	130.61
207.088	132.44
207.306	158.61
207.523	135.55
207.741	124
207.959	103.75
208.177	105.96
208.395	114.12
208.612	119.73
208.83	81.91
209.048	69.98
209.266	70.3
209.483	54.79
209.701	64.54
209.919	52.62
210.136	53.68
210.354	72.56
210.572	84.81
210.79	96.3
211.007	90.59
211.225	76.24
211.442	55.88
211.66	74.19
211.878	86.04
212.095	-24.86
212.313	-26.88
212.53	-15.38
212.748	-21.08
212.966	-32.84
213.183	-41.27
213.401	-40.11
213.618	-40.4
213.836	-48.52
214.053	-143.34
214.271	-129.72
214.488	157.14
214.705	100
214.923	124.62
215.14	78.08
215.358	49.46
215.575	68.52
215.793	82.99
216.01	78.85
216.227	64.81
216.445	72.94
216.662	79.1
216.879	86.51
217.097	110.87
217.314	109.98
217.531	155.93
217.749	142.28
217.966	134.55
218.183	151.05
218.4	158.57
218.618	238.59
218.835	206.61
219.052	202.04
219.269	198.71
219.487	159.1
219.704	114.69
219.921	108.6
220.138	79.63
220.355	72.35
220.572	40.77
220.79	41.67
221.007	61.42
221.224	74.05
221.441	76.97
221.658	79.86
221.875	66.73
222.092	48.35
222.309	22.01
222.526	48.62
222.743	-8.91
222.96	47.45
223.177	26.03
223.394	0.95
223.611	-1.21
223.828	11.58
224.045	25.13
224.262	21.46
224.479	28.87
224.696	43.05
224.913	43.69
225.13	49.36
225.347	36.52
225.564	34.41
225.781	26.99
225.997	33.2
226.214	29.32
226.431	18.49
226.648	25.46
226.865	26.48
227.082	25.21
227.298	17.39
227.515	21.63
227.732	17.71
227.949	17.64
228.165	17.82
228.382	15.82
228.599	9.82
228.816	10.18
229.032	6.64
229.249	5.43
229.466	7.73
229.682	9.66
229.899	3.48
230.116	6.34
230.332	0.97
230.549	-3.62
230.765	-15.67
230.982	-1.81
231.199	7.62
231.415	15.18
231.632	17.62
231.848	-2.52
232.065	5.9
232.281	3.73
232.498	6.18
232.714	17.91
232.931	24.08
233.147	26.06
233.364	14.47
233.58	6.86
233.797	4.37
234.013	-2.74
234.23	8.45
234.446	-0.91
234.662	6.14
234.879	3.91
235.095	0.96
235.312	-2.98
235.528	8.81
235.744	19.96
235.961	26.79
236.177	26.61
236.393	35.33
236.61	40.17
236.826	37.14
237.042	37.44
237.258	33.73
237.475	34.41
237.691	44.73
237.907	30.64
238.123	27.21
238.339	27.98
238.556	28.39
238.772	23.7
238.988	23.37
239.204	27.91
239.42	29.29
239.636	27.68
239.853	21.85
240.069	12.8
240.285	18.07
240.501	14.13
240.717	9.33
240.933	7.25
241.149	7.2
241.365	3.27
241.581	4.52
241.797	1.37
242.013	0.31
242.229	3.35
242.445	6.54
242.661	5.57
242.877	5.46
243.093	7.62
243.309	5.47
243.525	4.42
243.741	5.54
243.957	-0.77
244.173	0.74
244.388	-2.26
244.604	-6
244.82	-6.24
245.036	-6.41
245.252	-0.84
245.468	-0.33
245.683	-0.12
245.899	1.77
246.115	1.51
246.331	3.48
246.547	4.58
246.762	5.68
246.978	7.93
247.194	10.69
247.409	10.98
247.625	11.06
247.841	12.84
248.057	15.55
248.272	14.01
248.488	15.43
248.703	17.54
248.919	16.44
249.135	16.9
249.35	15.98
249.566	12.52
249.782	15.6
249.997	13.19
250.213	10.37
250.428	11.97
250.644	10.69
250.859	9.94
251.075	9.74
251.29	9.48
251.506	10.68
251.721	10.14
251.937	10.71
252.152	4.78
252.368	3.62
252.583	7.22
252.798	2.29
253.014	5.1
253.229	5.51
253.445	6.88
253.66	6.51
253.875	7.46
254.091	6.18
254.306	8.24
254.521	17.75
254.737	16.93
254.952	13.73
255.167	15.93
255.383	15.12
255.598	15.01
255.813	14.62
256.028	13.63
256.244	10.3
256.459	8.64
256.674	5.04
256.889	4.62
257.104	5.44
257.32	8.4
257.535	6.62
257.75	6.94
257.965	7.24
258.18	5
258.395	5.1
258.61	6.6
258.826	5.65
259.041	6.43
259.256	6.32
259.471	6.6
259.686	5.46
259.901	6.55
260.116	5.72
260.331	5.97
260.546	5.97
260.761	6.51
260.976	5.71
261.191	8.43
261.406	9
261.621	6.59
261.836	4.79
262.05	5.23
262.265	4.29
262.48	6.98
262.695	5.95
262.91	7.36
263.125	9.35
263.34	11.48
263.555	11.6
263.769	9.38
263.984	12.88
264.199	16.04
264.414	16.1
264.629	14.98
264.843	11.65
265.058	11.17
265.273	10.03
265.488	6.05
265.702	5
265.917	4.21
266.132	4.39
266.346	3.08
266.561	5.09
266.776	5.75
266.99	6.65
267.205	8.3
267.42	8.46
267.634	9.35
267.849	9.88
268.063	8.11
268.278	9.01
268.492	11.57
268.707	10
268.922	7.26
269.136	6.46
269.351	7.33
269.565	5.55
269.78	6.19
269.994	4.24
270.209	4.49
270.423	6.52
270.637	6.15
270.852	3.19
271.066	3.05
271.281	1.93
271.495	2.94
271.709	2
271.924	3.61
272.138	3.93
272.353	4.64
272.567	6.76
272.781	5.56
272.996	6.81
273.21	7.05
273.424	6.59
273.638	7.75
273.853	7.45
274.067	8.27
274.281	8.68
274.495	6.27
274.71	8.19
274.924	7.69
275.138	6.87
275.352	5.43
275.566	6.31
275.781	7.91
275.995	7.89
276.209	5.86
276.423	5.83
276.637	5.91
276.851	6.06
277.065	4
277.279	3.06
277.493	5.25
277.707	5.88
277.921	6.8
278.135	5.56
278.349	7.46
278.563	8.8
278.777	8.86
278.991	9.38
279.205	12.4
279.419	12.84
279.633	12.72
279.847	13.4
280.061	12.9
280.275	13.24
280.489	15.18
280.703	14.2
280.917	12.95
281.131	11.92
281.344	12.19
281.558	8.03
281.772	8.33
281.986	7.86
282.2	6.73
282.414	6.97
282.627	8.47
282.841	8.33
283.055	9.27
283.269	11.12
283.482	12.06
283.696	11.1
283.91	11.78
284.123	11.56
284.337	12.08
284.551	12.94
284.764	12.59
284.978	9.93
285.192	9.08
285.405	7.16
285.619	6.3
285.833	6.65
286.046	5.2
286.26	6.17
286.473	4.28
286.687	2.67
286.9	3
287.114	1.42
287.327	1.76
287.541	1.28
287.754	2.57
287.968	2.35
288.181	0.42
288.395	3.16
288.608	3.51
288.822	5.96
289.035	7.52
289.248	5.97
289.462	5.66
289.675	5.47
289.889	6.54
290.102	5.34
290.315	5.55
290.529	7
290.742	6.5
290.955	4.6
291.169	3.25
291.382	2.14
291.595	3.24
291.808	4.47
292.022	6.22
292.235	5.26
292.448	6.62
292.661	7.46
292.875	8.9
293.088	8.32
293.301	9.17
293.514	8.99
293.727	10.93
293.94	9.42
294.153	9.85
294.367	9.41
294.58	7.79
294.793	7.87
295.006	5.64
295.219	2.45
295.432	3.16
295.645	5.31
295.858	5.21
296.071	5.1
296.284	5.78
296.497	5.55
296.71	4.84
296.923	6.57
297.136	5.69
297.349	7.18
297.562	7.42
297.775	6.31
297.988	4.01
298.201	4.34
298.414	2.89
298.626	2.86
298.839	1.55
299.052	1.63
299.265	1.77
299.478	2.42
299.691	1.3
299.903	2.03
300.116	0.45
300.329	2.02
300.542	3.67
300.755	4.77
300.967	4.63
301.18	7.31
301.393	7.1
301.605	6.62
301.818	5.92
302.031	6.55
302.243	7.52
302.456	9.6
302.669	9.67
302.881	8.47
303.094	8.18
303.307	8.47
303.519	7.12
303.732	9.2
303.944	8.16
304.157	7.99
304.37	8.36
304.582	8.26
304.795	8.35
305.007	8.12
305.22	8.36
305.432	7.14
305.645	7.31
305.857	7.86
306.069	6.02
306.282	7.69
306.494	7.87
306.707	9.04
306.919	9.08
307.132	9.96
307.344	10.77
307.556	10.67
307.769	10.37
307.981	10
308.193	9.64
308.406	9.72
308.618	8.49
308.83	9.21
309.043	8.7
309.255	9.2
309.467	7.1
309.679	6.8
309.892	6.59
310.104	6.6
310.316	6.62
310.528	7.03
310.74	7.66
310.953	8.32
311.165	8.44
311.377	7.81
311.589	6.3
311.801	7.79
312.013	7.3
312.225	7.27
312.437	8.65
312.649	7.86
312.862	6.93
313.074	6.33
313.286	5.08
313.498	5.75
313.71	5.3
313.922	6.33
314.134	6.8
314.346	7.34
314.558	7.73
314.77	7.14
314.982	7.57
315.193	8.85
315.405	8.75
315.617	11.57
315.829	10.43
316.041	10.86
316.253	10.86
316.465	10.25
316.677	10.75
316.888	10.3
317.1	8.5
317.312	7.87
317.524	6.28
317.736	7.91
317.947	5.71
318.159	7.07
318.371	6.08
318.583	5.58
318.794	6.2
319.006	5.49
319.218	4.58
319.43	6.17
319.641	7.26
319.853	8.66
320.064	7.72
320.276	7.99
320.488	5.31
320.699	5.39
320.911	5.14
321.123	3.7
321.334	3.54
321.546	3.48
321.757	3.79
321.969	3.56
322.18	1.45
322.392	0.74
322.603	1.35
322.815	2.2
323.026	3.27
323.238	4.9
323.449	6.59
323.661	7.53
323.872	9.09
324.083	8.54
324.295	9.72
324.506	9.89
324.718	10.4
324.929	9.3
325.14	9.32
325.352	9.76
325.563	10.18
325.774	9.57
325.986	9.16
326.197	10.59
326.408	12.04
326.62	11.71
326.831	13.08
327.042	14.39
327.253	16.04
327.464	16.92
327.676	17.88
327.887	16.89
328.098	16.14
328.309	16
328.52	15.07
328.732	13.94
328.943	14.84
329.154	14.19
329.365	11.81
329.576	10.76
329.787	10.78
329.998	9.29
330.209	9.59
330.42	10.02
330.631	10.39
330.842	11.45
331.053	12.06
331.264	11.97
331.475	13.27
331.686	13.64
331.897	15.97
332.108	15.43
332.319	16.16
332.53	14.86
332.741	17.58
332.952	16.48
333.163	13.8
333.374	12.99
333.585	13.29
333.795	12.45
334.006	13.94
334.217	11.59
334.428	12.13
334.639	12.68
334.849	13.08
335.06	11.12
335.271	12.56
335.482	13.92
335.692	14.67
335.903	13.05
336.114	13.27
336.325	11.04
336.535	12.04
336.746	11.24
336.957	10.14
337.167	9.77
337.378	10.47
337.589	8.93
337.799	8.19
338.01	9.28
338.22	10.86
338.431	10.09
338.642	11.34
338.852	10.47
339.063	9.37
339.273	10.39
339.484	11.63
339.694	9.97
339.905	12.12
340.115	12.34
340.326	11.27
340.536	9.13
340.746	9.74
340.957	9.76
341.167	8.79
341.378	11.27
341.588	10.8
341.799	10.82
342.009	11.72
342.219	11.5
342.43	12.08
342.64	11.76
342.85	13.33
343.061	14.08
343.271	15.34
343.481	16.2
343.691	15.98
343.902	15.55
344.112	14.99
344.322	14.3
344.532	13.09
344.743	11.74
344.953	11.36
345.163	10.61
345.373	10.11
345.583	9.68
345.793	11.53
346.004	11.29
346.214	9.71
346.424	10.63
346.634	11.14
346.844	11.49
347.054	13.15
347.264	14.01
347.474	13.93
347.684	14.04
347.894	13.43
348.104	12.14
348.314	12.36
348.524	13.65
348.734	12.58
348.944	11.5
349.154	10.54
349.364	8.61
349.574	6.94
349.784	7.65
349.994	6.51
350.204	6.22
350.413	6.41
350.623	5.99
350.833	7.36
351.043	8.48
351.253	9.58
351.463	11.35
351.672	12.69
351.882	14.7
352.092	13.67
352.302	15.33
352.511	14.4
352.721	13.92
352.931	13.33
353.141	11.29
353.35	10.86
353.56	11.05
353.77	9.66
353.979	9.25
354.189	9.15
354.399	9.16
354.608	9.15
354.818	9.4
355.027	9.37
355.237	8.93
355.447	10.13
355.656	9.51
355.866	9.81
356.075	10.48
356.285	11.13
356.494	11.07
356.704	11.17
356.913	10.97
357.123	12.15
357.332	12.43
357.542	12.24
357.751	11.4
357.96	12.54
358.17	10.99
358.379	11.28
358.589	10.71
358.798	9.74
359.007	10.5
359.217	10.4
359.426	9.96
359.635	9.66
359.845	10.47
360.054	11.16
360.263	10.12
360.472	11.09
360.682	10.52
360.891	10.38
361.1	10.26
361.309	9.23
361.519	9
361.728	9.04
361.937	8.92
362.146	8.75
362.355	9.27
362.564	9.95
362.774	9.42
362.983	8.75
363.192	9.23
363.401	9.11
363.61	9.57
363.819	10.07
364.028	10.14
364.237	10.61
364.446	10.39
364.655	9.31
364.864	8.69
365.073	9.16
365.282	10.01
365.491	10.39
365.7	11.7
365.909	12.19
366.118	11.32
366.327	11.07
366.536	10.95
366.745	10.01
366.954	9.5
367.162	9.88
367.371	9.88
367.58	10.44
367.789	9.59
367.998	9.2
368.207	8.51
368.415	8.26
368.624	7.83
368.833	7.47
369.042	8.7
369.25	9.65
369.459	9.72
369.668	9.18
369.877	9.01
370.085	8.86
370.294	8.88
370.503	9.12
370.711	9.01
370.92	9.23
371.129	8.82
371.337	8.69
371.546	8.24
371.754	8.09
371.963	7.4
372.171	7.69
372.38	7.92
372.589	7.92
372.797	7.97
373.006	8.34
373.214	9.34
373.423	9.68
373.631	9.6
373.84	9.92
374.048	11.28
374.256	11.67
374.465	10.91
374.673	11.25
374.882	10.89
375.09	10.9
375.298	10.53
375.507	10.1
375.715	10.63
375.923	10.72
376.132	10.23
376.34	8.7
376.548	8.8
376.757	9.74
376.965	9.81
377.173	9.5
377.381	8.61
377.59	9.31
377.798	9.59
378.006	8.98
378.214	9.05
378.423	8.99
378.631	9.41
378.839	9.5
379.047	8.06
379.255	7.36
379.463	6.87
379.671	8.38
379.879	8.57
380.088	8.13
380.296	7.94
380.504	8.05
380.712	8.51
380.92	8.71
381.128	8.71
381.336	9.73
381.544	10.33
381.752	11.16
381.96	10.33
382.168	9.71
382.376	10.31
382.584	10.3
382.791	10
382.999	9.83
383.207	9.73
383.415	9.58
383.623	9.55
383.831	9.34
384.039	9.5
384.247	9.21
384.454	8.46
384.662	8.38
384.87	8.9
385.078	8.52
385.285	8.01
385.493	7.86
385.701	8.46
385.909	8.89
386.116	8.73
386.324	8.63
386.532	8.81
386.739	9.54
386.947	8.99
387.155	9.3
387.362	9.59
387.57	10.34
387.778	10.22
387.985	10.34
388.193	9.97
388.4	9.68
388.608	9.33
388.816	9.25
389.023	8.39
389.231	8.21
389.438	7.61
389.646	7.38
389.853	7.32
390.061	6.68
390.268	6.14
390.475	5.35
390.683	5.44
390.89	5.57
391.098	6.02
391.305	6.68
391.512	6.99
391.72	7.26
391.927	7.09
392.135	6.88
392.342	7.75
392.549	7.86
392.756	7.93
392.964	8.32
393.171	8.14
393.378	8
393.586	8.07
393.793	8.06
394	7.98
394.207	8.56
394.414	8.52
394.622	8.67
394.829	8.69
395.036	9.49
395.243	9.23
395.45	9.33
395.657	9.92
395.864	10.24
396.072	9.52
396.279	9.63
396.486	9.68
396.693	9.83
396.9	8.97
397.107	8.87
397.314	8
397.521	7.78
397.728	8.21
397.935	7.49
398.142	7.02
398.349	8.15
398.556	8.13
398.763	7.69
398.97	8.05
399.177	8.52
399.383	8.96
399.59	9.09
399.797	9.87
400.004	9.46
400.211	9.07
400.418	9.66
400.625	8.95
400.831	8.56
401.038	8.92
401.245	7.89
401.452	7.58
401.658	7.62
401.865	7.83
402.072	7.65
402.279	7.87
402.485	8.15
402.692	7.62
402.899	8.15
403.105	8.51
403.312	8.18
403.519	8.62
403.725	8.4
403.932	7.88
404.138	7.92
404.345	6.99
404.552	7.23
404.758	6.67
404.965	7.19
405.171	6.84
405.378	6.66
405.584	6.2
405.791	6.34
405.997	6.8
406.204	6.88
406.41	6.9
406.617	7.53
406.823	7.65
407.029	8.04
407.236	7.52
407.442	7.57
407.649	7.49
407.855	8.24
408.061	8.47
408.268	8.09
408.474	8.35
408.68	7.64
408.887	7.1
409.093	6.24
409.299	6.56
409.505	6.69
409.712	6.79
409.918	7.34
410.124	7.17
410.33	7.22
410.537	7.71
410.743	7.72
410.949	8.36
411.155	8.94
411.361	9.43
411.567	8.51
411.773	8.71
411.98	8.46
412.186	8.52
412.392	8.79
412.598	8.57
412.804	8.62
413.01	7.91
413.216	7.48
413.422	6.62
413.628	6.81
413.834	7.34
414.04	7.47
414.246	7.29
414.452	6.41
414.658	5.87
414.864	5.71
415.07	5.21
415.275	5.3
415.481	5.5
415.687	6.53
415.893	5.97
416.099	5.77
416.305	5.23
416.511	5.18
416.716	5.56
416.922	6.21
417.128	6.09
417.334	6.35
417.539	6.54
417.745	6.95
417.951	6.55
418.157	6.63
418.362	6.95
418.568	6.57
418.774	6.82
418.979	6.66
419.185	6.21
419.391	6.23
419.596	6.14
419.802	6.24
420.008	6.14
420.213	6.24
420.419	6.31
420.624	5.85
420.83	6.58
421.035	6.54
421.241	6.48
421.446	6.81
421.652	6.75
421.857	6.53
422.063	6.27
422.268	5.78
422.474	5.84
422.679	5.87
422.885	6.08
423.09	5.72
423.295	5.93
423.501	6.11
423.706	5.76
423.911	5.71
424.117	5.82
424.322	5.66
424.527	6.02
424.733	5.82
424.938	5.92
425.143	6.39
425.349	6.19
425.554	6.04
425.759	6.23
425.964	6.18
426.169	6.39
426.375	6.52
426.58	6.84
426.785	6.59
426.99	6.78
427.195	6.65
427.4	6.61
427.605	6.95
427.811	6.64
428.016	6.38
428.221	6.32
428.426	6.32
428.631	6.15
428.836	6.27
429.041	6.49
429.246	6.18
429.451	6.06
429.656	6.08
429.861	6.02
430.066	6.13
430.271	6.07
430.476	6.32
430.681	6.34
430.886	6.63
431.09	6.84
431.295	6.44
431.5	6.65
431.705	6.77
431.91	6.49
432.115	6.8
432.32	6.66
432.524	6.79
432.729	6.49
432.934	6.56
433.139	6.5
433.343	6.24
433.548	6.44
433.753	6.81
433.958	6.57
434.162	6.34
434.367	6.28
434.572	6.2
434.776	5.63
434.981	5.58
435.186	5.69
435.39	5.28
435.595	5.38
435.799	5.56
436.004	5.13
436.209	5.04
436.413	5.07
436.618	5.06
436.822	5.08
437.027	5.1
437.231	5.61
437.436	5
437.64	5.16
437.845	5
438.049	5
438.253	4.66
438.458	4.85
438.662	4.7
438.867	4.41
439.071	4.54
439.275	4.82
439.48	4.52
439.684	4.68
439.888	4.99
440.093	5.25
440.297	5.18
440.501	5.38
440.706	5.07
440.91	5.3
441.114	5.52
441.318	5.59
441.523	5.49
441.727	5.68
441.931	5.58
442.135	5.26
442.339	5.2
442.543	5.24
442.748	5.17
442.952	5.45
443.156	5
443.36	5.12
443.564	4.82
443.768	4.94
443.972	5.06
444.176	5.42
444.38	5.41
444.584	5.19
444.788	5.18
444.992	5.4
445.196	5.48
445.4	5.59
445.604	5.26
445.808	5.41
446.012	5.01
446.216	4.77
446.42	4.5
446.624	4.85
446.828	4.91
447.032	4.98
447.235	4.71
447.439	4.93
447.643	5.32
447.847	5.69
448.051	5.71
448.254	6.29
448.458	6.37
448.662	6.77
448.866	6.32
449.069	6.4
449.273	6.44
449.477	6.8
449.681	6.48
449.884	6.51
450.088	5.95
450.292	5.6
450.495	5.19
450.699	5.03
450.902	4.95
451.106	5.06
451.31	4.86
451.513	4.36
451.717	4.18
451.92	4.09
452.124	4.01
452.327	4.69
452.531	4.72
452.734	4.81
452.938	4.86
453.141	4.9
453.345	4.82
453.548	4.95
453.752	5.46
453.955	5.14
454.158	5.22
454.362	5.06
454.565	4.64
454.769	5.02
454.972	4.98
455.175	5.35
455.379	4.99
455.582	5.04
455.785	5.04
455.988	5.26
456.192	5.1
456.395	4.5
456.598	4.61
456.801	4.78
457.005	4.9
457.208	4.92
457.411	5.02
457.614	5.27
457.817	5.07
458.021	5.13
458.224	5.2
458.427	5.33
458.63	5.71
458.833	5.64
459.036	5.58
459.239	5.54
459.442	5.3
459.645	5.09
459.848	5.19
460.051	5.2
460.254	5.2
460.457	4.8
460.66	5.1
460.863	5.23
461.066	4.97
461.269	5.05
461.472	4.97
461.675	5.27
461.878	5.51
462.081	5.41
462.284	5.94
462.486	5.75
462.689	5.86
462.892	6.02
463.095	5.54
463.298	6.1
463.5	5.81
463.703	5.65
463.906	6.07
464.109	5.92
464.311	5.63
464.514	5.23
464.717	5.44
464.92	5.66
465.122	5.59
465.325	5.78
465.528	5.67
465.73	5.55
465.933	5.85
466.135	5.99
466.338	6.12
466.541	6.44
466.743	6.84
466.946	6.74
467.148	6.75
467.351	6.59
467.553	6.69
