Data from JASIL_2967_Reflection_1.txt Node
Date: Sat Nov 07 21:33:31 EST 2015
User: Geneva
Spectrometer: USB4E03002
Autoset integration time: false
Trigger mode: 4
Integration Time (sec): 1.000000E-1
Scans to average: 10
Electric dark correction enabled: true
Nonlinearity correction enabled: false
Boxcar width: 5
Stray light correction enabled: false
XAxis mode: Wavelengths
Stop averaging: false
Number of Pixels in Spectrum: 3648
>>>>>Begin Spectral Data<<<<<
177.575	17.28
177.794	-8.25
178.014	30.87
178.233	-79.75
178.452	-46.73
178.672	98.9
178.891	91.97
179.11	8.52
179.33	13.23
179.549	-58.89
179.768	-20.73
179.987	-34.46
180.207	-384
180.426	534.76
180.645	236.39
180.864	258.52
181.084	169.46
181.303	209.51
181.522	142.69
181.741	140.58
181.96	136.16
182.179	107.93
182.398	117.29
182.618	113.51
182.837	129.87
183.056	144.13
183.275	130.16
183.494	163.38
183.713	175.43
183.932	291.21
184.151	525.95
184.37	171.88
184.589	132.41
184.808	87.5
185.027	102.49
185.246	103.54
185.465	74.76
185.684	81.62
185.903	80.8
186.122	72.45
186.341	70.89
186.56	66.6
186.779	88.23
186.998	104.68
187.216	134.29
187.435	118.13
187.654	123.82
187.873	143.91
188.092	116.13
188.311	98.07
188.53	91.72
188.748	115.09
188.967	109.01
189.186	108.58
189.405	110.03
189.623	121.1
189.842	93.56
190.061	68.55
190.28	66.06
190.498	82.24
190.717	105.76
190.936	71.17
191.154	-103.99
191.373	1248.2
191.592	-186.05
191.81	-330.05
192.029	-81.76
192.248	-270.58
192.466	-104.35
192.685	3.26
192.904	11.85
193.122	23.79
193.341	27.16
193.559	72.11
193.778	73.59
193.996	89.31
194.215	96.43
194.433	84.99
194.652	94.27
194.87	85.6
195.089	83.48
195.307	102.19
195.526	91.51
195.744	67.09
195.963	55.43
196.181	54.64
196.399	40.06
196.618	42.5
196.836	55.95
197.055	66.03
197.273	52.82
197.491	50.65
197.71	48.38
197.928	43.49
198.146	59.58
198.365	61.83
198.583	62.59
198.801	58.5
199.019	43.07
199.238	29.66
199.456	17.81
199.674	11.91
199.892	6.68
200.111	-19.82
200.329	-10.48
200.547	-12.46
200.765	-23.26
200.983	-28.21
201.202	-23.68
201.42	-2.82
201.638	-8.12
201.856	-11.16
202.074	14.74
202.292	18.22
202.51	30.78
202.728	43.42
202.946	20.86
203.165	29.1
203.383	34.02
203.601	38.57
203.819	20.6
204.037	15.78
204.255	39.8
204.473	44.03
204.691	38.47
204.909	36.61
205.127	27.51
205.345	52.12
205.562	46.51
205.78	52.01
205.998	45.95
206.216	63.54
206.434	84.79
206.652	61.97
206.87	63.67
207.088	53.26
207.306	49.99
207.523	57.97
207.741	51.63
207.959	60.12
208.177	53.19
208.395	42.09
208.612	21.65
208.83	18.45
209.048	19.07
209.266	4.94
209.483	7.52
209.701	-12.53
209.919	-29.81
210.136	-1.03
210.354	18.89
210.572	22.34
210.79	47.29
211.007	51.84
211.225	55.6
211.442	58.77
211.66	62.01
211.878	53.81
212.095	59.53
212.313	60.44
212.53	53.34
212.748	47.52
212.966	48.9
213.183	41.8
213.401	45.28
213.618	41.11
213.836	44.48
214.053	30.96
214.271	40.44
214.488	40.1
214.705	36.57
214.923	39.66
215.14	41.26
215.358	45.22
215.575	49.16
215.793	47.83
216.01	42.43
216.227	35.8
216.445	34.65
216.662	30.25
216.879	28.42
217.097	27.53
217.314	14.4
217.531	12.23
217.749	5.1
217.966	4.33
218.183	0.03
218.4	7.72
218.618	11.36
218.835	19.18
219.052	24.45
219.269	22.59
219.487	27.89
219.704	33.93
219.921	27.15
220.138	34.48
220.355	27.33
220.572	34.45
220.79	25.6
221.007	25.43
221.224	23.28
221.441	22.05
221.658	19.8
221.875	16.56
222.092	15.52
222.309	18.06
222.526	11.62
222.743	11.22
222.96	5.2
223.177	6.08
223.394	2.3
223.611	6.8
223.828	2.74
224.045	4.69
224.262	4.58
224.479	4.13
224.696	3.89
224.913	7.9
225.13	12.09
225.347	14.34
225.564	15.57
225.781	16.49
225.997	14.18
226.214	15.05
226.431	15.54
226.648	15.5
226.865	15.87
227.082	15.31
227.298	14.05
227.515	13.15
227.732	12.16
227.949	12.4
228.165	11.99
228.382	11.87
228.599	12.17
228.816	11.87
229.032	11.27
229.249	11.02
229.466	11.15
229.682	11.36
229.899	11.5
230.116	11.69
230.332	11.69
230.549	12.02
230.765	12.9
230.982	12.31
231.199	12.58
231.415	13.65
231.632	13.86
231.848	14.23
232.065	14.4
232.281	13.5
232.498	13.53
232.714	13.83
232.931	12.75
233.147	12.96
233.364	12.9
233.58	12.93
233.797	12.7
234.013	12.86
234.23	12.88
234.446	12.16
234.662	13.95
234.879	14.81
235.095	14.74
235.312	16.93
235.528	17.2
235.744	17.32
235.961	17.15
236.177	16.86
236.393	16.99
236.61	17.31
236.826	17.39
237.042	17.48
237.258	17.78
237.475	17.23
237.691	15.61
237.907	14.12
238.123	13.62
238.339	14.45
238.556	14.21
238.772	13.79
238.988	14.21
239.204	14.22
239.42	13.72
239.636	12.97
239.853	13.15
240.069	13.23
240.285	13.39
240.501	13.38
240.717	12.63
240.933	13
241.149	12.86
241.365	12.87
241.581	12.75
241.797	12.4
242.013	12.31
242.229	12.35
242.445	12.35
242.661	11.98
242.877	12.3
243.093	12.51
243.309	12.17
243.525	11.99
243.741	11.43
243.957	11.43
244.173	11.87
244.388	11.86
244.604	11.74
244.82	11.7
245.036	11.47
245.252	11.04
245.468	10.91
245.683	11
245.899	11.04
246.115	10.9
246.331	10.96
246.547	10.73
246.762	10.73
246.978	10.62
247.194	10.42
247.409	10.46
247.625	10.28
247.841	10.21
248.057	10.05
248.272	9.85
248.488	9.84
248.703	9.63
248.919	9.51
249.135	9.36
249.35	9.08
249.566	9.26
249.782	9.27
249.997	9.8
250.213	9.49
250.428	9.52
250.644	9.63
250.859	9.71
251.075	9.73
251.29	9.86
251.506	9.47
251.721	9.49
251.937	9.58
252.152	9.64
252.368	9.38
252.583	9.84
252.798	9.9
253.014	9.99
253.229	10.11
253.445	9.64
253.66	9.5
253.875	9.67
254.091	9.41
254.306	8.53
254.521	8.36
254.737	8.49
254.952	8
255.167	7.27
255.383	7.53
255.598	7.45
255.813	8.16
256.028	7.75
256.244	7.91
256.459	7.92
256.674	8.29
256.889	8.32
257.104	7.99
257.32	8.05
257.535	8
257.75	7.75
257.965	7.43
258.18	7.24
258.395	7.44
258.61	7.47
258.826	7.55
259.041	7.42
259.256	7.34
259.471	7.3
259.686	7.25
259.901	7.24
260.116	7.24
260.331	7.39
260.546	7.47
260.761	7.38
260.976	7.1
261.191	6.83
261.406	6.74
261.621	6.58
261.836	6.6
262.05	6.2
262.265	6.14
262.48	6.16
262.695	6.02
262.91	6.1
263.125	5.98
263.34	6.62
263.555	6.89
263.769	7.03
263.984	7.26
264.199	7.29
264.414	7.69
264.629	7.68
264.843	7.59
265.058	7.23
265.273	7.27
265.488	7.41
265.702	7.29
265.917	7.7
266.132	7.73
266.346	7.86
266.561	7.86
266.776	7.89
266.99	8.18
267.205	8.1
267.42	8.4
267.634	8.19
267.849	8.19
268.063	7.94
268.278	7.53
268.492	7.55
268.707	7.39
268.922	7.38
269.136	7.22
269.351	7.02
269.565	7.16
269.78	6.86
269.994	6.69
270.209	6.71
270.423	6.98
270.637	7.04
270.852	7.06
271.066	7.04
271.281	7.13
271.495	7.16
271.709	7.04
271.924	6.9
272.138	7.04
272.353	7.22
272.567	6.95
272.781	6.78
272.996	6.76
273.21	6.68
273.424	6.66
273.638	6.54
273.853	6.78
274.067	6.79
274.281	6.87
274.495	6.86
274.71	6.95
274.924	6.95
275.138	6.69
275.352	6.55
275.566	6.6
275.781	6.62
275.995	6.67
276.209	6.59
276.423	6.48
276.637	6.24
276.851	6.17
277.065	5.99
277.279	6.29
277.493	6.7
277.707	6.73
277.921	7.09
278.135	7.09
278.349	6.9
278.563	6.63
278.777	6.58
278.991	6.86
279.205	7.16
279.419	7.21
279.633	7.09
279.847	6.91
280.061	6.99
280.275	6.79
280.489	6.98
280.703	6.78
280.917	6.7
281.131	6.86
281.344	6.78
281.558	6.56
281.772	6.53
281.986	6.63
282.2	6.65
282.414	6.66
282.627	6.55
282.841	6.35
283.055	6.58
283.269	6.58
283.482	6.59
283.696	6.64
283.91	6.81
284.123	6.8
284.337	6.68
284.551	6.59
284.764	6.44
284.978	6.47
285.192	6.37
285.405	6.46
285.619	6.68
285.833	6.54
286.046	6.43
286.26	6.34
286.473	6.28
286.687	6.34
286.9	6.7
287.114	6.79
287.327	6.85
287.541	6.94
287.754	6.86
287.968	6.67
288.181	6.88
288.395	7.01
288.608	6.94
288.822	7.07
289.035	7.16
289.248	6.85
289.462	7
289.675	7.01
289.889	7.06
290.102	6.97
290.315	7.13
290.529	7.19
290.742	7.02
290.955	7.06
291.169	7.08
291.382	6.85
291.595	6.85
291.808	6.79
292.022	6.72
292.235	6.83
292.448	7.33
292.661	7.46
292.875	7.63
293.088	7.67
293.301	7.69
293.514	7.73
293.727	7.79
293.94	7.98
294.153	8.03
294.367	7.92
294.58	7.77
294.793	7.5
295.006	7.32
295.219	7.21
295.432	7.41
295.645	7.64
295.858	7.55
296.071	7.61
296.284	7.44
296.497	7.54
296.71	7.63
296.923	7.84
297.136	7.81
297.349	8.06
297.562	7.93
297.775	7.95
297.988	7.85
298.201	7.95
298.414	8.08
298.626	8.29
298.839	8.24
299.052	8.37
299.265	8.19
299.478	8.2
299.691	7.87
299.903	8.11
300.116	8
300.329	8.05
300.542	7.89
300.755	7.71
300.967	7.82
301.18	7.95
301.393	7.92
301.605	7.89
301.818	7.93
302.031	8.06
302.243	7.81
302.456	8.15
302.669	7.97
302.881	8.21
303.094	8.39
303.307	8.39
303.519	8.38
303.732	8.45
303.944	8.57
304.157	8.47
304.37	8.73
304.582	9.03
304.795	8.75
305.007	8.75
305.22	8.76
305.432	8.62
305.645	8.74
305.857	8.76
306.069	8.98
306.282	8.9
306.494	9.17
306.707	9.04
306.919	9.1
307.132	9.06
307.344	9.06
307.556	9.04
307.769	9.2
307.981	9.01
308.193	8.87
308.406	8.45
308.618	8.6
308.83	8.53
309.043	8.45
309.255	8.3
309.467	8.42
309.679	8.46
309.892	8.47
310.104	8.3
310.316	8.33
310.528	8.31
310.74	8.64
310.953	8.68
311.165	8.77
311.377	8.69
311.589	8.84
311.801	8.69
312.013	8.9
312.225	8.96
312.437	9.36
312.649	9.2
312.862	9.27
313.074	9.19
313.286	8.98
313.498	8.93
313.71	9.35
313.922	9.2
314.134	9.42
314.346	9.46
314.558	9.45
314.77	9.23
314.982	9.21
315.193	9.32
315.405	9.15
315.617	9.27
315.829	9.26
316.041	8.93
316.253	8.9
316.465	8.9
316.677	8.62
316.888	8.66
317.1	8.76
317.312	9.14
317.524	9.2
317.736	9.35
317.947	9.36
318.159	9.56
318.371	9.95
318.583	10.04
318.794	10.08
319.006	10.34
319.218	10.21
319.43	10.1
319.641	10.1
319.853	10.13
320.064	10.32
320.276	10.4
320.488	10.35
320.699	10.13
320.911	10.34
321.123	10.56
321.334	10.32
321.546	10.43
321.757	10.55
321.969	10.38
322.18	10.35
322.392	9.98
322.603	9.8
322.815	9.68
323.026	9.61
323.238	9.46
323.449	9.33
323.661	9.41
323.872	9.58
324.083	9.51
324.295	9.43
324.506	9.3
324.718	9.3
324.929	9.54
325.14	9.57
325.352	9.73
325.563	9.99
325.774	9.87
325.986	9.89
326.197	9.68
326.408	9.64
326.62	9.78
326.831	9.83
327.042	9.96
327.253	9.98
327.464	9.82
327.676	9.39
327.887	9.35
328.098	9.35
328.309	9.46
328.52	9.7
328.732	10.03
328.943	10.17
329.154	10.36
329.365	10.31
329.576	10.48
329.787	10.6
329.998	10.96
330.209	10.83
330.42	11.01
330.631	10.84
330.842	10.64
331.053	10.5
331.264	10.32
331.475	10.19
331.686	10.44
331.897	10.33
332.108	10.41
332.319	10.31
332.53	10.37
332.741	10.27
332.952	10.34
333.163	10.47
333.374	10.66
333.585	10.6
333.795	10.68
334.006	10.5
334.217	10.45
334.428	10.59
334.639	10.62
334.849	10.74
335.06	10.8
335.271	10.64
335.482	10.62
335.692	10.47
335.903	10.45
336.114	10.2
336.325	10.29
336.535	10.15
336.746	9.86
336.957	9.98
337.167	9.82
337.378	9.69
337.589	9.77
337.799	9.69
338.01	9.68
338.22	9.67
338.431	9.78
338.642	9.64
338.852	9.6
339.063	9.61
339.273	9.47
339.484	9.5
339.694	9.61
339.905	9.64
340.115	9.53
340.326	9.2
340.536	9.37
340.746	9.38
340.957	9.32
341.167	9.56
341.378	9.62
341.588	9.68
341.799	9.57
342.009	9.38
342.219	9.5
342.43	9.63
342.64	9.72
342.85	9.55
343.061	9.55
343.271	9.62
343.481	9.57
343.691	9.57
343.902	9.38
344.112	9.27
344.322	9.37
344.532	9.21
344.743	9.17
344.953	9.05
345.163	9
345.373	8.93
345.583	8.83
345.793	8.61
346.004	8.57
346.214	8.79
346.424	8.95
346.634	9.05
346.844	9.08
347.054	9.22
347.264	9.51
347.474	9.49
347.684	9.42
347.894	9.62
348.104	9.7
348.314	9.72
348.524	9.68
348.734	9.66
348.944	9.55
349.154	9.53
349.364	9.17
349.574	9.01
349.784	9.09
349.994	9.24
350.204	9.05
350.413	8.87
350.623	8.84
350.833	8.75
351.043	8.63
351.253	8.62
351.463	8.59
351.672	8.62
351.882	8.78
352.092	8.65
352.302	8.57
352.511	8.57
352.721	8.61
352.931	8.56
353.141	8.39
353.35	8.29
353.56	8.24
353.77	8.31
353.979	8.48
354.189	8.26
354.399	8.45
354.608	8.36
354.818	8.35
355.027	8.44
355.237	8.49
355.447	8.63
355.656	8.68
355.866	8.65
356.075	8.61
356.285	8.5
356.494	8.51
356.704	8.28
356.913	8.43
357.123	8.42
357.332	8.38
357.542	8.38
357.751	8.3
357.96	8.19
358.17	8.13
358.379	8.16
358.589	8.08
358.798	8.17
359.007	8.22
359.217	7.96
359.426	8.05
359.635	7.99
359.845	7.99
360.054	7.9
360.263	8
360.472	8.05
360.682	7.94
360.891	8.03
361.1	8.04
361.309	8.08
361.519	8.08
361.728	8
361.937	8.09
362.146	7.94
362.355	8.03
362.564	7.99
362.774	7.91
362.983	7.86
363.192	7.79
363.401	7.73
363.61	7.64
363.819	7.77
364.028	7.83
364.237	7.75
364.446	8.04
364.655	8.02
364.864	8.09
365.073	8.19
365.282	8.17
365.491	8.15
365.7	8.1
365.909	8.06
366.118	8.09
366.327	7.99
366.536	7.88
366.745	7.69
366.954	7.64
367.162	7.45
367.371	7.31
367.58	7.39
367.789	7.31
367.998	7.22
368.207	7.25
368.415	7.16
368.624	7.12
368.833	7.26
369.042	7.26
369.25	7.37
369.459	7.52
369.668	7.49
369.877	7.5
370.085	7.48
370.294	7.47
370.503	7.5
370.711	7.5
370.92	7.32
371.129	7.3
371.337	7.29
371.546	7.1
371.754	7.04
371.963	7.09
372.171	7.03
372.38	7.02
372.589	7.12
372.797	7.03
373.006	6.95
373.214	7.07
373.423	6.97
373.631	6.91
373.84	6.95
374.048	6.94
374.256	6.77
374.465	6.65
374.673	6.57
374.882	6.48
375.09	6.51
375.298	6.48
375.507	6.46
375.715	6.45
375.923	6.35
376.132	6.27
376.34	6.17
376.548	6.29
376.757	6.38
376.965	6.47
377.173	6.53
377.381	6.49
377.59	6.5
377.798	6.5
378.006	6.5
378.214	6.57
378.423	6.68
378.631	6.64
378.839	6.5
379.047	6.46
379.255	6.43
379.463	6.34
379.671	6.33
379.879	6.33
380.088	6.31
380.296	6.29
380.504	6.33
380.712	6.37
380.92	6.54
381.128	6.6
381.336	6.61
381.544	6.61
381.752	6.66
381.96	6.56
382.168	6.57
382.376	6.57
382.584	6.57
382.791	6.49
382.999	6.31
383.207	6.21
383.415	6.14
383.623	6.09
383.831	6
384.039	5.99
384.247	6.05
384.454	6.01
384.662	6.07
384.87	6.03
385.078	6.09
385.285	6.17
385.493	6.09
385.701	6.18
385.909	6.21
386.116	6.34
386.324	6.28
386.532	6.28
386.739	6.25
386.947	6.05
387.155	5.98
387.362	5.96
387.57	5.97
387.778	5.97
387.985	5.99
388.193	5.96
388.4	6.02
388.608	5.95
388.816	5.91
389.023	5.91
389.231	5.99
389.438	5.99
389.646	5.83
389.853	5.81
390.061	5.82
390.268	5.78
390.475	5.81
390.683	5.54
390.89	5.56
391.098	5.53
391.305	5.5
391.512	5.45
391.72	5.43
391.927	5.44
392.135	5.34
392.342	5.39
392.549	5.33
392.756	5.19
392.964	5.24
393.171	5.26
393.378	5.25
393.586	5.26
393.793	5.34
394	5.31
394.207	5.34
394.414	5.42
394.622	5.43
394.829	5.39
395.036	5.4
395.243	5.47
395.45	5.43
395.657	5.44
395.864	5.37
396.072	5.37
396.279	5.38
396.486	5.34
396.693	5.33
396.9	5.25
397.107	5.3
397.314	5.3
397.521	5.31
397.728	5.21
397.935	5.12
398.142	5.1
398.349	5.03
398.556	5.1
398.763	5.12
398.97	5.01
399.177	5
399.383	4.94
399.59	4.96
399.797	4.9
400.004	4.94
400.211	5
400.418	5.02
400.625	4.99
400.831	4.8
401.038	4.83
401.245	4.81
401.452	4.78
401.658	4.84
401.865	4.83
402.072	4.84
402.279	4.88
402.485	4.91
402.692	4.93
402.899	5.02
403.105	5.15
403.312	5.06
403.519	5.07
403.725	5.14
403.932	5.11
404.138	5.07
404.345	5.06
404.552	4.99
404.758	5
404.965	5
405.171	4.86
405.378	4.79
405.584	4.89
405.791	4.9
405.997	4.88
406.204	4.89
406.41	4.94
406.617	4.94
406.823	4.99
407.029	4.94
407.236	4.9
407.442	4.96
407.649	5.08
407.855	5.05
408.061	5.05
408.268	4.94
408.474	4.88
408.68	4.85
408.887	4.83
409.093	4.82
409.299	4.86
409.505	4.84
409.712	4.85
409.918	4.7
410.124	4.67
410.33	4.58
410.537	4.58
410.743	4.58
410.949	4.55
411.155	4.58
411.361	4.55
411.567	4.45
411.773	4.42
411.98	4.38
412.186	4.42
412.392	4.37
412.598	4.47
412.804	4.48
413.01	4.45
413.216	4.45
413.422	4.38
413.628	4.37
413.834	4.42
414.04	4.46
414.246	4.48
414.452	4.49
414.658	4.5
414.864	4.45
415.07	4.47
415.275	4.44
415.481	4.42
415.687	4.43
415.893	4.42
416.099	4.41
416.305	4.44
416.511	4.5
416.716	4.47
416.922	4.49
417.128	4.49
417.334	4.47
417.539	4.46
417.745	4.47
417.951	4.43
418.157	4.44
418.362	4.42
418.568	4.36
418.774	4.27
418.979	4.22
419.185	4.19
419.391	4.18
419.596	4.19
419.802	4.21
420.008	4.18
420.213	4.51
420.419	4.52
420.624	4.51
420.83	4.5
421.035	4.51
421.241	4.53
421.446	4.56
421.652	4.55
421.857	4.54
422.063	4.54
422.268	4.55
422.474	4.25
422.679	4.21
422.885	4.19
423.09	4.19
423.295	4.2
423.501	4.21
423.706	4.16
423.911	4.14
424.117	4.13
424.322	4.13
424.527	4.14
424.733	4.1
424.938	4.11
425.143	4.14
425.349	4.11
425.554	4.12
425.759	4.11
425.964	4.11
426.169	4.16
426.375	4.14
426.58	4.1
426.785	4.12
426.99	4.12
427.195	4.06
427.4	4.05
427.605	4.06
427.811	4.03
428.016	4.06
428.221	4.13
428.426	4.08
428.631	4.07
428.836	4.06
429.041	3.97
429.246	4.05
429.451	4.08
429.656	4.09
429.861	4.09
430.066	4.12
430.271	4.08
430.476	4.04
430.681	4.01
430.886	4
431.09	4.02
431.295	4.04
431.5	4
431.705	4
431.91	3.99
432.115	3.97
432.32	3.95
432.524	3.91
432.729	3.87
432.934	3.93
433.139	3.94
433.343	3.99
433.548	3.99
433.753	4.01
433.958	4
434.162	3.99
434.367	4.02
434.572	3.98
434.776	4.04
434.981	4.05
435.186	4.04
435.39	4.05
435.595	4.03
435.799	4
436.004	3.98
436.209	3.99
436.413	3.96
436.618	3.9
436.822	3.92
437.027	3.86
437.231	3.86
437.436	3.82
437.64	3.81
437.845	3.78
438.049	3.81
438.253	3.74
438.458	3.72
438.662	3.75
438.867	3.78
439.071	3.81
439.275	3.85
439.48	3.86
439.684	3.87
439.888	3.85
440.093	3.84
440.297	3.82
440.501	3.88
440.706	3.9
440.91	3.93
441.114	3.92
441.318	3.91
441.523	3.89
441.727	3.88
441.931	3.94
442.135	3.96
442.339	3.97
442.543	3.97
442.748	3.91
442.952	3.9
443.156	3.85
443.36	3.86
443.564	3.8
443.768	3.78
443.972	3.74
444.176	3.66
444.38	3.65
444.584	3.6
444.788	3.6
444.992	3.63
445.196	3.61
445.4	3.65
445.604	3.61
445.808	3.62
446.012	3.63
446.216	3.64
446.42	3.61
446.624	3.6
446.828	3.59
447.032	3.61
447.235	3.59
447.439	3.6
447.643	3.57
447.847	3.58
448.051	3.53
448.254	3.54
448.458	3.53
448.662	3.59
448.866	3.57
449.069	3.63
449.273	3.66
449.477	3.68
449.681	3.69
449.884	3.7
450.088	3.74
450.292	3.81
450.495	3.79
450.699	3.85
450.902	3.88
451.106	3.87
451.31	3.81
451.513	3.75
451.717	3.71
451.92	3.72
452.124	3.68
452.327	3.7
452.531	3.71
452.734	3.7
452.938	3.63
453.141	3.56
453.345	3.62
453.548	3.66
453.752	3.66
453.955	3.66
454.158	3.63
454.362	3.66
454.565	3.59
454.769	3.53
454.972	3.5
455.175	3.48
455.379	3.48
455.582	3.42
455.785	3.38
455.988	3.36
456.192	3.33
456.395	3.34
456.598	3.34
456.801	3.35
457.005	3.36
457.208	3.36
457.411	3.4
457.614	3.44
457.817	3.46
458.021	3.46
458.224	3.49
458.427	3.55
458.63	3.57
458.833	3.53
459.036	3.53
459.239	3.55
459.442	3.55
459.645	3.57
459.848	3.55
460.051	3.54
460.254	3.56
460.457	3.54
460.66	3.52
460.863	3.5
461.066	3.54
461.269	3.54
461.472	3.53
461.675	3.58
461.878	3.57
462.081	3.55
462.284	3.54
462.486	3.57
462.689	3.6
462.892	3.61
463.095	3.6
463.298	3.58
463.5	3.57
463.703	3.59
463.906	3.56
464.109	3.53
464.311	3.56
464.514	3.59
464.717	3.6
464.92	3.61
465.122	3.62
465.325	3.65
465.528	3.65
465.73	3.66
465.933	3.65
466.135	3.69
466.338	3.73
466.541	3.72
466.743	3.73
466.946	3.67
467.148	3.67
467.351	3.62
467.553	3.6
467.756	3.65
467.958	3.66
468.161	3.68
468.363	3.64
468.566	3.59
468.768	3.55
468.971	3.51
469.173	3.53
469.375	3.49
469.578	3.62
469.78	3.61
469.983	3.6
470.185	3.59
470.387	3.58
470.59	3.57
