Data from JASIL_3270_Reflection_1.txt Node
Date: Tue Nov 17 18:52:10 EST 2015
User: Geneva
Spectrometer: USB4E03002
Autoset integration time: false
Trigger mode: 4
Integration Time (sec): 1.000000E-1
Scans to average: 10
Electric dark correction enabled: false
Nonlinearity correction enabled: false
Boxcar width: 5
Stray light correction enabled: false
XAxis mode: Wavelengths
Stop averaging: false
Number of Pixels in Spectrum: 3648
>>>>>Begin Spectral Data<<<<<
177.575	154.46
177.794	148.48
178.014	190.03
178.233	120.64
178.452	147.85
178.672	174.32
178.891	179.37
179.11	181.54
179.33	232.15
179.549	219.66
179.768	159.21
179.987	180.61
180.207	197.12
180.426	159.78
180.645	309
180.864	356.12
181.084	528.86
181.303	-45800
181.522	-1118.67
181.741	-697.09
181.96	-299.2
182.179	-285.37
182.398	-383.89
182.618	-805.61
182.837	-2720.59
183.056	-1085.51
183.275	756.12
183.494	309.65
183.713	344.1
183.932	266.15
184.151	260.97
184.37	222.58
184.589	265.6
184.808	329.52
185.027	396.13
185.246	725.85
185.465	729.15
185.684	997.28
185.903	2157.35
186.122	990.78
186.341	-2300
186.56	-408.47
186.779	-362.32
186.998	-202.69
187.216	-267.82
187.435	-125.56
187.654	-98.43
187.873	-123.59
188.092	-86.57
188.311	-138.86
188.53	-666.67
188.748	-952.38
188.967	369.79
189.186	-1057.53
189.405	3350
189.623	-81700
189.842	585.09
190.061	307.85
190.28	425
190.498	471.43
190.717	3537.04
190.936	96200
191.154	1193.02
191.373	1105.26
191.592	403.88
191.81	465.24
192.029	478.28
192.248	-618.92
192.466	-513.97
192.685	-418.94
192.904	-453.95
193.122	-780.62
193.341	-662.35
193.559	-457.73
193.778	-440.25
193.996	-1132.11
194.215	-1653.85
194.433	-954.63
194.652	537.05
194.87	630.21
195.089	457.25
195.307	1301.23
195.526	-39166.67
195.744	105300
195.963	-1202.33
196.181	-451.53
196.399	-222.38
196.618	-207.5
196.836	-420.67
197.055	-346.67
197.273	-1077.33
197.491	-368.95
197.71	-582.58
197.928	1716.33
198.146	-1000
198.365	-592.04
198.583	3237.5
198.801	5668.75
199.019	-1790.2
199.238	-991.43
199.456	3756.67
199.674	-793.15
199.892	1656.76
200.111	-1057.55
200.329	-481.46
200.547	-2818.42
200.765	662.5
200.983	-14650
201.202	-3127.27
201.42	47100
201.638	-814.42
201.856	-192.43
202.074	-170.93
202.292	-110.81
202.51	-238.64
202.728	-221.96
202.946	-245.1
203.165	-171
203.383	-333.79
203.601	-332.1
203.819	-210.86
204.037	-210.84
204.255	-2883.33
204.473	497.52
204.691	326.42
204.909	320.98
205.127	323.53
205.345	574.11
205.562	-1086.89
205.78	-3237.5
205.998	430.51
206.216	480.62
206.434	507.32
206.652	2526.09
206.87	1092
207.088	-870.69
207.306	2391.3
207.523	-3382.35
207.741	3588.24
207.959	510.83
208.177	604.31
208.395	679.7
208.612	-1597.96
208.83	1472.58
209.048	699.34
209.266	929.91
209.483	524.88
209.701	477.1
209.919	638.03
210.136	424.86
210.354	675
210.572	657.56
210.79	-18940
211.007	604.04
211.225	1141.94
211.442	751.47
211.66	566.67
211.878	1126.17
212.095	2507.89
212.313	1466.67
212.53	-414.77
212.748	1942.42
212.966	-546.46
213.183	-2372.5
213.401	-929.09
213.618	20860
213.836	-716.42
214.053	-441.5
214.271	-309.92
214.488	-291.53
214.705	-576.87
214.923	-876.58
215.14	-1224.05
215.358	-1852.83
215.575	9610
215.793	-911.54
216.01	-404.46
216.227	-242.62
216.445	-203.59
216.662	-953.93
216.879	-657.64
217.097	-391.59
217.314	-265.4
217.531	-324.53
217.749	1309.26
217.966	1371.79
218.183	172.67
218.4	215.99
218.618	174.91
218.835	136.61
219.052	140.54
219.269	124.05
219.487	138.87
219.704	131.49
219.921	105.9
220.138	149.68
220.355	170.54
220.572	275.97
220.79	204.56
221.007	215.56
221.224	178.14
221.441	168.43
221.658	194.41
221.875	193.98
222.092	222.51
222.309	226.39
222.526	146.24
222.743	148.95
222.96	141.82
223.177	139.53
223.394	133.65
223.611	163.08
223.828	200.77
224.045	154.1
224.262	158.79
224.479	135.29
224.696	146.62
224.913	184.98
225.13	203.71
225.347	244.21
225.564	209.28
225.781	209.77
225.997	173.48
226.214	124.13
226.431	118.41
226.648	100
226.865	92.12
227.082	83.47
227.298	76.85
227.515	70.58
227.732	64.16
227.949	63.5
228.165	60.46
228.382	57.67
228.599	57.12
228.816	55.87
229.032	56.16
229.249	60.94
229.466	66.54
229.682	67.4
229.899	66.46
230.116	67.87
230.332	61.3
230.549	65.57
230.765	67.86
230.982	63.08
231.199	71.39
231.415	82.94
231.632	82.37
231.848	69.59
232.065	75.53
232.281	77.91
232.498	74.76
232.714	70.61
232.931	70.54
233.147	76.64
233.364	76.09
233.58	70.61
233.797	73.13
234.013	60.01
234.23	63.23
234.446	51.59
234.662	49.73
234.879	48.2
235.095	52.75
235.312	51.1
235.528	43.99
235.744	55.12
235.961	52.81
236.177	42.66
236.393	61.35
236.61	57.42
236.826	64.49
237.042	66.91
237.258	72.13
237.475	61.3
237.691	64.44
237.907	67.27
238.123	63.36
238.339	66.03
238.556	64.4
238.772	61.35
238.988	52.58
239.204	50.49
239.42	47.21
239.636	39.58
239.853	40.25
240.069	38.38
240.285	29.52
240.501	23.05
240.717	22.95
240.933	20.45
241.149	17.26
241.365	20.8
241.581	19.96
241.797	23.09
242.013	25.21
242.229	28.84
242.445	28.65
242.661	34.27
242.877	36.93
243.093	37.78
243.309	38.1
243.525	37.23
243.741	33.27
243.957	30.75
244.173	23.51
244.388	25.08
244.604	19.13
244.82	18.04
245.036	14.77
245.252	15.86
245.468	13.91
245.683	14.31
245.899	15.2
246.115	15.77
246.331	15.52
246.547	17
246.762	15.87
246.978	15.36
247.194	14.64
247.409	12.19
247.625	10.58
247.841	12.77
248.057	12.97
248.272	13.55
248.488	15.99
248.703	17.25
248.919	18.53
249.135	20.45
249.35	22.29
249.566	25.94
249.782	31.55
249.997	32.88
250.213	31.28
250.428	29.74
250.644	28.32
250.859	29.4
251.075	26.93
251.29	22.78
251.506	22.34
251.721	20.27
251.937	19.83
252.152	18.29
252.368	18.47
252.583	16.27
252.798	17.74
253.014	20.71
253.229	13.64
253.445	15.26
253.66	17.22
253.875	14.94
254.091	22.04
254.306	22.77
254.521	23.78
254.737	24.08
254.952	24.19
255.167	23.24
255.383	17.98
255.598	20.87
255.813	23.5
256.028	23.72
256.244	23.8
256.459	19.8
256.674	18.48
256.889	18.78
257.104	15.08
257.32	14.24
257.535	14.3
257.75	16.24
257.965	14.83
258.18	13.36
258.395	11.48
258.61	10.17
258.826	9.15
259.041	9.15
259.256	8.33
259.471	9.5
259.686	8.39
259.901	8.41
260.116	7.66
260.331	8.29
260.546	8.78
260.761	10.78
260.976	12.04
261.191	15.48
261.406	16.13
261.621	19.75
261.836	20.69
262.05	22.4
262.265	22.19
262.48	22.2
262.695	22.05
262.91	21.5
263.125	21.97
263.34	22.63
263.555	23.59
263.769	21.91
263.984	17.44
264.199	18.4
264.414	21.84
264.629	24.16
264.843	23.59
265.058	19.35
265.273	19.69
265.488	19.64
265.702	18.96
265.917	16.33
266.132	17.19
266.346	18.93
266.561	17.97
266.776	14.95
266.99	13.66
267.205	12.32
267.42	14.92
267.634	14.33
267.849	15.41
268.063	17.56
268.278	18.05
268.492	18.13
268.707	17.33
268.922	17.6
269.136	19
269.351	17.79
269.565	18.21
269.78	20.8
269.994	19.75
270.209	18.01
270.423	16.86
270.637	16.36
270.852	17.67
271.066	18.72
271.281	19.29
271.495	18.35
271.709	19.67
271.924	19.39
272.138	17.42
272.353	18.02
272.567	17.99
272.781	18.8
272.996	20.74
273.21	19.16
273.424	18.24
273.638	18.07
273.853	19.77
274.067	19.71
274.281	20.41
274.495	21.44
274.71	21.22
274.924	23.06
275.138	20.58
275.352	16.82
275.566	17.84
275.781	17.32
275.995	15.62
276.209	15.86
276.423	14.66
276.637	12.83
276.851	10.97
277.065	11.83
277.279	9.68
277.493	11.45
277.707	13.43
277.921	10.46
278.135	12.37
278.349	13.93
278.563	13.16
278.777	14.62
278.991	16.48
279.205	16.61
279.419	16.35
279.633	18.52
279.847	16.12
280.061	17.34
280.275	18.18
280.489	15.35
280.703	13.21
280.917	12.02
281.131	11.47
281.344	11.3
281.558	10.8
281.772	9.64
281.986	7.62
282.2	8.29
282.414	7.2
282.627	7.06
282.841	8.42
283.055	10.25
283.269	11.02
283.482	10.28
283.696	11.97
283.91	13.31
284.123	14.3
284.337	15.15
284.551	14.7
284.764	14.03
284.978	14.27
285.192	14.07
285.405	14.23
285.619	15.05
285.833	15.51
286.046	15.22
286.26	14.81
286.473	13.73
286.687	12.95
286.9	14.97
287.114	15.74
287.327	15.51
287.541	15.49
287.754	14.92
287.968	13.74
288.181	14.28
288.395	13.43
288.608	12.4
288.822	13.7
289.035	14.62
289.248	13.47
289.462	12.71
289.675	13.17
289.889	13.61
290.102	14.91
290.315	15.83
290.529	15.47
290.742	16.07
290.955	16.15
291.169	15.92
291.382	14.62
291.595	15.95
291.808	17.04
292.022	17.37
292.235	16.46
292.448	15.64
292.661	14.59
292.875	15.32
293.088	13.42
293.301	14
293.514	11.72
293.727	11.88
293.94	10.88
294.153	11.56
294.367	10.08
294.58	9.36
294.793	8.28
295.006	9.6
295.219	8.5
295.432	9.29
295.645	9.54
295.858	11.06
296.071	11.28
296.284	11.46
296.497	9.76
296.71	10.41
296.923	10.76
297.136	9.75
297.349	9.27
297.562	9.11
297.775	10.28
297.988	10.29
298.201	11.07
298.414	9.81
298.626	10.28
298.839	11.5
299.052	11.25
299.265	12.39
299.478	12.94
299.691	12.34
299.903	11.88
300.116	10.5
300.329	11.15
300.542	9.31
300.755	10.59
300.967	10.52
301.18	11.64
301.393	12.43
301.605	10.52
301.818	11.18
302.031	12.45
302.243	13.16
302.456	11.66
302.669	11.61
302.881	12.59
303.094	13.26
303.307	11.83
303.519	9.4
303.732	8.51
303.944	9.75
304.157	9.53
304.37	9.72
304.582	10.4
304.795	11.19
305.007	11.34
305.22	10.61
305.432	10.69
305.645	11.71
305.857	13.2
306.069	14.41
306.282	13.88
306.494	16.2
306.707	15.11
306.919	13.63
307.132	13.73
307.344	12.81
307.556	13.28
307.769	12.69
307.981	12.32
308.193	13.25
308.406	12.05
308.618	11.44
308.83	9.85
309.043	10.33
309.255	10.73
309.467	10.94
309.679	11.49
309.892	11.22
310.104	11.74
310.316	11.7
310.528	10.34
310.74	10.65
310.953	12.41
311.165	12.11
311.377	12.03
311.589	12.63
311.801	11.81
312.013	12.83
312.225	12.58
312.437	13.26
312.649	14.09
312.862	14.37
313.074	15.37
313.286	15.4
313.498	15.57
313.71	14.96
313.922	14.57
314.134	14.71
314.346	14.25
314.558	15.15
314.77	14.41
314.982	16.61
315.193	16.36
315.405	15.24
315.617	14.7
315.829	16.54
316.041	16.32
316.253	16.03
316.465	17.06
316.677	15.39
316.888	14.49
317.1	13.83
317.312	12.56
317.524	13.43
317.736	14.19
317.947	14.52
318.159	15.84
318.371	16.27
318.583	17.06
318.794	17.65
319.006	20.44
319.218	20.82
319.43	21.28
319.641	20.48
319.853	21.12
320.064	18.58
320.276	18.92
320.488	16.34
320.699	15.91
320.911	17.41
321.123	17.31
321.334	15.86
321.546	17.29
321.757	16.94
321.969	17.68
322.18	17.52
322.392	20.59
322.603	19.62
322.815	19.79
323.026	20.54
323.238	19.24
323.449	18.53
323.661	16.82
323.872	17.06
324.083	17.4
324.295	16.05
324.506	15.39
324.718	14.92
324.929	15.1
325.14	14.77
325.352	13.81
325.563	14.13
325.774	15.08
325.986	16.5
326.197	15.77
326.408	15.6
326.62	15.83
326.831	16.17
327.042	15.59
327.253	17.11
327.464	17.35
327.676	18.72
327.887	18.22
328.098	18.39
328.309	17.79
328.52	17.52
328.732	17.85
328.943	18.17
329.154	18.88
329.365	18.42
329.576	15.94
329.787	15.73
329.998	16.1
330.209	17.54
330.42	16.42
330.631	17.09
330.842	18.21
331.053	18.67
331.264	19.07
331.475	18.85
331.686	21.48
331.897	22.02
332.108	23.63
332.319	22.57
332.53	21.85
332.741	22.66
332.952	22.53
333.163	20.86
333.374	20.01
333.585	19.4
333.795	19.22
334.006	17.6
334.217	18.12
334.428	17.57
334.639	17.62
334.849	18.18
335.06	18.32
335.271	18.64
335.482	20.39
335.692	21.42
335.903	21.94
336.114	23.15
336.325	23.56
336.535	24.23
336.746	23.48
336.957	24.53
337.167	24.97
337.378	24.28
337.589	24.27
337.799	21.63
338.01	22.01
338.22	21.35
338.431	20.89
338.642	20.06
338.852	18.75
339.063	19.72
339.273	20.59
339.484	19.19
339.694	19.34
339.905	20.36
340.115	22.26
340.326	21.09
340.536	22.52
340.746	20.87
340.957	22.56
341.167	23.82
341.378	24.88
341.588	24.26
341.799	25.07
342.009	26.01
342.219	25.51
342.43	24.6
342.64	25.01
342.85	24.87
343.061	25.53
343.271	24.85
343.481	23.85
343.691	22.32
343.902	21.03
344.112	20.15
344.322	20.03
344.532	19.24
344.743	19.94
344.953	20.89
345.163	19.65
345.373	20.52
345.583	20.23
345.793	20.26
346.004	20.95
346.214	22.7
346.424	23.05
346.634	21.49
346.844	21.85
347.054	22.22
347.264	20.49
347.474	21.95
347.684	20.24
347.894	19.84
348.104	20.47
348.314	19.4
348.524	17.2
348.734	17.63
348.944	19.23
349.154	19.39
349.364	19.11
349.574	19.22
349.784	18.72
349.994	20.24
350.204	20.52
350.413	20.01
350.623	19.86
350.833	20.88
351.043	20.54
351.253	20.82
351.463	21.35
351.672	22.04
351.882	21.66
352.092	21.36
352.302	20.93
352.511	21.34
352.721	19.91
352.931	21.09
353.141	20.15
353.35	20.83
353.56	20.26
353.77	18.72
353.979	18.19
354.189	18.7
354.399	18.7
354.608	16.98
354.818	16.33
355.027	19.03
355.237	17.76
355.447	18.37
355.656	16.93
355.866	16.66
356.075	17.23
356.285	16.69
356.494	17.66
356.704	17.7
356.913	19.46
357.123	20.31
357.332	19.04
357.542	20.27
357.751	19.84
357.96	20.01
358.17	19.9
358.379	19.82
358.589	19.73
358.798	18.25
359.007	18.35
359.217	17.59
359.426	16.95
359.635	16.76
359.845	15.39
360.054	15.43
360.263	16.31
360.472	16.61
360.682	16.81
360.891	16.97
361.1	17.29
361.309	16.93
361.519	17.39
361.728	17.38
361.937	17.9
362.146	18.29
362.355	19.25
362.564	18.65
362.774	18.91
362.983	18.95
363.192	19.28
363.401	19.14
363.61	19.08
363.819	18.25
364.028	18.04
364.237	17.29
364.446	17.6
364.655	16.13
364.864	16.77
365.073	15.94
365.282	15.55
365.491	15.6
365.7	16.1
365.909	16.3
366.118	17
366.327	17.97
366.536	17.95
366.745	17.74
366.954	18.81
367.162	17.81
367.371	17.7
367.58	18.07
367.789	17.86
367.998	17.83
368.207	17.88
368.415	18.4
368.624	17.99
368.833	18.44
369.042	19.22
369.25	18.17
369.459	18.99
369.668	19.99
369.877	19.35
370.085	19.25
370.294	18.23
370.503	18.24
370.711	17.14
370.92	16.1
371.129	16.29
371.337	15.91
371.546	15.92
371.754	16.61
371.963	17.02
372.171	17.69
372.38	18.06
372.589	18.83
372.797	19.09
373.006	19.39
373.214	20.8
373.423	20.07
373.631	20.19
373.84	20.68
374.048	19.09
374.256	18.02
374.465	18.47
374.673	17.97
374.882	18
375.09	18.02
375.298	18.11
375.507	17.57
375.715	18.07
375.923	17.78
376.132	16.96
376.34	17.22
376.548	17.15
376.757	16.09
376.965	16.17
377.173	15.72
377.381	15.55
377.59	15.92
377.798	15.57
378.006	15.26
378.214	15.51
378.423	16.08
378.631	15.99
378.839	16.58
379.047	17.26
379.255	17.98
379.463	18.23
379.671	18.43
379.879	18.75
380.088	19.74
380.296	20.38
380.504	20.34
380.712	20.99
380.92	21.25
381.128	20.54
381.336	20.53
381.544	19.89
381.752	20.04
381.96	19.67
382.168	19.2
382.376	17.99
382.584	17.71
382.791	17.83
382.999	17.36
383.207	17.12
383.415	16.89
383.623	16.76
383.831	16.24
384.039	16.66
384.247	16.39
384.454	16.98
384.662	17.15
384.87	16.94
385.078	16.64
385.285	17.46
385.493	18.09
385.701	17.86
385.909	17.3
386.116	17.42
386.324	16.45
386.532	17.01
386.739	16.85
386.947	16.88
387.155	16.78
387.362	17.25
387.57	16.11
387.778	15.82
387.985	17.36
388.193	17.34
388.4	17.17
388.608	17.99
388.816	17.59
389.023	16.95
389.231	17.08
389.438	16.82
389.646	15.92
389.853	16.73
390.061	16.65
390.268	16.22
390.475	16.73
390.683	16.78
390.89	16.36
391.098	16.63
391.305	17.22
391.512	17.35
391.72	17.71
391.927	17.75
392.135	17.73
392.342	17.62
392.549	17.04
392.756	16.82
392.964	17.05
393.171	17.26
393.378	16.98
393.586	16.39
393.793	16.64
394	16.22
394.207	16.98
394.414	16.4
394.622	16.11
394.829	16.1
395.036	16.95
395.243	16.79
395.45	17.36
395.657	17.38
395.864	17.05
396.072	16.28
396.279	16.18
396.486	15.66
396.693	15.87
396.9	15.87
397.107	16.74
397.314	16.08
397.521	15.86
397.728	15.34
397.935	15.78
398.142	15.93
398.349	16.25
398.556	17.1
398.763	16.39
398.97	16.81
399.177	17.45
399.383	16.82
399.59	16.73
399.797	17.11
400.004	17.54
400.211	16.98
400.418	17.39
400.625	17.6
400.831	17.31
401.038	18.09
401.245	17.71
401.452	17.64
401.658	18.06
401.865	18.12
402.072	18.46
402.279	18.48
402.485	18.8
402.692	18.45
402.899	18.57
403.105	18.63
403.312	19.06
403.519	19.74
403.725	19.26
403.932	18.92
404.138	18.91
404.345	19.23
404.552	18.91
404.758	19.22
404.965	18.62
405.171	18.39
405.378	18.4
405.584	17.99
405.791	17.45
405.997	17.87
406.204	18.29
406.41	18.55
406.617	18.28
406.823	18.61
407.029	18.51
407.236	19.1
407.442	19.12
407.649	19.06
407.855	19.22
408.061	19.83
408.268	19.87
408.474	19.79
408.68	19.8
408.887	18.99
409.093	18.24
409.299	17.96
409.505	18.71
409.712	18.53
409.918	18.88
410.124	18.82
410.33	17.89
410.537	17.95
410.743	17.94
410.949	17.99
411.155	18.63
411.361	18.9
411.567	19
411.773	18.56
411.98	19.21
412.186	18.6
412.392	18.17
412.598	18.78
412.804	18.47
413.01	17.58
413.216	17.71
413.422	18.74
413.628	18.35
413.834	17.94
414.04	17.79
414.246	16.53
414.452	16.18
414.658	16.67
414.864	16.5
415.07	16.76
415.275	17.31
415.481	17.07
415.687	16.52
415.893	16.7
416.099	17.19
416.305	17.08
416.511	17.71
416.716	17.95
416.922	18.28
417.128	18.56
417.334	18.51
417.539	18.64
417.745	18.36
417.951	18.23
418.157	18.26
418.362	18.17
418.568	18.3
418.774	18.17
418.979	17.91
419.185	17.42
419.391	16.93
419.596	16.76
419.802	16.46
420.008	16.37
420.213	16.16
420.419	16.45
420.624	16.53
420.83	16.53
421.035	16.8
421.241	16.91
421.446	17.22
421.652	17.37
421.857	17.65
422.063	17.91
422.268	18.08
422.474	18.44
422.679	17.98
422.885	17.72
423.09	17.71
423.295	17.56
423.501	17.95
423.706	17.63
423.911	17.82
424.117	17.64
424.322	17.39
424.527	17.6
424.733	17.38
424.938	17.74
425.143	17.85
425.349	17.94
425.554	18.03
425.759	18.08
425.964	18.15
426.169	17.75
426.375	18.07
426.58	18.18
426.785	18.1
426.99	18.05
427.195	18.39
427.4	18.86
427.605	19.02
427.811	18.51
428.016	18.28
428.221	18.38
428.426	18.63
428.631	18.5
428.836	19.05
429.041	18.9
429.246	18.9
429.451	18.59
429.656	18.46
429.861	18.42
430.066	19.1
430.271	19.14
430.476	19.29
430.681	19.43
430.886	19.38
431.09	19.23
431.295	19.21
431.5	19.61
431.705	19.7
431.91	19.68
432.115	19.52
432.32	19.17
432.524	19.64
432.729	19.61
432.934	19.55
433.139	19.39
433.343	19.04
433.548	18.95
433.753	18.78
433.958	18.82
434.162	18.93
434.367	18.87
434.572	18.92
434.776	18.53
434.981	18.5
435.186	18.72
435.39	18.96
435.595	18.86
435.799	18.77
436.004	18.43
436.209	18.2
436.413	17.79
436.618	17.88
436.822	18.04
437.027	18.24
437.231	18.76
437.436	18.27
437.64	18.44
437.845	18.72
438.049	19.07
438.253	19.31
438.458	19.1
438.662	19.48
438.867	19.2
439.071	18.98
439.275	18.71
439.48	18.21
439.684	18.35
439.888	18.18
440.093	18.16
440.297	18.18
440.501	18.3
440.706	18.36
440.91	18.12
441.114	18.26
441.318	18.3
441.523	18.13
441.727	18.38
441.931	18.61
442.135	18.45
442.339	18.39
442.543	18.41
442.748	18.02
442.952	18.09
443.156	18.05
443.36	18.45
443.564	18.58
443.768	18.42
443.972	18.23
444.176	17.86
444.38	17.97
444.584	18.25
444.788	18.11
444.992	18.08
445.196	18.12
445.4	18.02
445.604	17.91
445.808	17.9
446.012	17.91
446.216	17.95
446.42	18.02
446.624	17.92
446.828	17.65
447.032	17.58
447.235	17.82
447.439	17.82
447.643	17.96
447.847	17.84
448.051	17.64
448.254	17.69
448.458	17.55
448.662	17.61
448.866	17.61
449.069	17.82
449.273	17.72
449.477	17.64
449.681	17.51
449.884	17.2
450.088	16.99
450.292	17.5
450.495	17.66
450.699	17.98
450.902	18.16
451.106	18.11
451.31	18.01
451.513	18.37
451.717	18.52
451.92	18.91
452.124	18.98
452.327	19.27
452.531	19.25
