Data from JASIL_3175_Reflection_1.txt Node
Date: Thu Nov 12 23:06:05 EST 2015
User: Geneva
Spectrometer: USB4E03002
Autoset integration time: false
Trigger mode: 4
Integration Time (sec): 1.000000E-1
Scans to average: 10
Electric dark correction enabled: true
Nonlinearity correction enabled: false
Boxcar width: 5
Stray light correction enabled: false
XAxis mode: Wavelengths
Stop averaging: false
Number of Pixels in Spectrum: 3648
>>>>>Begin Spectral Data<<<<<
177.575	71.49
177.794	82.96
178.014	70.98
178.233	-44.33
178.452	37.26
178.672	86.62
178.891	94.89
179.11	55.21
179.33	399.3
179.549	169.7
179.768	-862.23
179.987	-213.84
180.207	-167.47
180.426	-525.49
180.645	666.95
180.864	575.33
181.084	408.89
181.303	2061.48
181.522	522.55
181.741	247.13
181.96	495.6
182.179	430.33
182.398	1215.46
182.618	1100.84
182.837	-345.2
183.056	-252.5
183.275	-103.94
183.494	-113.69
183.713	-108.02
183.932	-50.41
184.151	-15.73
184.37	0.69
184.589	-35.34
184.808	-37.24
185.027	-18.6
185.246	-54.3
185.465	-56.78
185.684	-43.63
185.903	-19.29
186.122	-57.18
186.341	-98.41
186.56	-132.39
186.779	-1182.62
186.998	-519.11
187.216	-186.46
187.435	-468.54
187.654	-1357.21
187.873	-1008.54
188.092	831.91
188.311	1914.96
188.53	4848.1
188.748	-7339.13
188.967	-317.7
189.186	-104.04
189.405	-147.74
189.623	-164.99
189.842	-144.92
190.061	-55.14
190.28	-106.93
190.498	-61.08
190.717	-56.14
190.936	-141.65
191.154	-58.19
191.373	-252.35
191.592	-141.87
191.81	-143.96
192.029	-923.78
192.248	-248.62
192.466	-202.64
192.685	-213.91
192.904	-131.34
193.122	-288.35
193.341	-199.26
193.559	-457.98
193.778	-179.89
193.996	-282.2
194.215	-94.09
194.433	-100.92
194.652	-211.88
194.87	-188.07
195.089	-257.5
195.307	-442.43
195.526	-828.19
195.744	4867.42
195.963	609.11
196.181	254.14
196.399	242.39
196.618	213.03
196.836	201.93
197.055	340.11
197.273	336.91
197.491	371.36
197.71	274.08
197.928	251.32
198.146	321.08
198.365	712.52
198.583	774.55
198.801	715.94
199.019	-257.32
199.238	-64.3
199.456	-362.19
199.674	-219.79
199.892	-534.56
200.111	-401.77
200.329	-360.92
200.547	-301.17
200.765	-605.34
200.983	-273.57
201.202	-200.74
201.42	-274.5
201.638	-169.14
201.856	-176.43
202.074	-237.29
202.292	-78.86
202.51	-103.08
202.728	-133.58
202.946	-137.95
203.165	-129.83
203.383	-269.27
203.601	-175.06
203.819	-150.9
204.037	-172.18
204.255	-104.51
204.473	-121.49
204.691	-134.34
204.909	-72.02
205.127	-53.22
205.345	-58.58
205.562	-71.77
205.78	-40.19
205.998	-45.33
206.216	-64.57
206.434	-188.8
206.652	-334.03
206.87	-191.77
207.088	-7111.72
207.306	-1059.53
207.523	1107.27
207.741	862.2
207.959	-2949.32
208.177	-637.31
208.395	-818.43
208.612	-367.02
208.83	-123.16
209.048	-138.58
209.266	-216.79
209.483	-83.02
209.701	-117.74
209.919	-88.03
210.136	-62.81
210.354	-39
210.572	-57.19
210.79	-44.19
211.007	-39.2
211.225	-66.67
211.442	-65.96
211.66	-73.64
211.878	-89.7
212.095	261.23
212.313	214.54
212.53	229.87
212.748	196.5
212.966	192.94
213.183	181.7
213.401	160.99
213.618	166.42
213.836	172.04
214.053	147.36
214.271	153.76
214.488	-2922.73
214.705	-955.42
214.923	-752.91
215.14	-318.47
215.358	-324.61
215.575	-125.24
215.793	-300.48
216.01	1116.4
216.227	-67154.55
216.445	-364.68
216.662	-339.57
216.879	-473.81
217.097	-225.02
217.314	-213.47
217.531	-275.29
217.749	-180.92
217.966	-150.83
218.183	-154.36
218.4	-138.17
218.618	-72.97
218.835	-92.37
219.052	-54.11
219.269	-14.3
219.487	-23.63
219.704	-25.85
219.921	-69.24
220.138	-145.49
220.355	-243.58
220.572	-160.41
220.79	-81.21
221.007	-115.57
221.224	-166.76
221.441	-159
221.658	-184.84
221.875	-125.19
222.092	-124.2
222.309	-71.34
222.526	-72.3
222.743	-61.5
222.96	-59.85
223.177	-120.96
223.394	-187.12
223.611	-92.54
223.828	-133
224.045	-99.25
224.262	-132.14
224.479	-168.75
224.696	-147.77
224.913	-139.47
225.13	-206.54
225.347	-146.06
225.564	-105.31
225.781	-70.16
225.997	-89.24
226.214	-64.32
226.431	-55.95
226.648	-46.05
226.865	-42.97
227.082	-47.64
227.298	-33.21
227.515	-16.3
227.732	-26.5
227.949	-32.91
228.165	-21.65
228.382	-10.37
228.599	-10.71
228.816	-21.8
229.032	-34.36
229.249	-22.45
229.466	-11.51
229.682	-25.38
229.899	-35.91
230.116	-24.14
230.332	-31.94
230.549	-45.41
230.765	-45.79
230.982	-56.42
231.199	-33.12
231.415	-35.63
231.632	-41.36
231.848	-58.78
232.065	-46.48
232.281	-36.05
232.498	-34.13
232.714	-26.27
232.931	-28.31
233.147	-37.33
233.364	-31.22
233.58	-34.79
233.797	-39.97
234.013	-32.51
234.23	-27.52
234.446	-40.2
234.662	-40.85
234.879	-44.46
235.095	-32.75
235.312	-34.39
235.528	-10.02
235.744	-10.85
235.961	-24.96
236.177	-27.76
236.393	-26.95
236.61	-20.95
236.826	-9.61
237.042	-4.26
237.258	-0.54
237.475	-10.58
237.691	-8.39
237.907	-23.2
238.123	-19.68
238.339	-13.91
238.556	-6.03
238.772	-12.62
238.988	3.13
239.204	5.06
239.42	-3.18
239.636	-3.03
239.853	5.81
240.069	1.89
240.285	3.87
240.501	0.74
240.717	3.11
240.933	4.81
241.149	5.23
241.365	0.79
241.581	-4.54
241.797	-2.42
242.013	-4.34
242.229	-7.29
242.445	-3.66
242.661	-4.32
242.877	-3.9
243.093	-4.4
243.309	-7.92
243.525	-4.54
243.741	-10.66
243.957	-7.53
244.173	-7.44
244.388	-11.42
244.604	-1.93
244.82	-4.1
245.036	-6.2
245.252	-0.16
245.468	3.67
245.683	4.47
245.899	5.72
246.115	7.02
246.331	9.52
246.547	7.29
246.762	7.41
246.978	3.74
247.194	2.58
247.409	4.23
247.625	1.13
247.841	-2.29
248.057	-1.64
248.272	-3.06
248.488	-3.88
248.703	-6.16
248.919	-3.96
249.135	-4.03
249.35	-5.66
249.566	-3.63
249.782	-5.85
249.997	-7.02
250.213	-3.96
250.428	-7.88
250.644	-15.15
250.859	-11.32
251.075	-17.8
251.29	-12.1
251.506	-10.72
251.721	-10.9
251.937	-11
252.152	-13.01
252.368	-19.9
252.583	-29.18
252.798	-30.6
253.014	-26.17
253.229	-27.28
253.445	-21.66
253.66	-33.09
253.875	-37
254.091	-37.97
254.306	-23.85
254.521	-24.87
254.737	-10.65
254.952	-6.78
255.167	-5.26
255.383	-4.72
255.598	-10.73
255.813	-12.93
256.028	-10.24
256.244	-5.29
256.459	-4.88
256.674	-13.84
256.889	-14.42
257.104	-12.51
257.32	-8.31
257.535	-6.87
257.75	-8.02
257.965	-2.67
258.18	-3.67
258.395	-5.71
258.61	-4.21
258.826	-1.04
259.041	0.21
259.256	0.78
259.471	0.49
259.686	-3.29
259.901	-2.84
260.116	-1.36
260.331	-4.58
260.546	-0.99
260.761	1.09
260.976	1.41
261.191	-0.63
261.406	0.45
261.621	-3.81
261.836	-2.46
262.05	0.22
262.265	-5.11
262.48	-3.15
262.695	2.88
262.91	-1
263.125	-2.14
263.34	-7.45
263.555	-6.97
263.769	-15.27
263.984	-7.87
264.199	-15.53
264.414	-13.62
264.629	-8.92
264.843	-12.95
265.058	-18.26
265.273	-14.47
265.488	-16.52
265.702	-7.36
265.917	-12.48
266.132	-15.69
266.346	-12.11
266.561	-13.6
266.776	-17.45
266.99	-18.21
267.205	-16.14
267.42	-19.85
267.634	-21.89
267.849	-20.77
268.063	-24.01
268.278	-22.42
268.492	-16.88
268.707	-16.97
268.922	-12.44
269.136	-8.68
269.351	-3.24
269.565	-5.01
269.78	-0.73
269.994	0.13
270.209	-0.03
270.423	0.13
270.637	-0.27
270.852	-1.45
271.066	-2.94
271.281	-6.59
271.495	-7.25
271.709	-14.47
271.924	-14.76
272.138	-17.29
272.353	-20.58
272.567	-20.21
272.781	-20.9
272.996	-18.71
273.21	-15.19
273.424	-16.16
273.638	-10.69
273.853	-10.43
274.067	-3.73
274.281	-1.94
274.495	-0.48
274.71	6.23
274.924	5.51
275.138	6.2
275.352	-0.69
275.566	-2.25
275.781	-5.62
275.995	-5.18
276.209	-6.98
276.423	-13.06
276.637	-17.79
276.851	-21.09
277.065	-28.08
277.279	-27.6
277.493	-27.35
277.707	-21.57
277.921	-19.35
278.135	-14.65
278.349	-7.8
278.563	-5.15
278.777	-2.95
278.991	-1.98
279.205	2.6
279.419	5.18
279.633	3.6
279.847	2.02
280.061	2.16
280.275	1.87
280.489	0.2
280.703	-11.28
280.917	-8.09
281.131	-6.57
281.344	-7.67
281.558	-8.81
281.772	-10.17
281.986	-9.11
282.2	-7.55
282.414	-8.47
282.627	-8.81
282.841	-8.14
283.055	-2.28
283.269	-5.9
283.482	-6.26
283.696	-5.32
283.91	-4.71
284.123	-8.04
284.337	-6.67
284.551	-6.89
284.764	-3.56
284.978	-4.08
285.192	-3.84
285.405	-5.74
285.619	-3.35
285.833	-1.89
286.046	1.2
286.26	0.74
286.473	3.22
286.687	5.03
286.9	7.95
287.114	8.07
287.327	6.2
287.541	4.89
287.754	7.28
287.968	2.84
288.181	1.8
288.395	-2.23
288.608	1.79
288.822	-0.41
289.035	-3.32
289.248	-7.58
289.462	-7.99
289.675	-5.44
289.889	-4.3
290.102	-3.01
290.315	-0.39
290.529	-2.14
290.742	-1.33
290.955	-2.6
291.169	0.87
291.382	1.43
291.595	4.03
291.808	4.81
292.022	6.99
292.235	7.59
292.448	4.6
292.661	4.96
292.875	5.26
293.088	6.28
293.301	2.43
293.514	0.03
293.727	-1.17
293.94	-6.07
294.153	-7.95
294.367	-11.2
294.58	-9.75
294.793	-10.45
295.006	-12.3
295.219	-9.84
295.432	-9.87
295.645	-8.61
295.858	-6.38
296.071	-6.62
296.284	-4.26
296.497	-1.76
296.71	-2.63
296.923	-2.52
297.136	-2.76
297.349	-3.13
297.562	-1.6
297.775	-0.37
297.988	-0.09
298.201	-0.91
298.414	2
298.626	4.07
298.839	1.97
299.052	4.79
299.265	3.02
299.478	6.45
299.691	8.11
299.903	5.3
300.116	3.18
300.329	4.9
300.542	6.3
300.755	3.34
300.967	1.78
301.18	0.61
301.393	-1.22
301.605	0.68
301.818	-2.01
302.031	-3.14
302.243	-1.16
302.456	1.72
302.669	1.11
302.881	-2.49
303.094	-2.81
303.307	-1.19
303.519	1.25
303.732	0.53
303.944	-2.33
304.157	-1.91
304.37	0.15
304.582	-1.25
304.795	-3.79
305.007	-5.86
305.22	-2.66
305.432	0.03
305.645	-2.63
305.857	-1.8
306.069	1.46
306.282	4.59
306.494	5.34
306.707	4.78
306.919	2.97
307.132	-0.62
307.344	-1.14
307.556	-2.92
307.769	-4.45
307.981	-3.01
308.193	-7.48
308.406	-9.84
308.618	-10.37
308.83	-10.1
309.043	-9.84
309.255	-8.01
309.467	-5.98
309.679	-2.86
309.892	-1.39
310.104	-0.68
310.316	-0.11
310.528	2.64
310.74	4.68
310.953	4.68
311.165	5.13
311.377	7.55
311.589	7.65
311.801	7.69
312.013	5.43
312.225	3.42
312.437	1.18
312.649	-0.05
312.862	0.81
313.074	-2.48
313.286	-0.92
313.498	-1.54
313.71	-6.49
313.922	-8.54
314.134	-8.12
314.346	-6.93
314.558	-5.75
314.77	-3.05
314.982	-1.09
315.193	-4.25
315.405	-5.55
315.617	-3.71
315.829	-7.42
316.041	-6.47
316.253	-1.36
316.465	-0.32
316.677	-1.28
316.888	0.74
317.1	2.99
317.312	1.96
317.524	1.66
317.736	3
317.947	-3.86
318.159	-0.58
318.371	2.24
318.583	1.14
318.794	1.37
319.006	2.52
319.218	1.07
319.43	0.24
319.641	-1.6
319.853	2.91
320.064	6.5
320.276	8.85
320.488	7.71
320.699	4.93
320.911	3.2
321.123	3.32
321.334	-2.61
321.546	-1.22
321.757	-1.96
321.969	2.51
322.18	-1.29
322.392	-5.45
322.603	-5.59
322.815	-3.68
323.026	-3.07
323.238	-2.38
323.449	-2.49
323.661	2.94
323.872	2.42
324.083	2.21
324.295	1.94
324.506	3.64
324.718	3.49
324.929	6.23
325.14	5.59
325.352	3.91
325.563	4.59
325.774	5.44
325.986	4.8
326.197	4.85
326.408	5.26
326.62	3.39
326.831	2.38
327.042	3.76
327.253	2.8
327.464	4.12
327.676	5.41
327.887	3.4
328.098	3.66
328.309	3.9
328.52	3.26
328.732	4.54
328.943	2.59
329.154	4.82
329.365	5.22
329.576	6.05
329.787	4.9
329.998	7.47
330.209	9.64
330.42	9.99
330.631	7.54
330.842	9.09
331.053	6.79
331.264	11.22
331.475	11.04
331.686	10.36
331.897	11.45
332.108	10.13
332.319	10.78
332.53	9.1
332.741	7.91
332.952	10.23
333.163	7.81
333.374	9.73
333.585	8.4
333.795	6
334.006	6.3
334.217	5.71
334.428	6.18
334.639	3.43
334.849	5.22
335.06	7.05
335.271	6.12
335.482	8.8
335.692	8.48
335.903	8.41
336.114	10.36
336.325	14.59
336.535	16.06
336.746	15.89
336.957	15.68
337.167	15.36
337.378	12.43
337.589	12.6
337.799	12.98
338.01	12.8
338.22	13.96
338.431	15.16
338.642	12
338.852	12.42
339.063	12.91
339.273	13.17
339.484	14.72
339.694	17.31
339.905	16.37
340.115	13.94
340.326	12.72
340.536	10.34
340.746	9.49
340.957	8.58
341.167	3.91
341.378	5.22
341.588	6.43
341.799	5.96
342.009	4.3
342.219	7.88
342.43	8.74
342.64	11.46
342.85	13.49
343.061	11.84
343.271	12.14
343.481	12.98
343.691	11.91
343.902	12.41
344.112	11.88
344.322	14.56
344.532	12.01
344.743	13.19
344.953	13.78
345.163	13.29
345.373	16.81
345.583	17
345.793	17.32
346.004	19.1
346.214	19.4
346.424	18.99
346.634	17.64
346.844	16.88
347.054	17.79
347.264	15.34
347.474	15.39
347.684	12.79
347.894	13.56
348.104	13.54
348.314	13.02
348.524	14.37
348.734	16.51
348.944	17.51
349.154	20.27
349.364	17.04
349.574	18.2
349.784	18.64
349.994	20.63
350.204	21.05
350.413	20.93
350.623	21.53
350.833	20.11
351.043	18.26
351.253	17.35
351.463	15.95
351.672	17.05
351.882	16.19
352.092	13.75
352.302	12.54
352.511	10.94
352.721	9.74
352.931	9.21
353.141	8.2
353.35	8.91
353.56	8.61
353.77	8.49
353.979	8.18
354.189	8.11
354.399	10.1
354.608	7.71
354.818	8.72
355.027	11.26
355.237	11.07
355.447	10.82
355.656	9.37
355.866	7.85
356.075	8.77
356.285	9.62
356.494	10.12
356.704	9.83
356.913	12.44
357.123	12.08
357.332	12.81
357.542	12.08
357.751	12.95
357.96	14.59
358.17	16.57
358.379	16.12
358.589	16.86
358.798	16.83
359.007	17.08
359.217	16.26
359.426	16.31
359.635	15.5
359.845	16.28
360.054	16.44
360.263	15.96
360.472	15.31
360.682	14.79
360.891	14.17
361.1	14.03
361.309	15.39
361.519	14.99
361.728	15.53
361.937	16.35
362.146	15.87
362.355	16.62
362.564	16.55
362.774	15.78
362.983	16.24
363.192	16.94
363.401	17.4
363.61	15.3
363.819	14.6
364.028	14.86
364.237	14.71
364.446	16.24
364.655	15.54
364.864	15.35
365.073	18.35
365.282	18.1
365.491	18.05
365.7	16.64
365.909	18.01
366.118	18.69
366.327	17.51
366.536	17.6
366.745	17.47
366.954	15.87
367.162	16.49
367.371	15.26
367.58	15.85
367.789	16.1
367.998	17.57
368.207	16.48
368.415	15.32
368.624	14.94
368.833	13.25
369.042	11.95
369.25	11.42
369.459	10.47
369.668	11.1
369.877	11.91
370.085	13.25
370.294	12.91
370.503	14.26
370.711	15.38
370.92	16.35
371.129	17.14
371.337	18
371.546	19.47
371.754	19.36
371.963	17.71
372.171	16.87
372.38	15.36
372.589	13.77
372.797	13.36
373.006	12.6
373.214	10.92
373.423	10.79
373.631	10.72
373.84	11
374.048	11.1
374.256	12.37
374.465	13.05
374.673	13.79
374.882	14.86
375.09	14.44
375.298	15.17
375.507	17.61
375.715	17.64
375.923	17.97
376.132	17.82
376.34	18.52
376.548	18.67
376.757	17.64
376.965	17.03
377.173	17.81
377.381	17.09
377.59	17.12
377.798	15.66
378.006	16.28
378.214	15.45
378.423	14.94
378.631	15.71
378.839	14.44
379.047	15.47
379.255	14.12
379.463	14.61
379.671	13.2
379.879	14.36
380.088	14.61
380.296	14.46
380.504	14.49
380.712	15.1
380.92	14.51
381.128	15.6
381.336	14.89
381.544	15.24
381.752	13.44
381.96	14.87
382.168	14.6
382.376	14.79
382.584	12.34
382.791	11.19
382.999	10.61
383.207	9.31
383.415	9.39
383.623	9.21
383.831	10.16
384.039	9.93
384.247	9.09
384.454	9.23
384.662	8.25
384.87	10.13
385.078	10.9
385.285	11.67
385.493	11.44
385.701	11.89
385.909	11.18
386.116	10.51
386.324	12.34
386.532	14.63
386.739	14.23
386.947	14.69
387.155	14.38
387.362	14.34
387.57	13.52
387.778	14.48
387.985	14.16
388.193	14.29
388.4	14.91
388.608	13.16
388.816	10.58
389.023	10.38
389.231	11.16
389.438	10.31
389.646	9.94
389.853	11.08
390.061	11.99
390.268	10.77
390.475	11.99
390.683	11.77
390.89	12.96
391.098	14.04
391.305	14.01
391.512	13.55
391.72	13.47
391.927	14.62
392.135	13.6
392.342	12.25
392.549	12.91
392.756	12.75
392.964	12.93
393.171	12.52
393.378	12.89
393.586	12.54
393.793	12.44
394	13.71
394.207	13.59
394.414	14.26
394.622	15.06
394.829	14.39
395.036	14.89
395.243	13.64
395.45	13.91
395.657	14.01
395.864	13.6
396.072	13.56
396.279	13.7
396.486	11.72
396.693	11.32
396.9	11.16
397.107	11.7
397.314	10.76
397.521	11.99
397.728	11.5
397.935	10.29
398.142	11.38
398.349	11.86
398.556	11.76
398.763	14.22
398.97	14.7
399.177	14.3
399.383	15.61
399.59	15.67
399.797	15.26
400.004	15.99
400.211	16.63
400.418	16.3
400.625	16.27
400.831	15.23
401.038	13.34
401.245	12.74
401.452	12.57
401.658	11.67
401.865	12.09
402.072	11.59
402.279	11.12
402.485	10.89
402.692	10.26
402.899	9.27
403.105	10.33
403.312	11.63
403.519	10.89
403.725	10.98
403.932	10.89
404.138	9.94
404.345	10.73
404.552	10.65
404.758	10.27
404.965	10.55
405.171	11.62
405.378	11.17
405.584	10.21
405.791	11.6
405.997	11.62
406.204	11.64
406.41	10.93
406.617	11.17
406.823	11.12
407.029	11.43
407.236	10.87
407.442	9.56
407.649	9.15
407.855	9.91
408.061	8.82
408.268	9.08
408.474	9.21
408.68	10.85
408.887	11.24
409.093	11.4
409.299	11.36
409.505	12.6
409.712	12.98
409.918	13.97
410.124	13.75
410.33	14.46
410.537	14.53
410.743	13.94
410.949	14.08
411.155	13.44
411.361	13.83
411.567	14.24
411.773	14.94
411.98	15.11
412.186	13.96
412.392	14.6
412.598	15.2
412.804	15.39
413.01	14.92
413.216	14.53
413.422	14.49
413.628	13.7
413.834	12.98
414.04	11.23
414.246	11.94
414.452	12.78
414.658	12.66
414.864	11.77
415.07	11.65
415.275	11.95
415.481	11.8
415.687	11.42
415.893	11.69
416.099	12.49
416.305	13.45
416.511	13.88
416.716	13.87
416.922	13.58
417.128	13.46
417.334	13.94
417.539	13.67
417.745	14.18
417.951	14.94
418.157	15.08
418.362	15
418.568	14.67
418.774	13.8
418.979	13.47
419.185	13.72
419.391	13.85
419.596	13.73
419.802	14.52
420.008	14.12
420.213	14.1
420.419	14.28
420.624	14.71
420.83	15.23
421.035	15.47
421.241	15.65
421.446	15.39
421.652	15.38
421.857	15.25
422.063	15.3
422.268	15.44
422.474	14.74
422.679	14.56
422.885	13.93
423.09	13.34
423.295	13.85
423.501	13.65
423.706	14.09
423.911	14.33
424.117	13.73
424.322	12.87
424.527	12.59
424.733	12.9
424.938	12.76
425.143	12.79
425.349	13.03
425.554	12.59
425.759	12.63
425.964	12.23
426.169	12.07
426.375	12.26
426.58	13.04
426.785	13.11
426.99	13
427.195	12.87
427.4	13.03
427.605	12.58
427.811	12.61
428.016	12.66
428.221	12.05
428.426	12.44
428.631	12.59
428.836	12.19
429.041	12.38
429.246	12.62
429.451	12.18
429.656	13.02
429.861	13.11
430.066	13.43
430.271	14.37
430.476	14.56
430.681	14.27
430.886	14.8
431.09	14.68
431.295	15.14
431.5	15.21
431.705	15.75
431.91	14.73
432.115	15.47
432.32	15.16
432.524	14.36
432.729	14.63
432.934	14.47
433.139	14.6
433.343	14.91
433.548	14.1
433.753	13.73
433.958	14.01
434.162	13.99
434.367	13.62
434.572	12.63
434.776	12.75
434.981	12.32
435.186	12.56
435.39	12.29
435.595	12.06
435.799	12.32
436.004	12.25
436.209	12.1
436.413	12.61
436.618	12.41
436.822	13.4
437.027	13.23
437.231	13.78
437.436	13.57
437.64	12.73
437.845	13.03
438.049	13.31
438.253	13.73
438.458	13.36
438.662	13.33
438.867	13.2
439.071	12.77
439.275	12.75
439.48	12.25
439.684	12.04
439.888	12.71
440.093	12.39
440.297	11.94
440.501	12.15
440.706	12.02
440.91	11.79
441.114	11.63
441.318	12.09
441.523	12.05
441.727	12.13
441.931	12.41
442.135	12.85
442.339	12.86
442.543	13.76
442.748	13.22
442.952	13.7
443.156	13.44
443.36	13.61
443.564	13.61
443.768	13.66
443.972	13.59
444.176	13.79
444.38	13.43
444.584	13.56
444.788	13.18
444.992	13.27
445.196	13.02
445.4	13.38
445.604	13.64
445.808	13.17
446.012	13.3
446.216	13.28
446.42	13.05
446.624	13.13
446.828	13.03
447.032	13.14
447.235	13.43
447.439	13.89
447.643	13.71
447.847	13.01
448.051	12.74
448.254	12.43
448.458	12.79
448.662	12.88
448.866	12.84
449.069	12.71
449.273	12.56
449.477	12.08
449.681	11.31
449.884	10.78
450.088	11.36
450.292	12.41
450.495	13.09
450.699	12.72
450.902	12.67
451.106	12.62
451.31	13.04
451.513	12.68
451.717	12.94
451.92	13.29
452.124	13.62
452.327	13.6
452.531	13.06
452.734	12.54
452.938	12.81
453.141	12.34
453.345	12.24
453.548	12.9
