Data from JASIL_2964_Reflection_1.txt Node
Date: Sat Nov 07 21:27:30 EST 2015
User: Geneva
Spectrometer: USB4E03002
Autoset integration time: false
Trigger mode: 4
Integration Time (sec): 1.000000E-1
Scans to average: 10
Electric dark correction enabled: true
Nonlinearity correction enabled: false
Boxcar width: 5
Stray light correction enabled: false
XAxis mode: Wavelengths
Stop averaging: false
Number of Pixels in Spectrum: 3648
>>>>>Begin Spectral Data<<<<<
177.575	82.6
177.794	163.15
178.014	121.98
178.233	255.06
178.452	128.66
178.672	66.94
178.891	166.84
179.11	150.14
179.33	189.4
179.549	142.54
179.768	29.99
179.987	-7.79
180.207	-95.86
180.426	489.22
180.645	174.16
180.864	192.84
181.084	177.62
181.303	228.08
181.522	149.39
181.741	130.6
181.96	131.44
182.179	105.12
182.398	103.94
182.618	95.79
182.837	100.32
183.056	133.66
183.275	97.35
183.494	86.04
183.713	112.48
183.932	202.39
184.151	513.54
184.37	171.28
184.589	97.51
184.808	82.17
185.027	102.44
185.246	91.08
185.465	70.76
185.684	79.62
185.903	67.52
186.122	62.27
186.341	62.34
186.56	49.74
186.779	61.02
186.998	78.12
187.216	92.71
187.435	86.22
187.654	92.62
187.873	105.89
188.092	102.31
188.311	95.84
188.53	84.68
188.748	97.91
188.967	91.66
189.186	93.15
189.405	101.49
189.623	71.18
189.842	51.02
190.061	42.31
190.28	56.79
190.498	57.19
190.717	48.52
190.936	42.08
191.154	-30.31
191.373	-479.14
191.592	-84.58
191.81	-184.32
192.029	-15.04
192.248	2.93
192.466	47
192.685	36.23
192.904	23.39
193.122	50.4
193.341	51.69
193.559	76.95
193.778	63.17
193.996	87.21
194.215	95.89
194.433	113.63
194.652	122.25
194.87	100.63
195.089	83.69
195.307	119.98
195.526	122.23
195.744	98.52
195.963	85.96
196.181	84.35
196.399	81.48
196.618	83.53
196.836	89.73
197.055	86.84
197.273	105.97
197.491	102.45
197.71	82.16
197.928	75.52
198.146	82.6
198.365	93.19
198.583	108.6
198.801	77.02
199.019	67.71
199.238	44.89
199.456	37.79
199.674	33.1
199.892	36.13
200.111	19.2
200.329	26.97
200.547	21.83
200.765	5.22
200.983	-5.03
201.202	23.45
201.42	29.74
201.638	33.81
201.856	36.02
202.074	33.76
202.292	30.69
202.51	42.11
202.728	35.64
202.946	23.86
203.165	21.37
203.383	35.51
203.601	23.39
203.819	6.48
204.037	6.27
204.255	10.39
204.473	15.21
204.691	11.85
204.909	0.87
205.127	29.15
205.345	51.65
205.562	52.21
205.78	49.15
205.998	50.05
206.216	59.29
206.434	74.33
206.652	69.88
206.87	66.94
207.088	67.29
207.306	67.94
207.523	57.95
207.741	35.36
207.959	45.84
208.177	45.48
208.395	45.88
208.612	41.27
208.83	37.23
209.048	39.43
209.266	32.58
209.483	3.1
209.701	-12.42
209.919	-29.32
210.136	0.83
210.354	23.11
210.572	22.86
210.79	27.03
211.007	34.23
211.225	27.29
211.442	29.61
211.66	34.1
211.878	44.07
212.095	103.13
212.313	105.54
212.53	99.91
212.748	94.52
212.966	103.4
213.183	98.03
213.401	90.83
213.618	98.04
213.836	93.98
214.053	99.59
214.271	97.35
214.488	29.57
214.705	12.61
214.923	14.47
215.14	19.23
215.358	27.99
215.575	24.66
215.793	34.44
216.01	25.82
216.227	30.56
216.445	26.92
216.662	24.63
216.879	28.46
217.097	39.09
217.314	37.59
217.531	35.95
217.749	25.13
217.966	29.78
218.183	21.39
218.4	33.12
218.618	30.11
218.835	30.99
219.052	33.6
219.269	30.1
219.487	31.13
219.704	29.61
219.921	25.69
220.138	34.69
220.355	32.01
220.572	36.73
220.79	25.38
221.007	28.76
221.224	28.86
221.441	28.2
221.658	28.3
221.875	27.27
222.092	25.92
222.309	20.51
222.526	16.21
222.743	18.27
222.96	13.11
223.177	14.36
223.394	11.46
223.611	9.51
223.828	7.73
224.045	7.9
224.262	6.96
224.479	7.93
224.696	10.95
224.913	12.38
225.13	13.01
225.347	13.41
225.564	14.39
225.781	13.29
225.997	14.29
226.214	13.04
226.431	12.84
226.648	12.2
226.865	12.85
227.082	12.69
227.298	11.57
227.515	10.79
227.732	10.13
227.949	10.72
228.165	9.98
228.382	9.03
228.599	9.8
228.816	10.21
229.032	9.73
229.249	9.49
229.466	9.33
229.682	9.36
229.899	9.57
230.116	10.92
230.332	11.17
230.549	13.12
230.765	14.07
230.982	14.35
231.199	14.17
231.415	15.27
231.632	15.46
231.848	15.26
232.065	16.24
232.281	16.9
232.498	16.65
232.714	15.11
232.931	15.26
233.147	16.26
233.364	14.58
233.58	15.32
233.797	14.66
234.013	14.8
234.23	15.82
234.446	14.58
234.662	14.14
234.879	14.41
235.095	14.57
235.312	13.67
235.528	13.11
235.744	13.04
235.961	12.13
236.177	13.83
236.393	13.55
236.61	12.89
236.826	13.15
237.042	13.16
237.258	13.19
237.475	13.51
237.691	13.45
237.907	13.4
238.123	13.52
238.339	13.14
238.556	11.77
238.772	11.43
238.988	12.03
239.204	12.63
239.42	12.53
239.636	11.63
239.853	11.19
240.069	10.86
240.285	10.62
240.501	10.8
240.717	10.84
240.933	11.08
241.149	10.9
241.365	10.86
241.581	10.65
241.797	10.54
242.013	10.17
242.229	10.36
242.445	10.48
242.661	10.38
242.877	10.05
243.093	9.73
243.309	9.62
243.525	9.37
243.741	9.13
243.957	8.8
244.173	9.08
244.388	9.12
244.604	8.92
244.82	9.14
245.036	9.09
245.252	9.25
245.468	9.37
245.683	9.38
245.899	9.63
246.115	9.51
246.331	9.55
246.547	9.28
246.762	9.49
246.978	9.59
247.194	9.27
247.409	9.29
247.625	9.13
247.841	8.88
248.057	9
248.272	8.75
248.488	8.95
248.703	8.8
248.919	9.02
249.135	8.64
249.35	8.4
249.566	8.69
249.782	8.35
249.997	8.67
250.213	8.88
250.428	8.92
250.644	8.76
250.859	8.24
251.075	8.57
251.29	8.29
251.506	8.46
251.721	8.5
251.937	8.43
252.152	8.75
252.368	8.45
252.583	8.69
252.798	8.03
253.014	8.62
253.229	9.26
253.445	8.75
253.66	8.97
253.875	8.71
254.091	8.32
254.306	8.27
254.521	7.35
254.737	7.34
254.952	6.46
255.167	6.87
255.383	6.2
255.598	5.73
255.813	5.91
256.028	5.56
256.244	5.48
256.459	5.66
256.674	5.97
256.889	6.15
257.104	6.31
257.32	6.72
257.535	6.65
257.75	6.59
257.965	6.57
258.18	6.59
258.395	6.71
258.61	6.66
258.826	6.71
259.041	6.4
259.256	6.4
259.471	6.36
259.686	6.46
259.901	6.52
260.116	6.52
260.331	6.41
260.546	6.42
260.761	6.49
260.976	6.56
261.191	6.4
261.406	6.5
261.621	6.61
261.836	6.45
262.05	6.13
262.265	5.83
262.48	6.03
262.695	6.47
262.91	6.72
263.125	6.43
263.34	6.95
263.555	6.92
263.769	6.98
263.984	7.12
264.199	7.15
264.414	7.48
264.629	7.28
264.843	7.06
265.058	6.75
265.273	6.55
265.488	6.64
265.702	6.27
265.917	6.68
266.132	6.89
266.346	6.81
266.561	7.11
266.776	7.04
266.99	7.55
267.205	7.63
267.42	7.48
267.634	7.18
267.849	6.87
268.063	6.97
268.278	6.73
268.492	6.84
268.707	7.18
268.922	7.04
269.136	6.82
269.351	6.49
269.565	6.67
269.78	6.79
269.994	6.96
270.209	7.16
270.423	7.13
270.637	7.1
270.852	6.95
271.066	6.55
271.281	6.52
271.495	6.6
271.709	6.56
271.924	6.35
272.138	6.19
272.353	6.24
272.567	6.19
272.781	6.1
272.996	6.14
273.21	6
273.424	5.95
273.638	5.88
273.853	5.82
274.067	5.83
274.281	6.09
274.495	6.15
274.71	6
274.924	5.89
275.138	5.97
275.352	5.92
275.566	6.22
275.781	6.57
275.995	6.71
276.209	6.78
276.423	6.6
276.637	6.31
276.851	6.22
277.065	6.15
277.279	6.12
277.493	6.1
277.707	5.9
277.921	5.89
278.135	5.69
278.349	5.71
278.563	5.53
278.777	5.5
278.991	5.91
279.205	6.25
279.419	6.67
279.633	6.61
279.847	6.64
280.061	6.8
280.275	6.53
280.489	6.48
280.703	6.3
280.917	6.2
281.131	6.35
281.344	5.9
281.558	5.68
281.772	5.32
281.986	5.5
282.2	5.51
282.414	5.53
282.627	5.62
282.841	5.78
283.055	5.74
283.269	5.61
283.482	5.56
283.696	5.78
283.91	5.9
284.123	5.86
284.337	5.7
284.551	5.5
284.764	5.51
284.978	5.59
285.192	5.41
285.405	5.46
285.619	5.77
285.833	5.6
286.046	5.45
286.26	5.36
286.473	5.36
286.687	5.51
286.9	5.62
287.114	5.43
287.327	5.5
287.541	5.62
287.754	5.71
287.968	5.4
288.181	5.47
288.395	5.49
288.608	5.46
288.822	5.59
289.035	5.6
289.248	5.66
289.462	5.98
289.675	5.9
289.889	5.92
290.102	5.87
290.315	6.08
290.529	6.08
290.742	6
290.955	6.1
291.169	6.06
291.382	5.82
291.595	5.78
291.808	5.54
292.022	5.58
292.235	5.37
292.448	5.47
292.661	5.48
292.875	5.62
293.088	5.58
293.301	5.71
293.514	5.59
293.727	5.68
293.94	5.72
294.153	5.56
294.367	5.43
294.58	5.33
294.793	5.05
295.006	4.94
295.219	5.05
295.432	5.14
295.645	5.18
295.858	5.23
296.071	5.29
296.284	5.16
296.497	5.3
296.71	5.27
296.923	5.44
297.136	5.56
297.349	5.75
297.562	5.58
297.775	5.69
297.988	5.68
298.201	5.76
298.414	5.69
298.626	5.91
298.839	5.8
299.052	6
299.265	5.69
299.478	5.66
299.691	5.31
299.903	5.38
300.116	5.2
300.329	5.03
300.542	5.14
300.755	5.31
300.967	5.36
301.18	5.37
301.393	5.02
301.605	5.14
301.818	5.03
302.031	5.19
302.243	5.22
302.456	5.51
302.669	5.48
302.881	5.47
303.094	5.37
303.307	5.36
303.519	5.52
303.732	5.71
303.944	5.89
304.157	5.89
304.37	5.94
304.582	6
304.795	5.86
305.007	5.94
305.22	5.95
305.432	5.93
305.645	5.68
305.857	5.72
306.069	5.69
306.282	5.66
306.494	5.96
306.707	5.94
306.919	5.93
307.132	5.73
307.344	5.55
307.556	5.39
307.769	5.5
307.981	5.54
308.193	5.5
308.406	5.42
308.618	5.48
308.83	5.34
309.043	5.43
309.255	5.41
309.467	5.48
309.679	5.66
309.892	5.74
310.104	5.66
310.316	5.61
310.528	5.61
310.74	5.82
310.953	5.91
311.165	6.02
311.377	5.78
311.589	5.73
311.801	5.8
312.013	5.8
312.225	5.94
312.437	6.21
312.649	6.34
312.862	6.39
313.074	6.3
313.286	6.11
313.498	5.83
313.71	6.16
313.922	6.29
314.134	6.48
314.346	6.42
314.558	6.39
314.77	6.2
314.982	6.16
315.193	6.17
315.405	6.01
315.617	6
315.829	6.18
316.041	6.14
316.253	5.87
316.465	5.72
316.677	5.6
316.888	5.31
317.1	5.43
317.312	5.82
317.524	5.83
317.736	6.03
317.947	6.34
318.159	6.53
318.371	6.55
318.583	6.89
318.794	6.95
319.006	7.07
319.218	7.18
319.43	6.92
319.641	6.6
319.853	6.61
320.064	6.61
320.276	6.8
320.488	6.7
320.699	6.69
320.911	6.62
321.123	6.84
321.334	7.01
321.546	7.11
321.757	7.23
321.969	7.24
322.18	7.3
322.392	7.08
322.603	6.91
322.815	6.92
323.026	7.03
323.238	6.98
323.449	6.78
323.661	6.64
323.872	6.74
324.083	6.74
324.295	6.69
324.506	6.47
324.718	6.54
324.929	6.64
325.14	6.97
325.352	7.06
325.563	7.28
325.774	7.2
325.986	7.34
326.197	7.21
326.408	7.25
326.62	7.51
326.831	7.85
327.042	8.13
327.253	8.32
327.464	8.14
327.676	8.11
327.887	8.03
328.098	8.06
328.309	8.05
328.52	8.37
328.732	8.73
328.943	8.81
329.154	9.03
329.365	9.01
329.576	9.01
329.787	8.89
329.998	9.05
330.209	9.18
330.42	9.6
330.631	9.66
330.842	9.78
331.053	9.75
331.264	9.67
331.475	9.48
331.686	9.72
331.897	9.71
332.108	9.9
332.319	9.86
332.53	9.83
332.741	9.7
332.952	9.68
333.163	9.54
333.374	9.65
333.585	9.74
333.795	9.86
334.006	9.7
334.217	9.64
334.428	9.87
334.639	9.95
334.849	10.15
335.06	10.24
335.271	10.28
335.482	10.37
335.692	10.24
335.903	10.19
336.114	10.2
336.325	10.39
336.535	10.31
336.746	10.02
336.957	10.01
337.167	10.02
337.378	9.99
337.589	10.11
337.799	10.08
338.01	10.14
338.22	10.38
338.431	10.16
338.642	10.17
338.852	10.19
339.063	10.26
339.273	10.21
339.484	10.2
339.694	10.18
339.905	10.09
340.115	9.98
340.326	9.79
340.536	9.62
340.746	9.69
340.957	9.55
341.167	9.5
341.378	9.39
341.588	9.59
341.799	9.38
342.009	9.34
342.219	9.39
342.43	9.52
342.64	9.5
342.85	9.47
343.061	9.49
343.271	9.53
343.481	9.62
343.691	9.64
343.902	9.46
344.112	9.54
344.322	9.66
344.532	9.71
344.743	9.69
344.953	9.72
345.163	9.85
345.373	9.86
345.583	9.9
345.793	9.75
346.004	9.83
346.214	9.93
346.424	10.01
346.634	10.01
346.844	9.94
347.054	9.92
347.264	10.13
347.474	9.89
347.684	9.93
347.894	9.77
348.104	9.78
348.314	9.87
348.524	9.83
348.734	9.82
348.944	9.73
349.154	9.62
349.364	9.62
349.574	9.43
349.784	9.49
349.994	9.44
350.204	9.35
350.413	9.46
350.623	9.38
350.833	9.07
351.043	8.98
351.253	9.07
351.463	9.11
351.672	8.83
351.882	8.82
352.092	8.71
352.302	8.76
352.511	8.82
352.721	8.76
352.931	8.73
353.141	8.8
353.35	8.68
353.56	8.46
353.77	8.63
353.979	9.02
354.189	9.09
354.399	9.26
354.608	9.2
354.818	9.2
355.027	9.29
355.237	9.34
355.447	9.46
355.656	9.58
355.866	9.58
356.075	9.42
356.285	9.19
356.494	9.09
356.704	8.93
356.913	9
357.123	8.94
357.332	8.87
357.542	8.84
357.751	8.79
357.96	8.64
358.17	8.76
358.379	8.75
358.589	8.71
358.798	8.72
359.007	8.84
359.217	8.72
359.426	8.84
359.635	8.7
359.845	8.69
360.054	8.63
360.263	8.7
360.472	8.64
360.682	8.64
360.891	8.71
361.1	8.76
361.309	8.7
361.519	8.7
361.728	8.64
361.937	8.8
362.146	8.78
362.355	8.84
362.564	8.85
362.774	8.81
362.983	8.76
363.192	8.76
363.401	8.64
363.61	8.59
363.819	8.6
364.028	8.67
364.237	8.53
364.446	8.61
364.655	8.53
364.864	8.54
365.073	8.66
365.282	8.73
365.491	8.71
365.7	8.76
365.909	8.81
366.118	8.94
366.327	8.79
366.536	8.81
366.745	8.68
366.954	8.72
367.162	8.68
367.371	8.5
367.58	8.42
367.789	8.4
367.998	8.43
368.207	8.63
368.415	8.53
368.624	8.56
368.833	8.56
369.042	8.65
369.25	8.76
369.459	8.73
369.668	8.72
369.877	8.84
370.085	8.81
370.294	8.77
370.503	8.59
370.711	8.49
370.92	8.45
371.129	8.38
371.337	8.32
371.546	8.12
371.754	8.13
371.963	8.14
372.171	8.08
372.38	7.99
372.589	8.04
372.797	7.93
373.006	7.86
373.214	7.82
373.423	7.88
373.631	7.83
373.84	7.91
374.048	7.81
374.256	7.82
374.465	7.79
374.673	7.82
374.882	7.57
375.09	7.57
375.298	7.63
375.507	7.64
375.715	7.66
375.923	7.6
376.132	7.65
376.34	7.63
376.548	7.59
376.757	7.55
376.965	7.54
377.173	7.73
377.381	7.81
377.59	7.81
377.798	7.78
378.006	7.72
378.214	7.73
378.423	7.65
378.631	7.69
378.839	7.75
379.047	7.74
379.255	7.8
379.463	7.75
379.671	7.61
379.879	7.57
380.088	7.58
380.296	7.71
380.504	7.73
380.712	7.74
380.92	7.88
381.128	7.78
381.336	7.73
381.544	7.66
381.752	7.64
381.96	7.65
382.168	7.64
382.376	7.72
382.584	7.65
382.791	7.67
382.999	7.64
383.207	7.5
383.415	7.43
383.623	7.49
383.831	7.48
384.039	7.47
384.247	7.5
384.454	7.61
384.662	7.62
384.87	7.54
385.078	7.41
385.285	7.34
385.493	7.29
385.701	7.33
385.909	7.32
386.116	7.28
386.324	7.33
386.532	7.27
386.739	7.15
386.947	7.05
387.155	6.94
387.362	7.05
387.57	7.18
387.778	7.21
387.985	7.33
388.193	7.34
388.4	7.49
388.608	7.36
388.816	7.35
389.023	7.32
389.231	7.3
389.438	7.42
389.646	7.31
389.853	7.2
390.061	7.22
390.268	7.18
390.475	7.1
390.683	6.98
390.89	6.96
391.098	6.94
391.305	6.98
391.512	6.93
391.72	6.87
391.927	6.81
392.135	6.85
392.342	6.74
392.549	6.7
392.756	6.66
392.964	6.65
393.171	6.65
393.378	6.75
393.586	6.74
393.793	6.84
394	6.77
394.207	6.8
394.414	6.75
394.622	6.83
394.829	6.8
395.036	6.83
395.243	6.8
395.45	6.8
395.657	6.66
395.864	6.61
396.072	6.62
396.279	6.69
396.486	6.68
396.693	6.7
396.9	6.69
397.107	6.65
397.314	6.63
397.521	6.72
397.728	6.69
397.935	6.68
398.142	6.66
398.349	6.57
398.556	6.56
398.763	6.57
398.97	6.51
399.177	6.46
399.383	6.46
399.59	6.49
399.797	6.4
400.004	6.46
400.211	6.51
400.418	6.5
400.625	6.45
400.831	6.45
401.038	6.46
401.245	6.36
401.452	6.27
401.658	6.27
401.865	6.28
402.072	6.32
402.279	6.33
402.485	6.33
402.692	6.3
402.899	6.32
403.105	6.37
403.312	6.36
403.519	6.44
403.725	6.53
403.932	6.55
404.138	6.53
404.345	6.43
404.552	6.36
404.758	6.4
404.965	6.4
405.171	6.4
405.378	6.27
405.584	6.25
405.791	6.22
405.997	6.19
406.204	6.11
406.41	5.98
406.617	6.04
406.823	6.07
407.029	5.98
407.236	6.01
407.442	6.05
407.649	6.16
407.855	6.18
408.061	6.18
408.268	6.22
408.474	6.23
408.68	6.36
408.887	6.3
409.093	6.25
409.299	6.32
409.505	6.27
409.712	6.23
409.918	6.12
410.124	6.13
410.33	6.14
410.537	6.11
410.743	6.12
410.949	6.1
411.155	6.14
411.361	6.21
411.567	6.11
411.773	6.12
411.98	6.08
412.186	6.14
412.392	6.09
412.598	6.14
412.804	6.07
413.01	6.07
413.216	6.05
413.422	6.05
413.628	6.07
413.834	6.06
414.04	6.05
414.246	6.04
414.452	6
414.658	6.02
414.864	5.98
415.07	5.99
415.275	6.04
415.481	5.97
415.687	5.88
415.893	5.82
416.099	5.85
416.305	5.88
416.511	5.87
416.716	5.85
416.922	5.85
417.128	5.84
417.334	5.87
417.539	5.81
417.745	5.86
417.951	5.9
418.157	5.92
418.362	5.92
418.568	5.91
418.774	5.89
418.979	5.86
419.185	5.83
419.391	5.83
419.596	5.8
419.802	5.79
420.008	5.73
420.213	5.65
420.419	5.6
420.624	5.58
420.83	5.56
421.035	5.58
421.241	5.62
421.446	5.67
421.652	5.65
421.857	5.63
422.063	5.61
422.268	5.64
422.474	5.72
422.679	5.76
422.885	5.76
423.09	5.75
423.295	5.73
423.501	5.7
423.706	5.59
423.911	5.63
424.117	5.64
424.322	5.67
424.527	5.66
424.733	5.6
424.938	5.61
425.143	5.61
425.349	5.58
425.554	5.6
425.759	5.63
425.964	5.66
426.169	5.65
426.375	5.64
426.58	5.63
426.785	5.61
426.99	5.66
427.195	5.61
427.4	5.62
427.605	5.6
427.811	5.59
428.016	5.61
428.221	5.68
428.426	5.64
428.631	5.64
428.836	5.6
429.041	5.58
429.246	5.54
429.451	5.59
429.656	5.57
429.861	5.58
430.066	5.61
430.271	5.55
430.476	5.48
430.681	5.47
430.886	5.5
431.09	5.6
431.295	5.62
431.5	5.64
431.705	5.58
431.91	5.57
432.115	5.58
432.32	5.59
432.524	5.59
432.729	5.58
432.934	5.59
433.139	5.55
433.343	5.54
433.548	5.51
433.753	5.49
433.958	5.48
434.162	5.47
434.367	5.47
434.572	5.42
434.776	5.47
434.981	5.45
435.186	5.43
435.39	5.45
435.595	5.44
435.799	5.47
436.004	5.51
436.209	5.56
436.413	5.56
436.618	5.54
436.822	5.57
437.027	5.52
437.231	5.54
437.436	5.53
437.64	5.51
437.845	5.48
438.049	5.44
438.253	5.4
438.458	5.37
438.662	5.39
438.867	5.36
439.071	5.38
439.275	5.42
439.48	5.43
439.684	5.44
439.888	5.4
440.093	5.39
440.297	5.41
440.501	5.43
440.706	5.43
440.91	5.47
441.114	5.48
441.318	5.45
441.523	5.43
441.727	5.43
441.931	5.49
442.135	5.49
442.339	5.48
442.543	5.51
442.748	5.48
442.952	5.48
443.156	5.43
443.36	5.46
443.564	5.45
443.768	5.43
443.972	5.37
444.176	5.32
444.38	5.31
444.584	5.31
444.788	5.28
444.992	5.28
445.196	5.27
445.4	5.27
445.604	5.24
445.808	5.24
446.012	5.27
446.216	5.31
446.42	5.27
446.624	5.31
446.828	5.29
447.032	5.29
447.235	5.29
447.439	5.28
447.643	5.28
447.847	5.29
448.051	5.29
448.254	5.25
448.458	5.22
448.662	5.3
448.866	5.24
449.069	5.25
449.273	5.29
449.477	5.32
449.681	5.34
449.884	5.36
450.088	5.34
450.292	5.36
450.495	5.4
450.699	5.46
450.902	5.38
451.106	5.42
451.31	5.42
451.513	5.33
451.717	5.3
451.92	5.27
452.124	5.19
452.327	5.23
452.531	5.2
452.734	5.19
452.938	5.12
453.141	5.15
453.345	5.17
453.548	5.14
453.752	5.18
453.955	5.19
454.158	5.18
454.362	5.2
454.565	5.13
454.769	5.15
454.972	5.15
455.175	5.13
455.379	5.15
455.582	5.13
455.785	5.17
455.988	5.17
456.192	5.17
456.395	5.15
456.598	5.25
456.801	5.28
457.005	5.25
457.208	5.2
457.411	5.21
457.614	5.18
457.817	5.17
458.021	5.15
458.224	5.17
458.427	5.2
458.63	5.22
458.833	5.14
459.036	5.16
459.239	5.18
459.442	5.18
459.645	5.19
459.848	5.19
460.051	5.17
460.254	5.19
460.457	5.17
460.66	5.13
460.863	5.17
461.066	5.23
461.269	5.22
461.472	5.22
461.675	5.23
461.878	5.28
462.081	5.29
462.284	5.34
462.486	5.31
462.689	5.32
462.892	5.33
463.095	5.29
463.298	5.24
463.5	5.23
463.703	5.22
463.906	5.27
464.109	5.21
464.311	5.23
464.514	5.24
464.717	5.22
464.92	5.25
465.122	5.28
465.325	5.35
465.528	5.39
465.73	5.37
465.933	5.35
466.135	5.34
466.338	5.36
466.541	5.32
466.743	5.35
466.946	5.37
467.148	5.33
467.351	5.32
467.553	5.28
467.756	5.28
467.958	5.33
468.161	5.36
468.363	5.32
468.566	5.28
468.768	5.27
468.971	5.23
469.173	5.23
469.375	5.23
469.578	5.25
469.78	5.19
469.983	5.22
470.185	5.14
470.387	5.18
470.59	5.18
470.792	5.2
470.994	5.25
