Data from JASIL_3273_Reflection_1.txt Node
Date: Tue Nov 17 18:58:45 EST 2015
User: Geneva
Spectrometer: USB4E03002
Autoset integration time: false
Trigger mode: 4
Integration Time (sec): 1.000000E-1
Scans to average: 10
Electric dark correction enabled: false
Nonlinearity correction enabled: false
Boxcar width: 5
Stray light correction enabled: false
XAxis mode: Wavelengths
Stop averaging: false
Number of Pixels in Spectrum: 3648
>>>>>Begin Spectral Data<<<<<
177.575	315.62
177.794	294.24
178.014	400.32
178.233	289.77
178.452	306.45
178.672	371.16
178.891	381.25
179.11	413.18
179.33	475.17
179.549	431.2
179.768	363.34
179.987	388.1
180.207	464.18
180.426	382.83
180.645	553
180.864	652.88
181.084	899
181.303	-91100
181.522	-2325.33
181.741	-1945.63
181.96	-791.97
182.179	-689.2
182.398	-960.19
182.618	-2043.93
182.837	-6838.24
183.056	-3482.61
183.275	2601.02
183.494	1159.21
183.713	1191.27
183.932	746.61
184.151	693.62
184.37	517.74
184.589	524.42
184.808	650.66
185.027	752.84
185.246	1353.17
185.465	1371.36
185.684	1848.98
185.903	4013.24
186.122	1962.41
186.341	-5491.84
186.56	-1059.27
186.779	-1229.95
186.998	-1159.19
187.216	-1575.86
187.435	-823.64
187.654	-694.49
187.873	-721.72
188.092	-608.39
188.311	-1087.77
188.53	-3436.11
188.748	-3852.38
188.967	1220.83
189.186	-3041.1
189.405	9115.38
189.623	-227600
189.842	1523.6
190.061	762.21
190.28	1042.97
190.498	1285.27
190.717	10125.93
190.936	270400
191.154	3150
191.373	3078.95
191.592	1242.67
191.81	1153.65
192.029	1073.77
192.248	-1529.05
192.466	-1249.16
192.685	-900
192.904	-881.86
193.122	-1512.4
193.341	-1195.29
193.559	-929.55
193.778	-784.23
193.996	-1869.72
194.215	-3266.15
194.433	-2016.67
194.652	1067.86
194.87	1173.44
195.089	862.98
195.307	2649.38
195.526	-73000
195.744	203400
195.963	-2419.77
196.181	-1082.65
196.399	-634.3
196.618	-582.75
196.836	-1123.56
197.055	-972.5
197.273	-3166.67
197.491	-1303.68
197.71	-1845.45
197.928	5118.37
198.146	-3661.43
198.365	-2146.9
198.583	10316.67
198.801	15806.25
199.019	-4492.16
199.238	-2283.81
199.456	8630
199.674	-1717.81
199.892	3410.81
200.111	-2350.94
200.329	-1226.83
200.547	-7031.58
200.765	1523.91
200.983	-34375
201.202	-7781.82
201.42	126900
201.638	-2276.92
201.856	-551.62
202.074	-483.49
202.292	-372.78
202.51	-659.42
202.728	-681.08
202.946	-634.97
203.165	-526.02
203.383	-917.81
203.601	-830.04
203.819	-665.46
204.037	-713.64
204.255	-9133.33
204.473	1842.98
204.691	1144.81
204.909	1210.73
205.127	1042.44
205.345	2161.61
205.562	-3747.54
205.78	-13806.25
205.998	1940.68
206.216	1782.95
206.434	2013.82
206.652	11100
206.87	5310
207.088	-4187.93
207.306	10243.48
207.523	-13500
207.741	13341.18
207.959	2016.67
208.177	2153.45
208.395	1902.26
208.612	-4969.39
208.83	4035.48
209.048	1666.45
209.266	1964.1
209.483	1198.56
209.701	1006.87
209.919	1292.02
210.136	824
210.354	1298.61
210.572	1335.12
210.79	-50800
211.007	1342.42
211.225	2503.23
211.442	1733.82
211.66	1164.25
211.878	2171.03
212.095	6018.42
212.313	3927.78
212.53	-1379.87
212.748	6354.55
212.966	-1593.7
213.183	-5517.5
213.401	-2099.09
213.618	48660
213.836	-1781.34
214.053	-1266.5
214.271	-971.43
214.488	-900
214.705	-1732.09
214.923	-2128.83
215.14	-3111.39
215.358	-4783.02
215.575	25880
215.793	-2889.74
216.01	-1438.85
216.227	-902.53
216.445	-694.44
216.662	-2596.63
216.879	-1713.89
217.097	-1149.07
217.314	-1103.79
217.531	-1084.91
217.749	4340.74
217.966	5753.85
218.183	560.09
218.4	663.41
218.618	493.02
218.835	487.73
219.052	485.28
219.269	344.3
219.487	320.91
219.704	319.54
219.921	292.62
220.138	468.42
220.355	463.39
220.572	809.3
220.79	506.95
221.007	530.12
221.224	373.64
221.441	389.59
221.658	527.74
221.875	624.06
222.092	621.47
222.309	631.66
222.526	373.27
222.743	360.79
222.96	398.48
223.177	456.48
223.394	369.09
223.611	483.87
223.828	517.37
224.045	425.08
224.262	386.26
224.479	312.34
224.696	317.14
224.913	411.34
225.13	435.09
225.347	483.59
225.564	371.22
225.781	427.18
225.997	346.05
226.214	236.36
226.431	207.32
226.648	180.92
226.865	162.14
227.082	133.87
227.298	106.36
227.515	93.28
227.732	87.93
227.949	91.4
228.165	85.56
228.382	86.5
228.599	93.69
228.816	94.81
229.032	96.09
229.249	104.59
229.466	110.85
229.682	124.7
229.899	140.1
230.116	149.11
230.332	148.93
230.549	160.41
230.765	170.65
230.982	159.91
231.199	159.94
231.415	174.32
231.632	181.97
231.848	177.52
232.065	178.6
232.281	174.01
232.498	154.23
232.714	147.51
232.931	156.64
233.147	154.48
233.364	161.79
233.58	157.25
233.797	168.59
234.013	166.87
234.23	166.61
234.446	164.78
234.662	150.02
234.879	151.94
235.095	157.94
235.312	148.4
235.528	149.89
235.744	150.17
235.961	164.53
236.177	152.55
236.393	158.16
236.61	152.79
236.826	153.43
237.042	170.49
237.258	167.2
237.475	150.36
237.691	163.12
237.907	155.84
238.123	148.77
238.339	139.25
238.556	128.6
238.772	119.73
238.988	118.85
239.204	113.36
239.42	103.61
239.636	101.21
239.853	99.32
240.069	87.23
240.285	78.23
240.501	76.84
240.717	72.34
240.933	65.23
241.149	63.25
241.365	60.29
241.581	57.4
241.797	60.81
242.013	59.89
242.229	59.03
242.445	60.86
242.661	65.93
242.877	67.37
243.093	69.16
243.309	73.13
243.525	75.68
243.741	78.76
243.957	80.51
244.173	73.37
244.388	72.63
244.604	66.94
244.82	64.61
245.036	55.02
245.252	50.48
245.468	45.15
245.683	42.52
245.899	41.33
246.115	39.49
246.331	37.13
246.547	37.5
246.762	35.25
246.978	35.35
247.194	34.61
247.409	34.91
247.625	37.35
247.841	40.41
248.057	42.29
248.272	45.61
248.488	52.18
248.703	55.43
248.919	61.78
249.135	69.09
249.35	67.7
249.566	71.62
249.782	73.81
249.997	72.02
250.213	72.2
250.428	67.28
250.644	62.13
250.859	60.32
251.075	61.24
251.29	55.81
251.506	53.82
251.721	57.94
251.937	55.77
252.152	60.58
252.368	64.11
252.583	68.36
252.798	74.61
253.014	81.18
253.229	80.86
253.445	82.06
253.66	89.96
253.875	98.32
254.091	101.32
254.306	106.7
254.521	107.24
254.737	106.8
254.952	99.84
255.167	98.91
255.383	92.77
255.598	92.51
255.813	90.12
256.028	85.44
256.244	80.82
256.459	74.54
256.674	61.97
256.889	55.76
257.104	48.02
257.32	42.06
257.535	38.43
257.75	34.15
257.965	31.59
258.18	29.14
258.395	27.06
258.61	23.84
258.826	23.61
259.041	23.28
259.256	22.64
259.471	23.34
259.686	24.38
259.901	24.33
260.116	26.51
260.331	26.99
260.546	28.78
260.761	30.18
260.976	32.99
261.191	33.99
261.406	38.21
261.621	43.93
261.836	45.28
262.05	46.77
262.265	51.38
262.48	51.75
262.695	54.62
262.91	55.74
263.125	55.55
263.34	55.57
263.555	59.06
263.769	56.35
263.984	51.92
264.199	52.64
264.414	53.32
264.629	53.09
264.843	54.11
265.058	50.53
265.273	48.07
265.488	46.37
265.702	45.28
265.917	40.36
266.132	39.1
266.346	40.34
266.561	36.87
266.776	36.44
266.99	33.29
267.205	32.6
267.42	30.23
267.634	30
267.849	34.37
268.063	35.62
268.278	38.83
268.492	39.07
268.707	39.05
268.922	40.95
269.136	38.08
269.351	38.86
269.565	36.72
269.78	39.54
269.994	37.55
270.209	35.78
270.423	35.61
270.637	34.92
270.852	35.89
271.066	36.26
271.281	35.94
271.495	36.05
271.709	35.46
271.924	35.85
272.138	33.67
272.353	34.16
272.567	33.4
272.781	34.31
272.996	34.09
273.21	34.09
273.424	32.15
273.638	33.43
273.853	34.81
274.067	34.65
274.281	36.47
274.495	40.74
274.71	41.85
274.924	42.99
275.138	41.69
275.352	40.2
275.566	39.37
275.781	39.15
275.995	37.79
276.209	38.2
276.423	36.22
276.637	34.65
276.851	29.53
277.065	30.06
277.279	29.81
277.493	30.1
277.707	32.56
277.921	30.39
278.135	32.81
278.349	33.16
278.563	33.75
278.777	33.57
278.991	34.53
279.205	36.87
279.419	36.32
279.633	36.26
279.847	34.2
280.061	32.69
280.275	33.88
280.489	31.61
280.703	31.26
280.917	31.63
281.131	34.1
281.344	33.31
281.558	31.89
281.772	31.11
281.986	29.06
282.2	30.02
282.414	29.66
282.627	30.25
282.841	32.32
283.055	32.02
283.269	30.42
283.482	30.12
283.696	30.04
283.91	30.62
284.123	30.44
284.337	32.04
284.551	31.41
284.764	31.33
284.978	31.45
285.192	30.75
285.405	30.89
285.619	30.65
285.833	29.61
286.046	29.03
286.26	28.07
286.473	28.31
286.687	27.87
286.9	29.08
287.114	30.09
287.327	30.21
287.541	31.3
287.754	31.64
287.968	30.07
288.181	30.91
288.395	30.74
288.608	30.85
288.822	31.77
289.035	30.91
289.248	30.45
289.462	30.18
289.675	29.77
289.889	29.35
290.102	29.32
290.315	31.48
290.529	30.17
290.742	31.27
290.955	31.97
291.169	31.41
291.382	31.64
291.595	31.68
291.808	30.7
292.022	30.14
292.235	27.94
292.448	28.1
292.661	26.18
292.875	26.89
293.088	25.81
293.301	26.56
293.514	24.36
293.727	24.98
293.94	25.91
294.153	27.38
294.367	26.6
294.58	26.89
294.793	24.37
295.006	26.06
295.219	25.17
295.432	24.33
295.645	23.56
295.858	24.37
296.071	23.5
296.284	22.93
296.497	20.99
296.71	21.9
296.923	22.25
297.136	23.32
297.349	22.88
297.562	24.19
297.775	25.68
297.988	26.3
298.201	27.38
298.414	28.57
298.626	28.85
298.839	30.75
299.052	31.25
299.265	32.34
299.478	32.53
299.691	31.28
299.903	31.1
300.116	31.21
300.329	30.51
300.542	30.07
300.755	28.8
300.967	28.99
301.18	28.29
301.393	28.46
301.605	28.65
301.818	28.75
302.031	31.72
302.243	32.24
302.456	31.87
302.669	32.79
302.881	33.76
303.094	34.99
303.307	35.19
303.519	36.34
303.732	37.3
303.944	36.26
304.157	36.18
304.37	36.39
304.582	37.21
304.795	38.22
305.007	38.03
305.22	35.86
305.432	35.68
305.645	34.88
305.857	34.48
306.069	32.68
306.282	32.48
306.494	32.68
306.707	30.12
306.919	27.28
307.132	26.3
307.344	25.53
307.556	27.09
307.769	26.43
307.981	26.34
308.193	26.23
308.406	24.22
308.618	24.14
308.83	25.09
309.043	25.54
309.255	26
309.467	26.23
309.679	26.18
309.892	25.55
310.104	26.57
310.316	26.08
310.528	24.91
310.74	26.67
310.953	28.09
311.165	27.74
311.377	28.52
311.589	29.94
311.801	28.46
312.013	30
312.225	29.8
312.437	29.93
312.649	31.26
312.862	31.88
313.074	31.88
313.286	30.69
313.498	29.36
313.71	27.28
313.922	25.65
314.134	27.51
314.346	27.12
314.558	28.83
314.77	27.64
314.982	28.73
315.193	29.28
315.405	29.95
315.617	29.35
315.829	29.48
316.041	30.63
316.253	30.25
316.465	31.75
316.677	30.51
316.888	31.27
317.1	32.94
317.312	31.16
317.524	30.77
317.736	30.33
317.947	32.98
318.159	35.55
318.371	33.91
318.583	36.19
318.794	35.29
319.006	37.78
319.218	35.97
319.43	33.87
319.641	34.79
319.853	36.62
320.064	37.43
320.276	37.1
320.488	34.9
320.699	37.37
320.911	37.88
321.123	39.53
321.334	39.08
321.546	40.31
321.757	42.47
321.969	41.55
322.18	41.98
322.392	41.88
322.603	40.79
322.815	42.69
323.026	43.53
323.238	42.64
323.449	40.8
323.661	39.39
323.872	40.67
324.083	40.12
324.295	42.22
324.506	41.71
324.718	42.3
324.929	44.25
325.14	43.44
325.352	43.59
325.563	43.8
325.774	45.23
325.986	46.13
326.197	45.9
326.408	47.04
326.62	45.26
326.831	44.8
327.042	44.56
327.253	44.27
327.464	44.8
327.676	44.61
327.887	44.83
328.098	46.27
328.309	47.68
328.52	47.28
328.732	47.85
328.943	49.74
329.154	50.1
329.365	51.77
329.576	52.05
329.787	52.39
329.998	53.09
330.209	55.24
330.42	52.94
330.631	52.23
330.842	52.46
331.053	53.17
331.264	52.72
331.475	53.32
331.686	50.9
331.897	50.95
332.108	51.87
332.319	51.27
332.53	50.58
332.741	52.38
332.952	52.09
333.163	51.56
333.374	49.63
333.585	49.3
333.795	48.59
334.006	50.2
334.217	50.79
334.428	50.16
334.639	50.08
334.849	50.29
335.06	48.65
335.271	47.88
335.482	48.04
335.692	48.01
335.903	48.39
336.114	48.29
336.325	48.29
336.535	46.88
336.746	46.19
336.957	46.87
337.167	46.66
337.378	47.25
337.589	47.99
337.799	46.91
338.01	47.9
338.22	46.71
338.431	46.7
338.642	46.37
338.852	46.5
339.063	47.3
339.273	47.33
339.484	46.2
339.694	46.75
339.905	47.03
340.115	47.01
340.326	45.06
340.536	44.99
340.746	45.26
340.957	46.03
341.167	45.92
341.378	45.49
341.588	46.53
341.799	47.09
342.009	46.4
342.219	47.05
342.43	47.49
342.64	48.28
342.85	48.83
343.061	48.96
343.271	48.22
343.481	46.97
343.691	47.14
343.902	44.61
344.112	44.62
344.322	44.35
344.532	43.62
344.743	43.67
344.953	44.06
345.163	44.06
345.373	43.95
345.583	43.53
345.793	44.48
346.004	43.61
346.214	45.32
346.424	45.16
346.634	45.27
346.844	44.73
347.054	44.1
347.264	44.84
347.474	44.95
347.684	44.73
347.894	44.41
348.104	44.63
348.314	44.71
348.524	43.34
348.734	42.81
348.944	43.18
349.154	43.32
349.364	43.43
349.574	44.22
349.784	45.61
349.994	46.73
350.204	46.84
350.413	47.38
350.623	46.98
350.833	46.59
351.043	46.42
351.253	45.65
351.463	46.14
351.672	45.22
351.882	43.07
352.092	40.52
352.302	39.64
352.511	40.23
352.721	38.08
352.931	38.5
353.141	38.81
353.35	39
353.56	39.04
353.77	38.14
353.979	39.45
354.189	39.5
354.399	40.53
354.608	39.73
354.818	38.64
355.027	40.51
355.237	40.07
355.447	40.3
355.656	40.3
355.866	40.61
356.075	40.59
356.285	40.22
356.494	40.16
356.704	39.44
356.913	39.72
357.123	41.07
357.332	39.3
357.542	39.67
357.751	39.22
357.96	38.5
358.17	37.75
358.379	37.24
358.589	37.09
358.798	36.41
359.007	36.31
359.217	36.02
359.426	35.01
359.635	35.83
359.845	35.35
360.054	34.95
360.263	35.22
360.472	35.15
360.682	35.36
360.891	34.9
361.1	34.84
361.309	34.47
361.519	34.17
361.728	33.8
361.937	33.67
362.146	33.59
362.355	34.47
362.564	33.98
362.774	33.8
362.983	33.88
363.192	34.13
363.401	34.02
363.61	34.25
363.819	33.79
364.028	32.56
364.237	32.65
364.446	32.17
364.655	31.47
364.864	32.51
365.073	32.58
365.282	32.23
365.491	31.76
365.7	32.77
365.909	33.29
366.118	34.97
366.327	36.48
366.536	36.08
366.745	36.15
366.954	36.57
367.162	35.88
367.371	36.47
367.58	37.29
367.789	37.94
367.998	37.99
368.207	38.18
368.415	37.95
368.624	38.61
368.833	38.59
369.042	39.75
369.25	39.55
369.459	40.2
369.668	39.77
369.877	38.79
370.085	38.88
370.294	38.39
370.503	38.01
370.711	36.73
370.92	35.89
371.129	36.68
371.337	36.42
371.546	35.97
371.754	35.7
371.963	36.02
372.171	36.74
372.38	36.56
372.589	37.41
372.797	37.13
373.006	38
373.214	38.01
373.423	37.59
373.631	37.53
373.84	37.92
374.048	37.64
374.256	37.48
374.465	36.77
374.673	37.11
374.882	36.3
375.09	37.04
375.298	35.71
375.507	35.95
375.715	36.37
375.923	36.2
376.132	35.73
376.34	36.01
376.548	35.98
376.757	36.32
376.965	35.35
377.173	35.03
377.381	34.43
377.59	36.15
377.798	36.14
378.006	35.02
378.214	35.46
378.423	35.04
378.631	34.07
378.839	34.27
379.047	34.75
379.255	35.34
379.463	35.87
379.671	36
379.879	35.65
380.088	35.54
380.296	36.2
380.504	36.37
380.712	37.12
380.92	36.93
381.128	36.7
381.336	36.53
381.544	36.91
381.752	37.51
381.96	38.39
382.168	37.75
382.376	37.17
382.584	37.27
382.791	36.46
382.999	36.78
383.207	37.5
383.415	37.16
383.623	36.27
383.831	35.67
384.039	34.68
384.247	33.5
384.454	33.87
384.662	34.58
384.87	34.21
385.078	33.37
385.285	33.04
385.493	31.98
385.701	31.75
385.909	31.72
386.116	31.63
386.324	31.03
386.532	31
386.739	30.73
386.947	30.66
387.155	30.74
387.362	31.58
387.57	31.59
387.778	31.52
387.985	32.23
388.193	32.97
388.4	32.86
388.608	33
388.816	33.08
389.023	32.78
389.231	32.24
389.438	31.58
389.646	30.84
389.853	30.07
390.061	29.96
390.268	29.37
390.475	29.4
390.683	29.97
390.89	30.52
391.098	30.62
391.305	31.02
391.512	30.46
391.72	30.72
391.927	30.86
392.135	31.13
392.342	32.03
392.549	31.55
392.756	31.08
392.964	30.21
393.171	29.59
393.378	29.42
393.586	29.35
393.793	30.78
394	30.81
394.207	30.83
394.414	30.85
394.622	30.65
394.829	31.13
395.036	31.3
395.243	31.82
395.45	32.66
395.657	32.56
395.864	32.16
396.072	31.72
396.279	31.54
396.486	31.69
396.693	32.11
396.9	31.59
397.107	31.54
397.314	31.43
397.521	31.06
397.728	30.69
397.935	30.58
398.142	30.71
398.349	29.76
398.556	29.72
398.763	29.94
398.97	29.52
399.177	29.81
399.383	29.68
399.59	29.43
399.797	29.36
400.004	29.83
400.211	29.43
400.418	28.99
400.625	29.66
400.831	29.92
401.038	29.46
401.245	29.81
401.452	29.97
401.658	29.87
401.865	30.19
402.072	30.53
402.279	29.58
402.485	29.84
402.692	29.48
402.899	29.1
403.105	28.56
403.312	28.89
403.519	28.73
403.725	28.23
403.932	28.03
404.138	27.57
404.345	27.85
404.552	27.97
404.758	28.36
404.965	28.76
405.171	28.91
405.378	29.39
405.584	29.13
405.791	28.53
405.997	29.53
406.204	29.86
406.41	29.56
406.617	29.32
406.823	29.31
407.029	28.91
407.236	28.35
407.442	28.32
407.649	28.31
407.855	28.3
408.061	28.69
408.268	28.04
408.474	27.61
408.68	28.39
408.887	28.07
409.093	28.03
409.299	27.77
409.505	28.74
409.712	28.94
409.918	28.87
410.124	28.96
410.33	28.72
410.537	28.37
410.743	28.09
410.949	27.57
411.155	27.26
411.361	27.07
411.567	26.95
411.773	26.84
411.98	26.74
412.186	25.8
412.392	25.1
412.598	25.11
412.804	25.54
413.01	26.16
413.216	26.31
413.422	27.19
413.628	27.1
413.834	27.12
414.04	26.64
414.246	25.86
414.452	26.09
414.658	26.67
414.864	26.55
415.07	25.94
415.275	25.69
415.481	25.63
415.687	25.14
415.893	24.79
416.099	24.24
416.305	23.87
416.511	24.38
416.716	24.33
416.922	24.53
417.128	24.65
417.334	24.99
417.539	24.7
417.745	24.24
417.951	23.71
418.157	23.63
418.362	23.9
418.568	23.69
418.774	23.1
418.979	23.28
419.185	22.61
419.391	22.09
419.596	21.28
419.802	21.34
420.008	21.12
420.213	21.41
420.419	21.53
420.624	21.36
420.83	21.42
421.035	21.53
421.241	21.13
421.446	21.33
421.652	21.27
421.857	21.65
422.063	21.63
422.268	21.51
422.474	21.56
422.679	21.7
422.885	21.63
423.09	21.47
423.295	21.3
423.501	21.66
423.706	21.48
423.911	21.56
424.117	21.53
424.322	21.44
424.527	21.8
424.733	21.82
424.938	21.63
425.143	21.64
425.349	22.01
425.554	22.47
425.759	22.18
425.964	22.54
426.169	22.72
426.375	23.11
426.58	23.23
426.785	23.34
426.99	23.17
427.195	23.53
427.4	23.57
427.605	23.43
427.811	22.96
428.016	23.03
428.221	22.8
428.426	22.74
428.631	22.7
428.836	23.09
429.041	22.97
429.246	22.99
429.451	22.96
429.656	23.06
429.861	22.77
430.066	23.37
430.271	23.38
430.476	23.55
430.681	23.37
430.886	23.01
431.09	22.84
431.295	23.16
431.5	23.12
431.705	22.89
431.91	23.08
432.115	22.74
432.32	22.03
432.524	22.1
432.729	21.99
432.934	21.85
433.139	21.9
433.343	21.68
433.548	21.27
433.753	21.26
433.958	21.19
434.162	21.12
434.367	21.4
434.572	21.43
434.776	21.35
434.981	21.47
435.186	21.99
435.39	21.94
435.595	21.82
435.799	21.84
436.004	21.4
436.209	21.21
436.413	20.96
436.618	20.87
436.822	21.21
437.027	20.85
437.231	20.64
437.436	20.15
437.64	20.23
437.845	20.22
438.049	20.32
438.253	20.64
438.458	20.63
438.662	20.55
438.867	20.84
439.071	20.47
439.275	20.75
439.48	20.83
439.684	20.83
439.888	20.56
440.093	20.67
440.297	20.75
440.501	20.7
440.706	20.73
440.91	20.89
441.114	20.56
441.318	20.82
441.523	20.7
441.727	20.42
441.931	20.88
442.135	21
442.339	20.86
442.543	21.04
442.748	21.12
442.952	21.1
443.156	21.18
443.36	21.41
443.564	21.33
443.768	21.08
443.972	20.96
444.176	20.2
444.38	20.32
444.584	20.47
444.788	20.16
444.992	19.86
445.196	19.75
445.4	19.41
445.604	19.36
445.808	19.29
446.012	19.28
446.216	19.41
446.42	19.75
446.624	19.59
446.828	19.43
447.032	19.37
447.235	19.55
447.439	19.84
447.643	20.19
447.847	20.5
448.051	20.42
448.254	20.42
448.458	20.35
448.662	20.51
448.866	20.5
449.069	20.65
449.273	20.61
449.477	20.65
449.681	20.28
449.884	19.98
450.088	19.33
450.292	19.82
