Data from JASIL_3244_Reflection_1.txt Node
Date: Mon Nov 16 20:33:42 EST 2015
User: Geneva
Spectrometer: USB4E03002
Autoset integration time: false
Trigger mode: 4
Integration Time (sec): 1.000000E-1
Scans to average: 10
Electric dark correction enabled: false
Nonlinearity correction enabled: false
Boxcar width: 5
Stray light correction enabled: false
XAxis mode: Wavelengths
Stop averaging: false
Number of Pixels in Spectrum: 3648
>>>>>Begin Spectral Data<<<<<
177.575	-470.09
177.794	-556.43
178.014	-523.49
178.233	-878.5
178.452	-1338.55
178.672	-909.85
178.891	-1187.74
179.11	4027.03
179.33	1355.36
179.549	-6745.45
179.768	1270.34
179.987	1398.92
180.207	748.39
180.426	413.94
180.645	416.26
180.864	620.78
181.084	277.89
181.303	237.96
181.522	406.36
181.741	1233.8
181.96	282.91
182.179	353.53
182.398	412.44
182.618	419.92
182.837	422.27
183.056	366.27
183.275	264.73
183.494	279.3
183.713	338.02
183.932	248.67
184.151	243.98
184.37	250.58
184.589	203.6
184.808	172.23
185.027	164.79
185.246	217.71
185.465	312.22
185.684	330.99
185.903	1117.24
186.122	422.87
186.341	644.94
186.56	344.21
186.779	647.67
186.998	987.69
187.216	1134.65
187.435	912.57
187.654	838.92
187.873	433.84
188.092	402.27
188.311	375.21
188.53	588.32
188.748	501.24
188.967	1162.4
189.186	560.92
189.405	579.65
189.623	560.19
189.842	545.68
190.061	503.35
190.28	1267.95
190.498	-1167.5
190.717	876.19
190.936	-1903.39
191.154	-911.61
191.373	-19716.67
191.592	-10281.82
191.81	-608.05
192.029	-870.99
192.248	-284.76
192.466	-284.78
192.685	-346.6
192.904	-461.17
193.122	-346.13
193.341	-645.41
193.559	-627.41
193.778	-741.82
193.996	-990.84
194.215	39350
194.433	-3380.95
194.652	659.11
194.87	571
195.089	494.76
195.307	626.32
195.526	1816.95
195.744	992.11
195.963	675.82
196.181	14775
196.399	-1054.7
196.618	5115
196.836	17383.33
197.055	-862.3
197.273	-1934.48
197.491	-1261.11
197.71	-2198.04
197.928	1453.75
198.146	2507.14
198.365	-10260
198.583	461.9
198.801	514.62
199.019	1396.1
199.238	-2747.62
199.456	1207.55
199.674	535.59
199.892	423.05
200.111	530
200.329	544.15
200.547	465.07
200.765	441.62
200.983	503.61
201.202	396.43
201.42	585.04
201.638	358.73
201.856	385.23
202.074	1127.27
202.292	1234.34
202.51	784.35
202.728	1034.02
202.946	-2482.5
203.165	3396.97
203.383	-1215.46
203.601	-1551.16
203.819	3116
204.037	14690
204.255	1595.88
204.473	650.47
204.691	916.67
204.909	631.43
205.127	670.23
205.345	730.11
205.562	600.5
205.78	373.49
205.998	445.31
206.216	349.64
206.434	377.36
206.652	309.39
206.87	249.57
207.088	207.75
207.306	239.21
207.523	235.06
207.741	172.36
207.959	182.76
208.177	219.27
208.395	159.44
208.612	163.76
208.83	139.45
209.048	167.12
209.266	220.09
209.483	254.12
209.701	221.58
209.919	279.54
210.136	333.94
210.354	743
210.572	663.35
210.79	1136.3
211.007	703.93
211.225	1151.16
211.442	-6242.86
211.66	-1677.78
211.878	-674.31
212.095	159.13
212.313	158.91
212.53	170.19
212.748	117.77
212.966	114.08
213.183	97.48
213.401	96.06
213.618	94.99
213.836	116.5
214.053	124.97
214.271	127.67
214.488	1094.96
214.705	631.65
214.923	501.61
215.14	490.04
215.358	404.92
215.575	655.19
215.793	642.92
216.01	908.59
216.227	331.28
216.445	267.75
216.662	314.96
216.879	288.85
217.097	207.48
217.314	220.45
217.531	288.03
217.749	336.72
217.966	380
218.183	328.93
218.4	368.4
218.618	486.61
218.835	532.64
219.052	396.81
219.269	321.73
219.487	520.83
219.704	352.2
219.921	259.77
220.138	203.65
220.355	213.43
220.572	214.71
220.79	234.06
221.007	273.4
221.224	293.31
221.441	203.48
221.658	261.41
221.875	214.53
222.092	216.48
222.309	299.64
222.526	284.68
222.743	250.34
222.96	310.85
223.177	163.91
223.394	134.07
223.611	113.91
223.828	149.43
224.045	183.92
224.262	198.78
224.479	139.53
224.696	112.63
224.913	143.21
225.13	109.92
225.347	99.38
225.564	90.05
225.781	78.32
225.997	82.13
226.214	65.4
226.431	55.52
226.648	42.79
226.865	43.4
227.082	43.12
227.298	35.46
227.515	31.49
227.732	30.91
227.949	27.69
228.165	27.57
228.382	22.69
228.599	19.32
228.816	17.72
229.032	22.21
229.249	19.14
229.466	19.74
229.682	21.08
229.899	22.09
230.116	24.57
230.332	24.74
230.549	25.79
230.765	29.56
230.982	34.31
231.199	36.64
231.415	35.95
231.632	37.64
231.848	43.32
232.065	44.61
232.281	44.07
232.498	51.3
232.714	59.47
232.931	55.89
233.147	53.1
233.364	60.93
233.58	58.44
233.797	66.6
234.013	69.66
234.23	62.29
234.446	63.12
234.662	60.57
234.879	56.69
235.095	58.35
235.312	60.05
235.528	63.1
235.744	56.91
235.961	56.43
236.177	47.95
236.393	54.34
236.61	59.02
236.826	58.86
237.042	64.69
237.258	56.16
237.475	46.28
237.691	49.33
237.907	50.79
238.123	55.11
238.339	53.84
238.556	52.59
238.772	45.67
238.988	38.57
239.204	38.81
239.42	36.13
239.636	34.12
239.853	34.04
240.069	31.12
240.285	30.16
240.501	28.43
240.717	25.24
240.933	22.26
241.149	20.49
241.365	22.78
241.581	19.55
241.797	19.04
242.013	21.61
242.229	21.71
242.445	22.17
242.661	21.45
242.877	19.5
243.093	22.01
243.309	23.09
243.525	22.41
243.741	23.46
243.957	26.04
244.173	27.58
244.388	26.23
244.604	27.3
244.82	26.5
245.036	24.77
245.252	23.85
245.468	20.19
245.683	17.75
245.899	17.96
246.115	15.87
246.331	14.65
246.547	13.68
246.762	12.6
246.978	12.24
247.194	11.58
247.409	12.06
247.625	12.91
247.841	13.57
248.057	16.06
248.272	16.3
248.488	18.13
248.703	19.48
248.919	21.15
249.135	22.91
249.35	22.89
249.566	25.74
249.782	25.37
249.997	25
250.213	23.67
250.428	20.39
250.644	21.16
250.859	19.66
251.075	16.28
251.29	17.39
251.506	18.08
251.721	20.36
251.937	21.23
252.152	21.73
252.368	22.56
252.583	23.43
252.798	25.02
253.014	26.09
253.229	25.94
253.445	29.61
253.66	31.25
253.875	30.98
254.091	33.6
254.306	29.31
254.521	27.86
254.737	27.88
254.952	28.77
255.167	28.07
255.383	27.73
255.598	27.14
255.813	25.65
256.028	23.59
256.244	26.01
256.459	21.98
256.674	23.75
256.889	22.23
257.104	20.51
257.32	22.35
257.535	20.75
257.75	17.6
257.965	16.88
258.18	17.71
258.395	16.39
258.61	14.41
258.826	13.86
259.041	13.54
259.256	14.35
259.471	13.94
259.686	12.93
259.901	12.67
260.116	13.38
260.331	13.86
260.546	13.1
260.761	13.27
260.976	13.64
261.191	13.77
261.406	14.08
261.621	14.13
261.836	15.68
262.05	17.72
262.265	19.24
262.48	19.42
262.695	18.61
262.91	18.63
263.125	18.78
263.34	20.03
263.555	21.41
263.769	22.86
263.984	21.62
264.199	20.72
264.414	19.29
264.629	18.79
264.843	17.2
265.058	16.6
265.273	14.4
265.488	13.9
265.702	13.49
265.917	13.24
266.132	12.15
266.346	14.75
266.561	15
266.776	15.46
266.99	14.94
267.205	16.85
267.42	17.42
267.634	19.31
267.849	18.07
268.063	18.51
268.278	19.04
268.492	19.36
268.707	17.43
268.922	15.76
269.136	14.9
269.351	13.83
269.565	12.73
269.78	12.13
269.994	11.89
270.209	13.02
270.423	12.25
270.637	10.08
270.852	8.85
271.066	10.5
271.281	13.07
271.495	12
271.709	13.29
271.924	13.53
272.138	14.22
272.353	15.03
272.567	14.06
272.781	13.92
272.996	14.64
273.21	14.99
273.424	14.12
273.638	12.79
273.853	13.83
274.067	13.51
274.281	13.98
274.495	13.17
274.71	13.1
274.924	12.82
275.138	12.51
275.352	11.53
275.566	10.97
275.781	9.85
275.995	9.82
276.209	9.5
276.423	10.75
276.637	10.06
276.851	11.2
277.065	10.32
277.279	13.37
277.493	12.77
277.707	13.67
277.921	13.22
278.135	14.86
278.349	15.42
278.563	15.56
278.777	14.29
278.991	14.44
279.205	14.11
279.419	13.9
279.633	13.79
279.847	14.58
280.061	13.77
280.275	14.03
280.489	13.34
280.703	11.19
280.917	12.68
281.131	12.31
281.344	13.23
281.558	12.87
281.772	12.47
281.986	12.3
282.2	13.25
282.414	12.69
282.627	12.91
282.841	12.37
283.055	13.95
283.269	12.54
283.482	13.24
283.696	11.84
283.91	12
284.123	12.64
284.337	11.74
284.551	10.2
284.764	11.19
284.978	10.79
285.192	10.29
285.405	10.09
285.619	8.97
285.833	8.62
286.046	8.02
286.26	7.85
286.473	7.56
286.687	7.17
286.9	8.44
287.114	9.48
287.327	10.16
287.541	11
287.754	10.76
287.968	11.18
288.181	11.97
288.395	12.9
288.608	13.97
288.822	15.16
289.035	15.91
289.248	15.28
289.462	14.67
289.675	14.73
289.889	14.52
290.102	12.92
290.315	14.22
290.529	13.03
290.742	12.67
290.955	12.83
291.169	12.29
291.382	12.26
291.595	13.59
291.808	13.39
292.022	12.98
292.235	13.58
292.448	14.39
292.661	13.41
292.875	15.4
293.088	16.24
293.301	14.76
293.514	12.24
293.727	11.82
293.94	10.06
294.153	11.5
294.367	11.9
294.58	11
294.793	11.85
295.006	12.51
295.219	11.4
295.432	11.45
295.645	10.2
295.858	11.77
296.071	11.92
296.284	11.96
296.497	9.85
296.71	9.98
296.923	10.3
297.136	9.78
297.349	8.64
297.562	8.26
297.775	8.71
297.988	9.95
298.201	9.96
298.414	9.35
298.626	10.44
298.839	10.68
299.052	9.42
299.265	8.64
299.478	10.03
299.691	11.49
299.903	12.49
300.116	11.9
300.329	11.36
300.542	11.19
300.755	12.33
300.967	11.71
301.18	12.26
301.393	14.18
301.605	15.54
301.818	14.72
302.031	15.12
302.243	15.44
302.456	14.7
302.669	15.62
302.881	16.46
303.094	16.16
303.307	16.59
303.519	17.72
303.732	17.26
303.944	16.8
304.157	17.37
304.37	17.35
304.582	16.78
304.795	17.06
305.007	17.1
305.22	16.25
305.432	16.71
305.645	16.01
305.857	15.39
306.069	15.2
306.282	14.98
306.494	13.32
306.707	12.42
306.919	11.63
307.132	12.02
307.344	11.84
307.556	11.02
307.769	10.75
307.981	9.85
308.193	9.78
308.406	9.5
308.618	9.36
308.83	11.1
309.043	10.68
309.255	12.39
309.467	11.99
309.679	11.18
309.892	11.69
310.104	10.94
310.316	11.69
310.528	11.28
310.74	10.45
310.953	11.17
311.165	10.65
311.377	10.27
311.589	9.14
311.801	9.51
312.013	10.92
312.225	11.83
312.437	11.08
312.649	10.63
312.862	11.98
313.074	11.24
313.286	10.35
313.498	11.77
313.71	12.54
313.922	13.42
314.134	14.42
314.346	13.86
314.558	12.35
314.77	13.83
314.982	14.72
315.193	13.94
315.405	16.13
315.617	15.68
315.829	15.06
316.041	15.63
316.253	14.36
316.465	14.36
316.677	12.97
316.888	14.51
317.1	14.83
317.312	14.85
317.524	14.75
317.736	16.32
317.947	17.82
318.159	16.96
318.371	16.31
318.583	16.68
318.794	15.74
319.006	15.62
319.218	12.61
319.43	11.56
319.641	10.3
319.853	11.16
320.064	10.02
320.276	10.38
320.488	11.69
320.699	12.1
320.911	12.86
321.123	14.77
321.334	16.55
321.546	19.25
321.757	20.23
321.969	21.94
322.18	20.62
322.392	20.27
322.603	19.89
322.815	19.88
323.026	19.93
323.238	20.12
323.449	18.12
323.661	17.77
323.872	18.4
324.083	18.67
324.295	17.46
324.506	17.7
324.718	17
324.929	16.57
325.14	15.61
325.352	16.15
325.563	17.63
325.774	18.01
325.986	18.19
326.197	17.22
326.408	17.29
326.62	18.63
326.831	17.93
327.042	19.13
327.253	20.07
327.464	22.23
327.676	21.2
327.887	19.64
328.098	18.84
328.309	18.96
328.52	19.94
328.732	19.61
328.943	19.51
329.154	20.57
329.365	19.99
329.576	19.94
329.787	18.25
329.998	19.72
330.209	19.38
330.42	19.62
330.631	21.07
330.842	19.99
331.053	21.15
331.264	20.85
331.475	20.66
331.686	20.49
331.897	20.57
332.108	20.52
332.319	19.83
332.53	20.14
332.741	20.69
332.952	19.8
333.163	20.37
333.374	18.85
333.585	19.36
333.795	19.15
334.006	19.3
334.217	18.3
334.428	17.25
334.639	16.56
334.849	15.52
335.06	15.88
335.271	16.12
335.482	16.98
335.692	16.78
335.903	16.27
336.114	16.92
336.325	16.13
336.535	16.28
336.746	17.02
336.957	17.56
337.167	19.01
337.378	19.11
337.589	17.54
337.799	16.43
338.01	17.14
338.22	16.42
338.431	16.04
338.642	16.28
338.852	15.22
339.063	15.97
339.273	15.32
339.484	15.42
339.694	15.18
339.905	16.66
340.115	16.74
340.326	16.96
340.536	17.68
340.746	17.46
340.957	18.06
341.167	18.68
341.378	18.04
341.588	17.69
341.799	16.98
342.009	16.36
342.219	15.83
342.43	16.13
342.64	16.44
342.85	16.77
343.061	16.79
343.271	15.59
343.481	15.31
343.691	15.43
343.902	16.35
344.112	14.81
344.322	14.83
344.532	15.06
344.743	15.14
344.953	14.81
345.163	14.91
345.373	14.51
345.583	16.2
345.793	16.99
346.004	15.79
346.214	15.37
346.424	17.55
346.634	16.94
346.844	16.5
347.054	16.8
347.264	16.96
347.474	17.52
347.684	18.3
347.894	17
348.104	16.53
348.314	16.83
348.524	17.28
348.734	15.35
348.944	15.75
349.154	16.21
349.364	15.64
349.574	15.15
349.784	14.75
349.994	14.3
350.204	14.86
350.413	14.52
350.623	14.49
350.833	13.68
351.043	14.16
351.253	14.31
351.463	13.22
351.672	12.44
351.882	12.17
352.092	11.6
352.302	12.03
352.511	11.34
352.721	12.11
352.931	13.1
353.141	12.83
353.35	12.43
353.56	13.01
353.77	14
353.979	15.22
354.189	15.06
354.399	15.11
354.608	15.35
354.818	15.41
355.027	14.95
355.237	14.24
355.447	14.14
355.656	15.12
355.866	14.47
356.075	14.17
356.285	13.58
356.494	13.7
356.704	13.73
356.913	13.05
357.123	13.56
357.332	12.95
357.542	12.42
357.751	12.89
357.96	13.03
358.17	13.04
358.379	13.35
358.589	12.35
358.798	12.7
359.007	12.74
359.217	12.48
359.426	11.64
359.635	12.36
359.845	11.99
360.054	11.48
360.263	11.59
360.472	11.5
360.682	11.39
360.891	12.44
361.1	12.11
361.309	11.67
361.519	11.64
361.728	12.33
361.937	11.8
362.146	12.81
362.355	13.04
362.564	13.21
362.774	13.66
362.983	14.02
363.192	14.02
363.401	14.29
363.61	14.13
363.819	14.86
364.028	14.06
364.237	14.27
364.446	13.64
364.655	13.91
364.864	13.43
365.073	13.98
365.282	13.99
365.491	14.03
365.7	13.64
365.909	14.02
366.118	13.58
366.327	14.06
366.536	15.06
366.745	15.53
366.954	16.61
367.162	16.67
367.371	15.79
367.58	15.11
367.789	14.73
367.998	14.83
368.207	15.2
368.415	15.92
368.624	16.38
368.833	16
369.042	15.86
369.25	14.93
369.459	14.02
369.668	14.46
369.877	14.32
370.085	14.12
370.294	14.19
370.503	13.37
370.711	12.85
370.92	12.8
371.129	13.43
371.337	13.5
371.546	13
371.754	13.35
371.963	12.99
372.171	13.19
372.38	12.9
372.589	13.34
372.797	13.78
373.006	14.18
373.214	14.07
373.423	13.01
373.631	13.27
373.84	12.74
374.048	12.02
374.256	11.99
374.465	12.27
374.673	12.84
374.882	11.64
375.09	11.03
375.298	10.81
375.507	10.15
375.715	9.45
375.923	8.38
376.132	8.87
376.34	10.12
376.548	9.95
376.757	10.3
376.965	10.52
377.173	10.92
377.381	11.65
377.59	11.74
377.798	12.16
378.006	12.68
378.214	13.71
378.423	14.37
378.631	14.03
378.839	13.48
379.047	12.92
379.255	13.18
379.463	13.5
379.671	13.31
379.879	12.97
380.088	13.03
380.296	13.63
380.504	13.92
380.712	12.98
380.92	12.59
381.128	13.34
381.336	13.07
381.544	12.96
381.752	11.95
381.96	11.95
382.168	12.15
382.376	12.03
382.584	11.22
382.791	10.01
382.999	10.53
383.207	10.51
383.415	11.13
383.623	11.29
383.831	10.48
384.039	11.85
384.247	11.52
384.454	12.19
384.662	12
384.87	12.31
385.078	12.79
385.285	12.33
385.493	11.9
385.701	11.1
385.909	11.01
386.116	11.49
386.324	10.99
386.532	11.18
386.739	9.84
386.947	9.67
387.155	9.88
387.362	9.9
387.57	9.76
387.778	10.6
387.985	10.87
388.193	10.78
388.4	10.37
388.608	11.09
388.816	10.79
389.023	11.29
389.231	11.53
389.438	10.93
389.646	11.33
389.853	11.89
390.061	11.67
390.268	10.81
390.475	10.76
390.683	10.28
390.89	10.22
391.098	9.93
391.305	10.17
391.512	9.77
391.72	9.46
391.927	8.88
392.135	8.85
392.342	8.83
392.549	9.49
392.756	9.88
392.964	10.86
393.171	10.52
393.378	11.41
393.586	11.25
393.793	11.23
394	11.83
394.207	11.89
394.414	11.57
394.622	11.78
394.829	11.13
395.036	10.85
395.243	10.47
395.45	10.68
395.657	10.39
395.864	10.82
396.072	11.53
396.279	11.34
396.486	11.5
396.693	11.84
396.9	11.83
397.107	12.81
397.314	13.06
397.521	13.09
397.728	12.8
397.935	12.23
398.142	11.89
398.349	11.53
398.556	11.4
398.763	11.47
398.97	11.62
399.177	11.92
399.383	11.83
399.59	12
399.797	12.46
400.004	12.34
400.211	12.58
400.418	12.39
400.625	12.96
400.831	13.2
401.038	12.81
401.245	12.72
401.452	11.87
401.658	12.16
401.865	11.87
402.072	11.06
402.279	10.53
402.485	10.76
402.692	10.5
402.899	9.62
403.105	9.46
403.312	9.87
403.519	10.04
403.725	10.11
403.932	9.46
404.138	9.05
404.345	9.51
404.552	10.04
404.758	9.67
404.965	9.23
405.171	9.8
405.378	9.9
405.584	9.42
405.791	9.09
405.997	9.35
406.204	9.33
406.41	9.4
406.617	9.19
406.823	9.51
407.029	9.79
407.236	10.16
407.442	10.18
407.649	10.64
407.855	10.91
408.061	10.87
408.268	10.55
408.474	10.68
408.68	10.64
408.887	10.98
409.093	10.63
409.299	10.33
409.505	10.63
409.712	9.84
409.918	9.47
410.124	9.21
410.33	9.12
410.537	8.99
410.743	8.66
410.949	8.93
411.155	8.22
411.361	7.98
411.567	8.33
411.773	8.21
411.98	7.95
412.186	7.76
412.392	7.85
412.598	7.94
412.804	8.19
413.01	8.14
413.216	8.29
413.422	8.4
413.628	8.41
413.834	8.03
414.04	8.21
414.246	8.98
414.452	8.98
414.658	9.19
414.864	9.39
415.07	9.51
415.275	9.98
415.481	9.9
415.687	9.92
415.893	9.38
416.099	9.54
416.305	9.32
416.511	8.94
416.716	8.59
416.922	8.58
417.128	8.31
417.334	8.35
417.539	8.13
417.745	8
417.951	7.58
418.157	7.64
418.362	7.36
418.568	7.3
418.774	7.03
418.979	7.02
419.185	6.5
419.391	6.49
419.596	6.18
419.802	6.12
420.008	5.73
420.213	8.23
420.419	8.28
420.624	8.33
420.83	8.24
421.035	8.62
421.241	8.55
421.446	8.83
421.652	8.59
421.857	8.64
422.063	8.63
422.268	9.1
422.474	6.92
422.679	7.08
422.885	7.1
423.09	6.74
423.295	6.49
423.501	6.72
423.706	6.79
423.911	6.97
424.117	7.05
424.322	6.99
424.527	6.65
424.733	6.54
424.938	6.5
425.143	6.4
425.349	6.73
425.554	6.89
425.759	6.79
425.964	6.67
426.169	6.63
426.375	6.42
426.58	6.6
426.785	6.43
426.99	6.66
427.195	6.92
427.4	6.68
427.605	6.92
427.811	6.78
428.016	7.01
428.221	7.43
428.426	7.58
428.631	7.9
428.836	7.68
429.041	8.32
429.246	8.51
429.451	8.31
429.656	8.88
429.861	8.48
430.066	8.56
430.271	8.63
430.476	7.88
430.681	8.08
430.886	7.98
431.09	7.95
431.295	7.64
431.5	7.1
431.705	7.07
431.91	6.6
432.115	6.69
432.32	6.7
432.524	6.46
432.729	6.43
432.934	6.25
433.139	6.21
433.343	6.06
433.548	5.78
433.753	6.12
433.958	6.33
434.162	6.57
434.367	6.57
434.572	6.81
434.776	6.85
434.981	7.37
435.186	7.47
435.39	7.59
435.595	7.98
435.799	8.1
436.004	7.75
436.209	7.56
436.413	7.57
436.618	7.9
436.822	7.65
437.027	7.38
437.231	6.97
437.436	7.02
437.64	6.54
437.845	6.32
438.049	6.37
438.253	6.33
438.458	6.36
438.662	6.19
438.867	5.7
439.071	5.65
439.275	5.78
439.48	5.94
439.684	5.56
439.888	5.65
440.093	5.96
440.297	6.02
440.501	6.09
440.706	6.01
440.91	6.06
441.114	6.2
441.318	6.42
441.523	6.61
441.727	6.57
441.931	6.64
442.135	6.83
442.339	6.6
442.543	6.47
442.748	6.93
442.952	6.77
443.156	6.84
443.36	6.85
443.564	6.97
443.768	6.37
443.972	6.93
444.176	7.04
444.38	6.97
444.584	7.02
444.788	6.98
444.992	6.66
445.196	6.61
445.4	6.53
445.604	6.52
445.808	6.09
446.012	6.42
446.216	5.97
446.42	5.94
446.624	6.28
446.828	5.81
447.032	5.86
447.235	6.12
447.439	6.16
447.643	6.18
447.847	6.33
448.051	6.6
448.254	6.49
448.458	6.39
448.662	6.36
448.866	6.04
449.069	6.46
449.273	6.62
449.477	6.1
449.681	6.27
449.884	6.23
450.088	6.2
450.292	6.01
450.495	6.26
450.699	6.23
450.902	6.24
451.106	6.32
451.31	6.75
451.513	7.06
451.717	7.26
451.92	7.27
452.124	7.41
452.327	7.36
452.531	7.61
452.734	7.19
452.938	7.46
453.141	7.6
453.345	7.65
453.548	7.34
453.752	7.26
453.955	7.42
454.158	7.11
454.362	7.25
454.565	7.18
454.769	6.99
454.972	7.58
455.175	7.43
455.379	7.47
455.582	7.08
455.785	6.97
455.988	6.76
456.192	6.77
456.395	7.05
456.598	6.93
456.801	6.92
457.005	6.72
457.208	6.42
