Data from JASIL_2906_Reflection_1.txt Node
Date: Sat Nov 07 20:20:20 EST 2015
User: Geneva
Spectrometer: USB4E03002
Autoset integration time: false
Trigger mode: 4
Integration Time (sec): 1.000000E-1
Scans to average: 10
Electric dark correction enabled: true
Nonlinearity correction enabled: false
Boxcar width: 5
Stray light correction enabled: false
XAxis mode: Wavelengths
Stop averaging: false
Number of Pixels in Spectrum: 3648
>>>>>Begin Spectral Data<<<<<
177.575	132.87
177.794	108.33
178.014	77.56
178.233	50.09
178.452	51.54
178.672	81.52
178.891	-322.09
179.11	170.32
179.33	113.27
179.549	114.46
179.768	76.18
179.987	73.51
180.207	41.65
180.426	24.94
180.645	38.39
180.864	49.02
181.084	38.94
181.303	36.73
181.522	36.47
181.741	39.94
181.96	52.63
182.179	66.31
182.398	67.87
182.618	86.41
182.837	95.23
183.056	71.71
183.275	45.54
183.494	55.49
183.713	63.69
183.932	63.07
184.151	59.75
184.37	53.78
184.589	57.68
184.808	55.99
185.027	50.95
185.246	42.21
185.465	42.42
185.684	49.12
185.903	50.99
186.122	56.62
186.341	51.42
186.56	50.79
186.779	43.98
186.998	49.51
187.216	45.62
187.435	38.58
187.654	46.06
187.873	46.23
188.092	46.12
188.311	47.69
188.53	40.76
188.748	49.23
188.967	51.36
189.186	57.64
189.405	51.82
189.623	50.47
189.842	68.83
190.061	67.54
190.28	70.17
190.498	65.66
190.717	65.13
190.936	60.93
191.154	53.31
191.373	48.67
191.592	49.59
191.81	47.25
192.029	43.94
192.248	21.42
192.466	35.31
192.685	36.03
192.904	31.92
193.122	33.59
193.341	25.37
193.559	23.65
193.778	35.81
193.996	31.57
194.215	31.53
194.433	28.98
194.652	35.2
194.87	28.47
195.089	27.71
195.307	33.05
195.526	34.54
195.744	45.72
195.963	47.43
196.181	38.54
196.399	39.06
196.618	41.84
196.836	47.72
197.055	46.69
197.273	47.58
197.491	51.52
197.71	52.61
197.928	55.33
198.146	54.58
198.365	53.54
198.583	47.1
198.801	51.46
199.019	46.39
199.238	42.22
199.456	31.85
199.674	35.99
199.892	28.79
200.111	35.32
200.329	36.74
200.547	27.18
200.765	36.87
200.983	46.09
201.202	29.78
201.42	40.32
201.638	47.48
201.856	61.86
202.074	57.47
202.292	51.68
202.51	46.16
202.728	44.23
202.946	55.99
203.165	44.65
203.383	46.65
203.601	59.29
203.819	57.34
204.037	60.89
204.255	52.53
204.473	47.97
204.691	49.9
204.909	43.47
205.127	41.09
205.345	34.33
205.562	40.31
205.78	38.55
205.998	31.54
206.216	22.86
206.434	23.95
206.652	36.37
206.87	34.06
207.088	39.96
207.306	43.82
207.523	52.47
207.741	52.64
207.959	53.64
208.177	43.73
208.395	39.26
208.612	44.7
208.83	40.38
209.048	34.48
209.266	37.53
209.483	33.01
209.701	33.67
209.919	29.34
210.136	33.45
210.354	35.22
210.572	44.93
210.79	49.34
211.007	48.02
211.225	45.48
211.442	44.66
211.66	45.48
211.878	52.53
212.095	91.68
212.313	87.13
212.53	81.29
212.748	76.47
212.966	75.63
213.183	73.07
213.401	79.72
213.618	87.04
213.836	90.55
214.053	89.41
214.271	87.14
214.488	49.05
214.705	46
214.923	51.71
215.14	52.44
215.358	50.43
215.575	47.29
215.793	45.61
216.01	44.18
216.227	41.33
216.445	44.08
216.662	39.16
216.879	40.35
217.097	40.56
217.314	35.25
217.531	36.9
217.749	39.27
217.966	40.74
218.183	38.44
218.4	29.25
218.618	28.98
218.835	22.02
219.052	20.3
219.269	23.77
219.487	24.75
219.704	24.88
219.921	23.35
220.138	24.78
220.355	24.69
220.572	24.78
220.79	33.59
221.007	33.73
221.224	34.91
221.441	37.97
221.658	37.18
221.875	35.26
222.092	34.9
222.309	33.21
222.526	33.52
222.743	34.73
222.96	34.5
223.177	29.23
223.394	26.39
223.611	27.61
223.828	24.35
224.045	23.15
224.262	23.56
224.479	24.27
224.696	26.35
224.913	23.78
225.13	22.26
225.347	21.17
225.564	20.44
225.781	20.38
225.997	19.6
226.214	20.18
226.431	18.23
226.648	17.49
226.865	16.81
227.082	16.03
227.298	15.28
227.515	15.73
227.732	16.08
227.949	16.71
228.165	17.07
228.382	16.38
228.599	15.74
228.816	16.28
229.032	16.4
229.249	16.5
229.466	16.9
229.682	18.09
229.899	17.95
230.116	17.51
230.332	16.28
230.549	15.78
230.765	17.16
230.982	16.46
231.199	15.9
231.415	15.39
231.632	15.61
231.848	15.84
232.065	14.14
232.281	13.62
232.498	13.93
232.714	15.4
232.931	15.13
233.147	14.54
233.364	15.3
233.58	15.3
233.797	15.99
234.013	15.92
234.23	14.91
234.446	14.98
234.662	14.8
234.879	14.95
235.095	14.34
235.312	14.6
235.528	14.86
235.744	15.34
235.961	16.33
236.177	15.43
236.393	15.52
236.61	17.26
236.826	16.92
237.042	17.3
237.258	17.06
237.475	16.56
237.691	16.95
237.907	16.81
238.123	16.71
238.339	16.54
238.556	17.3
238.772	17.13
238.988	15.69
239.204	15.81
239.42	16.12
239.636	15.67
239.853	15.53
240.069	15.56
240.285	15.27
240.501	14.83
240.717	14.8
240.933	14.2
241.149	13.9
241.365	13.76
241.581	13.79
241.797	13.6
242.013	13.66
242.229	13.97
242.445	13.5
242.661	13.08
242.877	13.33
243.093	13.24
243.309	12.99
243.525	13.14
243.741	13.45
243.957	13.3
244.173	12.91
244.388	12.95
244.604	12.43
244.82	12.25
245.036	12.14
245.252	11.75
245.468	11.56
245.683	11.75
245.899	11.58
246.115	11.59
246.331	11.44
246.547	11.26
246.762	11.04
246.978	11.15
247.194	11.07
247.409	11.15
247.625	11.44
247.841	11.35
248.057	11.45
248.272	11.2
248.488	11.04
248.703	10.8
248.919	11.31
249.135	11.49
249.35	11.19
249.566	11.48
249.782	11.5
249.997	10.89
250.213	10.74
250.428	10.24
250.644	10.97
250.859	10.55
251.075	11.23
251.29	10.48
251.506	10.32
251.721	10.16
251.937	9.87
252.152	9.72
252.368	9.78
252.583	10.25
252.798	10.55
253.014	9.95
253.229	10.11
253.445	9.84
253.66	10.61
253.875	10.21
254.091	10.63
254.306	10.39
254.521	10.81
254.737	11.12
254.952	10.21
255.167	10.07
255.383	10.2
255.598	10.37
255.813	9.87
256.028	9.76
256.244	9.83
256.459	9.91
256.674	9.76
256.889	9.08
257.104	8.93
257.32	9.28
257.535	9.26
257.75	8.99
257.965	8.99
258.18	9.19
258.395	9.03
258.61	8.95
258.826	8.86
259.041	9.05
259.256	9.11
259.471	8.99
259.686	8.88
259.901	8.93
260.116	9.05
260.331	8.8
260.546	8.71
260.761	8.77
260.976	8.84
261.191	8.71
261.406	8.61
261.621	8.49
261.836	8.52
262.05	8.17
262.265	7.89
262.48	7.74
262.695	8.09
262.91	8.2
263.125	8.25
263.34	8.35
263.555	8.87
263.769	9.1
263.984	9.23
264.199	9.28
264.414	9.47
264.629	9.72
264.843	9.9
265.058	10.08
265.273	9.66
265.488	9.57
265.702	9.51
265.917	9.24
266.132	9.1
266.346	9.44
266.561	9.3
266.776	9.57
266.99	8.93
267.205	8.94
267.42	8.8
267.634	8.68
267.849	8.55
268.063	8.62
268.278	8.63
268.492	8.5
268.707	8.06
268.922	8.04
269.136	7.87
269.351	8.21
269.565	8.29
269.78	8.02
269.994	8.25
270.209	8.34
270.423	8.22
270.637	8.16
270.852	8.16
271.066	8.22
271.281	8.51
271.495	8.48
271.709	8.64
271.924	8.24
272.138	8.35
272.353	8.4
272.567	8.39
272.781	8.49
272.996	8.54
273.21	8.71
273.424	8.71
273.638	8.36
273.853	8.4
274.067	8.39
274.281	8.74
274.495	8.67
274.71	8.68
274.924	8.47
275.138	8.5
275.352	8.49
275.566	8.42
275.781	8.47
275.995	8.64
276.209	8.58
276.423	8.48
276.637	8.09
276.851	7.98
277.065	7.74
277.279	7.69
277.493	7.55
277.707	7.59
277.921	7.46
278.135	7.14
278.349	6.91
278.563	6.98
278.777	7.03
278.991	7.33
279.205	7.5
279.419	7.53
279.633	7.73
279.847	7.81
280.061	7.8
280.275	7.83
280.489	8.15
280.703	8.15
280.917	8.07
281.131	8.06
281.344	8.16
281.558	8.01
281.772	8.17
281.986	7.96
282.2	7.99
282.414	7.83
282.627	7.91
282.841	7.91
283.055	8.07
283.269	8.15
283.482	8.02
283.696	7.91
283.91	7.84
284.123	7.67
284.337	7.79
284.551	7.58
284.764	7.69
284.978	7.46
285.192	7.34
285.405	7.25
285.619	7.14
285.833	7.15
286.046	7.03
286.26	7.04
286.473	7.16
286.687	7.06
286.9	7.33
287.114	7.12
287.327	7.34
287.541	7.37
287.754	7.37
287.968	7.36
288.181	7.42
288.395	7.5
288.608	7.73
288.822	7.67
289.035	7.62
289.248	7.44
289.462	7.86
289.675	7.68
289.889	7.68
290.102	7.65
290.315	7.61
290.529	7.64
290.742	7.61
290.955	7.6
291.169	7.49
291.382	7.52
291.595	7.53
291.808	7.14
292.022	6.9
292.235	6.95
292.448	6.95
292.661	6.96
292.875	6.72
293.088	6.54
293.301	6.28
293.514	6.25
293.727	6.43
293.94	6.56
294.153	6.49
294.367	6.85
294.58	6.52
294.793	6.51
295.006	6.53
295.219	6.75
295.432	6.89
295.645	7.07
295.858	7.09
296.071	6.95
296.284	6.85
296.497	6.95
296.71	6.83
296.923	7.11
297.136	7.04
297.349	7.23
297.562	7.13
297.775	7.18
297.988	7.08
298.201	7.14
298.414	7.28
298.626	7.26
298.839	7.14
299.052	7.34
299.265	7.32
299.478	7.38
299.691	7.25
299.903	7.37
300.116	7.41
300.329	7.38
300.542	7.37
300.755	7.33
300.967	7.37
301.18	7.43
301.393	7.28
301.605	7.25
301.818	7.29
302.031	7.41
302.243	7.41
302.456	7.44
302.669	7.52
302.881	7.51
303.094	7.43
303.307	7.19
303.519	7.25
303.732	7.35
303.944	7.29
304.157	7.37
304.37	7.24
304.582	7.12
304.795	6.97
305.007	7.12
305.22	7.24
305.432	7.43
305.645	7.61
305.857	7.59
306.069	7.4
306.282	7.47
306.494	7.56
306.707	7.56
306.919	7.57
307.132	7.38
307.344	7.15
307.556	7.13
307.769	7.29
307.981	7.23
308.193	7.21
308.406	7.23
308.618	7.13
308.83	6.9
309.043	6.87
309.255	6.93
309.467	7.12
309.679	7.19
309.892	7.06
310.104	6.86
310.316	6.94
310.528	6.91
310.74	6.96
310.953	7.06
311.165	7.31
311.377	7.24
311.589	7.23
311.801	7.19
312.013	7.19
312.225	7.31
312.437	7.38
312.649	7.6
312.862	7.56
313.074	7.46
313.286	7.47
313.498	7.39
313.71	7.5
313.922	7.54
314.134	7.67
314.346	7.59
314.558	7.65
314.77	7.81
314.982	7.93
315.193	7.97
315.405	8.17
315.617	8.02
315.829	7.78
316.041	7.95
316.253	7.91
316.465	7.9
316.677	8.05
316.888	8.01
317.1	7.88
317.312	7.57
317.524	7.74
317.736	7.73
317.947	8.04
318.159	8.29
318.371	8.05
318.583	8.02
318.794	7.86
319.006	7.66
319.218	7.81
319.43	7.68
319.641	7.86
319.853	8.05
320.064	8.17
320.276	8.03
320.488	8.05
320.699	8.23
320.911	8.24
321.123	8.66
321.334	9
321.546	8.89
321.757	9.06
321.969	8.95
322.18	8.72
322.392	8.63
322.603	8.55
322.815	8.59
323.026	8.38
323.238	8.11
323.449	7.86
323.661	7.81
323.872	7.78
324.083	7.84
324.295	7.85
324.506	7.84
324.718	7.84
324.929	7.78
325.14	7.86
325.352	8.03
325.563	8.4
325.774	8.42
325.986	8.56
326.197	8.71
326.408	8.72
326.62	8.69
326.831	8.71
327.042	8.77
327.253	8.87
327.464	8.82
327.676	8.96
327.887	8.88
328.098	8.9
328.309	8.62
328.52	8.55
328.732	8.49
328.943	8.72
329.154	8.83
329.365	9.04
329.576	9.07
329.787	9.05
329.998	9
330.209	8.99
330.42	9.13
330.631	9.46
330.842	9.5
331.053	9.63
331.264	9.53
331.475	9.54
331.686	9.24
331.897	9.31
332.108	9.2
332.319	9.17
332.53	9.22
332.741	9.26
332.952	9.34
333.163	9.36
333.374	9.46
333.585	9.39
333.795	9.41
334.006	9.61
334.217	9.65
334.428	9.84
334.639	9.87
334.849	9.81
335.06	9.58
335.271	9.51
335.482	9.48
335.692	9.28
335.903	9.27
336.114	9.27
336.325	9.22
336.535	9.18
336.746	9.24
336.957	9.25
337.167	9.37
337.378	9.52
337.589	9.57
337.799	9.57
338.01	9.59
338.22	9.54
338.431	9.46
338.642	9.41
338.852	9.5
339.063	9.29
339.273	9.28
339.484	9.21
339.694	9.24
339.905	9.22
340.115	9.17
340.326	9.08
340.536	9.06
340.746	9.17
340.957	9.2
341.167	9.23
341.378	9.36
341.588	9.28
341.799	9.25
342.009	9.07
342.219	8.93
342.43	9.03
342.64	9.05
342.85	9.09
343.061	8.9
343.271	8.96
343.481	8.75
343.691	8.58
343.902	8.47
344.112	8.47
344.322	8.57
344.532	8.66
344.743	8.5
344.953	8.52
345.163	8.4
345.373	8.55
345.583	8.45
345.793	8.4
346.004	8.54
346.214	8.69
346.424	8.68
346.634	8.58
346.844	8.68
347.054	8.77
347.264	8.99
347.474	9.17
347.684	9.07
347.894	9.09
348.104	9.28
348.314	9.2
348.524	9.1
348.734	9.06
348.944	9.12
349.154	8.97
349.364	8.8
349.574	8.53
349.784	8.43
349.994	8.38
350.204	8.16
350.413	8
350.623	7.98
350.833	7.91
351.043	7.81
351.253	7.77
351.463	7.7
351.672	7.71
351.882	7.77
352.092	7.7
352.302	7.76
352.511	8.09
352.721	8.19
352.931	8.15
353.141	8.37
353.35	8.68
353.56	8.63
353.77	8.78
353.979	8.78
354.189	8.72
354.399	8.75
354.608	8.59
354.818	8.44
355.027	8.38
355.237	8.38
355.447	8.16
355.656	7.94
355.866	7.93
356.075	7.82
356.285	7.93
356.494	7.95
356.704	7.95
356.913	8.1
357.123	8.1
357.332	8.04
357.542	8.14
357.751	8.19
357.96	8.23
358.17	8.18
358.379	8.18
358.589	8.18
358.798	8.08
359.007	8.08
359.217	8.01
359.426	7.93
359.635	7.98
359.845	8.01
360.054	7.95
360.263	8.01
360.472	8.05
360.682	8
360.891	7.83
361.1	7.94
361.309	7.84
361.519	7.84
361.728	7.89
361.937	7.86
362.146	7.74
362.355	7.84
362.564	7.63
362.774	7.65
362.983	7.59
363.192	7.71
363.401	7.73
363.61	7.78
363.819	7.77
364.028	7.73
364.237	7.65
364.446	7.6
364.655	7.46
364.864	7.64
365.073	7.68
365.282	7.7
365.491	7.62
365.7	7.49
365.909	7.53
366.118	7.41
366.327	7.35
366.536	7.38
366.745	7.5
366.954	7.59
367.162	7.53
367.371	7.47
367.58	7.48
367.789	7.59
367.998	7.58
368.207	7.52
368.415	7.67
368.624	7.67
368.833	7.66
369.042	7.65
369.25	7.63
369.459	7.75
369.668	7.64
369.877	7.58
370.085	7.39
370.294	7.39
370.503	7.26
370.711	7.3
370.92	7.35
371.129	7.29
371.337	7.18
371.546	7.09
371.754	7
371.963	6.98
372.171	7.04
372.38	7.06
372.589	7.09
372.797	7.13
373.006	6.94
373.214	6.9
373.423	6.92
373.631	6.83
373.84	6.77
374.048	6.65
374.256	6.63
374.465	6.67
374.673	6.67
374.882	6.56
375.09	6.61
375.298	6.72
375.507	6.58
375.715	6.63
375.923	6.6
376.132	6.67
376.34	6.7
376.548	6.73
376.757	6.69
376.965	6.71
377.173	6.75
377.381	6.93
377.59	6.94
377.798	7.04
378.006	6.87
378.214	6.92
378.423	6.88
378.631	6.75
378.839	6.68
379.047	6.63
379.255	6.65
379.463	6.62
379.671	6.37
379.879	6.35
380.088	6.33
380.296	6.4
380.504	6.42
380.712	6.5
380.92	6.61
381.128	6.75
381.336	6.54
381.544	6.52
381.752	6.45
381.96	6.47
382.168	6.45
382.376	6.41
382.584	6.45
382.791	6.45
382.999	6.37
383.207	6.28
383.415	6.23
383.623	6.32
383.831	6.28
384.039	6.34
384.247	6.35
384.454	6.28
384.662	6.26
384.87	6.28
385.078	6.23
385.285	6.11
385.493	6.12
385.701	6.01
385.909	6
386.116	6.04
386.324	6
386.532	5.86
386.739	5.82
386.947	5.85
387.155	5.81
387.362	5.74
387.57	5.87
387.778	5.91
387.985	5.97
388.193	6.02
388.4	5.98
388.608	5.98
388.816	6
389.023	6.02
389.231	6.06
389.438	6.08
389.646	6.02
389.853	6
390.061	5.92
390.268	5.85
390.475	5.78
390.683	5.78
390.89	5.81
391.098	5.83
391.305	5.85
391.512	5.7
391.72	5.6
391.927	5.62
392.135	5.65
392.342	5.61
392.549	5.67
392.756	5.67
392.964	5.6
393.171	5.64
393.378	5.66
393.586	5.59
393.793	5.6
394	5.59
394.207	5.61
394.414	5.58
394.622	5.62
394.829	5.59
395.036	5.58
395.243	5.53
395.45	5.39
395.657	5.44
395.864	5.5
396.072	5.56
396.279	5.68
396.486	5.66
396.693	5.57
396.9	5.56
397.107	5.44
397.314	5.43
397.521	5.45
397.728	5.45
397.935	5.41
398.142	5.3
398.349	5.29
398.556	5.15
398.763	5.12
398.97	5.16
399.177	5.21
399.383	5.26
399.59	5.25
399.797	5.29
400.004	5.31
400.211	5.25
400.418	5.23
400.625	5.17
400.831	5.25
401.038	5.28
401.245	5.26
401.452	5.2
401.658	5.14
401.865	5.13
402.072	5.01
402.279	4.98
402.485	4.92
402.692	4.99
402.899	5
403.105	4.97
403.312	5
403.519	5.03
403.725	4.99
403.932	5.12
404.138	5.12
404.345	5.15
404.552	5.16
404.758	5.27
404.965	5.18
405.171	5.19
405.378	5.11
405.584	5.1
405.791	4.94
405.997	5.01
406.204	4.96
406.41	5.01
406.617	5.01
406.823	4.94
407.029	4.95
407.236	5.03
407.442	5.04
407.649	5.12
407.855	5.05
408.061	5.19
408.268	5.21
408.474	5.11
408.68	5.04
408.887	5.08
409.093	5.09
409.299	5.02
409.505	4.99
409.712	4.97
409.918	4.97
410.124	4.98
410.33	4.94
410.537	4.87
410.743	4.89
410.949	4.93
411.155	4.97
411.361	5.06
411.567	5.07
411.773	5.08
411.98	5.04
412.186	5.1
412.392	5.16
412.598	5.17
412.804	5.13
413.01	5.1
413.216	5.07
413.422	5.07
413.628	5.01
413.834	4.94
414.04	4.98
414.246	5.02
414.452	5
414.658	5
414.864	4.99
415.07	4.96
415.275	5.01
415.481	4.97
415.687	4.95
415.893	4.97
416.099	4.98
416.305	4.81
416.511	4.81
416.716	4.72
416.922	4.65
417.128	4.67
417.334	4.74
417.539	4.72
417.745	4.69
417.951	4.65
418.157	4.64
418.362	4.63
418.568	4.69
418.774	4.69
418.979	4.69
419.185	4.71
419.391	4.69
419.596	4.68
419.802	4.66
420.008	4.64
420.213	4.7
420.419	4.68
420.624	4.66
420.83	4.65
421.035	4.62
421.241	4.61
421.446	4.55
421.652	4.54
421.857	4.54
422.063	4.51
422.268	4.53
422.474	4.46
422.679	4.45
422.885	4.48
423.09	4.45
423.295	4.43
423.501	4.45
423.706	4.5
423.911	4.48
424.117	4.5
424.322	4.54
424.527	4.55
424.733	4.55
424.938	4.55
425.143	4.53
425.349	4.57
425.554	4.59
425.759	4.57
425.964	4.55
426.169	4.56
426.375	4.54
426.58	4.52
426.785	4.48
426.99	4.51
427.195	4.52
427.4	4.5
427.605	4.53
427.811	4.58
428.016	4.6
428.221	4.6
428.426	4.61
428.631	4.58
428.836	4.56
429.041	4.58
429.246	4.53
429.451	4.55
429.656	4.61
429.861	4.55
430.066	4.54
430.271	4.51
430.476	4.48
430.681	4.44
430.886	4.47
431.09	4.49
431.295	4.44
431.5	4.43
431.705	4.37
431.91	4.29
432.115	4.28
432.32	4.23
432.524	4.25
432.729	4.26
432.934	4.25
433.139	4.27
433.343	4.27
433.548	4.34
433.753	4.39
433.958	4.44
434.162	4.49
434.367	4.53
434.572	4.52
434.776	4.54
434.981	4.55
435.186	4.59
435.39	4.58
435.595	4.56
435.799	4.51
436.004	4.44
436.209	4.4
436.413	4.34
436.618	4.32
436.822	4.32
437.027	4.23
437.231	4.24
437.436	4.24
437.64	4.21
437.845	4.25
438.049	4.29
438.253	4.3
438.458	4.28
438.662	4.32
438.867	4.31
439.071	4.31
439.275	4.37
439.48	4.37
439.684	4.31
439.888	4.32
440.093	4.31
440.297	4.26
440.501	4.32
440.706	4.35
440.91	4.33
441.114	4.33
441.318	4.32
441.523	4.34
441.727	4.3
441.931	4.31
442.135	4.32
442.339	4.31
442.543	4.35
442.748	4.3
442.952	4.24
443.156	4.26
443.36	4.26
443.564	4.32
443.768	4.23
443.972	4.23
444.176	4.21
444.38	4.19
444.584	4.16
444.788	4.14
444.992	4.12
445.196	4.14
445.4	4.1
445.604	4.07
445.808	4.02
446.012	4.07
446.216	4.05
446.42	4.09
446.624	4.1
446.828	4.06
447.032	4.05
447.235	4.05
447.439	4.07
447.643	4.14
447.847	4.19
448.051	4.24
448.254	4.25
448.458	4.29
448.662	4.31
448.866	4.31
449.069	4.35
449.273	4.44
449.477	4.48
449.681	4.5
449.884	4.4
450.088	4.39
450.292	4.3
450.495	4.27
450.699	4.29
450.902	4.29
451.106	4.27
451.31	4.33
451.513	4.24
451.717	4.24
451.92	4.23
452.124	4.27
452.327	4.26
452.531	4.34
452.734	4.31
452.938	4.29
453.141	4.27
453.345	4.28
453.548	4.23
453.752	4.26
453.955	4.3
454.158	4.3
454.362	4.32
454.565	4.32
454.769	4.33
454.972	4.41
455.175	4.39
455.379	4.37
455.582	4.32
455.785	4.32
455.988	4.32
456.192	4.25
456.395	4.25
456.598	4.26
456.801	4.24
457.005	4.18
457.208	4.13
457.411	4.13
457.614	4.09
457.817	4.12
458.021	4.1
458.224	4.06
458.427	4.06
458.63	4.04
458.833	4
459.036	3.98
459.239	4.01
459.442	4.01
459.645	4.02
459.848	4.07
460.051	4.05
460.254	4.08
460.457	4.11
460.66	4.11
460.863	4.16
461.066	4.13
461.269	4.16
461.472	4.2
461.675	4.2
461.878	4.23
462.081	4.2
462.284	4.23
462.486	4.18
462.689	4.18
462.892	4.2
463.095	4.21
463.298	4.24
463.5	4.2
463.703	4.16
463.906	4.17
464.109	4.16
464.311	4.15
464.514	4.17
464.717	4.25
464.92	4.22
465.122	4.21
465.325	4.19
465.528	4.21
465.73	4.24
465.933	4.22
466.135	4.12
466.338	4.12
466.541	4.09
466.743	4.05
466.946	4.04
467.148	4.08
467.351	4.08
467.553	4.04
467.756	4.07
467.958	4.06
468.161	4.07
468.363	4.13
468.566	4.13
468.768	4.12
468.971	4.11
469.173	4.1
469.375	4.05
469.578	3.93
469.78	3.94
469.983	3.94
470.185	3.95
470.387	3.98
470.59	4.04
470.792	4.05
470.994	4.07
