Data from JASIL_2989_Reflection_02.txt Node
Date: Mon Nov 09 09:38:39 EST 2015
User: Geneva
Spectrometer: USB4E03002
Autoset integration time: false
Trigger mode: 4
Integration Time (sec): 1.000000E-1
Scans to average: 10
Electric dark correction enabled: false
Nonlinearity correction enabled: false
Boxcar width: 5
Stray light correction enabled: false
XAxis mode: Wavelengths
Stop averaging: false
Number of Pixels in Spectrum: 3648
>>>>>Begin Spectral Data<<<<<
177.575	-184.36
177.794	-222.55
178.014	-1091.03
178.233	-1851.85
178.452	808.97
178.672	3306.82
178.891	896.26
179.11	508.94
179.33	629.71
179.549	658.7
179.768	498.67
179.987	579.95
180.207	726.78
180.426	1145
180.645	1438.26
180.864	-1937.96
181.084	10694.74
181.303	-1538.52
181.522	-1035.52
181.741	-1822.45
181.96	-743.53
182.179	-731.74
182.398	-3000
182.618	734.38
182.837	930.19
183.056	1411.9
183.275	1356.67
183.494	1090.13
183.713	837.32
183.932	785.25
184.151	728.11
184.37	343.68
184.589	595.24
184.808	550.49
185.027	1302.54
185.246	2310
185.465	723.56
185.684	772.55
185.903	653.59
186.122	463.21
186.341	787.64
186.56	568.85
186.779	-3167.5
186.998	878.48
187.216	-9600
187.435	2019.51
187.654	1154
187.873	-1766.67
188.092	-9281.25
188.311	-2006.58
188.53	-1068.97
188.748	-1041.83
188.967	-879.67
189.186	-1121.71
189.405	-1953.49
189.623	-2353.13
189.842	-609.3
190.061	-383.06
190.28	-303.74
190.498	-430.5
190.717	-593.93
190.936	-457.46
191.154	-392.44
191.373	-360.63
191.592	-235.34
191.81	-215.04
192.029	-248.57
192.248	-457.28
192.466	-933.74
192.685	1200.66
192.904	1570.09
193.122	1494.12
193.341	4610
193.559	5345.71
193.778	-1551.79
193.996	1616.67
194.215	1908.89
194.433	1296.24
194.652	-3935.9
194.87	-5848.15
195.089	-1278.33
195.307	-647.46
195.526	-305.76
195.744	-508.52
195.963	-1116.03
196.181	-1946.25
196.399	-418.59
196.618	-548.76
196.836	13300
197.055	2269.57
197.273	-3200
197.491	2973.91
197.71	1236.27
197.928	440.63
198.146	634.88
198.365	444.23
198.583	391.3
198.801	258.06
199.019	287.22
199.238	475.42
199.456	452.94
199.674	632.34
199.892	614.93
200.111	720.17
200.329	886.67
200.547	1150.97
200.765	-15518.18
200.983	2893.44
201.202	-10016.67
201.42	1914.29
201.638	-973.99
201.856	-956.32
202.074	6773.08
202.292	-1812.5
202.51	5848.28
202.728	-3608.51
202.946	1216.18
203.165	1365.55
203.383	814.88
203.601	596.84
203.819	6052
204.037	1163.64
204.255	797.51
204.473	1765.88
204.691	4191.89
204.909	-4188.24
205.127	-2092.06
205.345	-4475.76
205.562	-4271.43
205.78	-573.47
205.998	-573.44
206.216	-1366.02
206.434	-1517.35
206.652	-553.5
206.87	-512.07
207.088	-409.33
207.306	-736.36
207.523	-885.47
207.741	-514.34
207.959	-1834.62
208.177	-1122.12
208.395	-471.27
208.612	-367.95
208.83	-444.57
209.048	-1533.72
209.266	-4016.13
209.483	3568.57
209.701	-5747.62
209.919	1002.29
210.136	-22350
210.354	-1232.26
210.572	-4168.42
210.79	994.77
211.007	697.18
211.225	571.88
211.442	979.46
211.66	646.38
211.878	918.57
212.095	1169.44
212.313	1980.52
212.53	1257.81
212.748	2498.28
212.966	576.47
213.183	1334.15
213.401	1595.83
213.618	-2143.06
213.836	-1229.09
214.053	-365.87
214.271	-694.94
214.488	-657.53
214.705	-428.15
214.923	-754.02
215.14	1875.68
215.358	-819.35
215.575	-3274.36
215.793	-1383.15
216.01	2806.38
216.227	710.7
216.445	485.28
216.662	477.99
216.879	601.94
217.097	505.1
217.314	632.78
217.531	620.62
217.749	619.94
217.966	701.01
218.183	489.41
218.4	481.8
218.618	610.32
218.835	893.28
219.052	843.02
219.269	491.16
219.487	427.71
219.704	503.79
219.921	624.31
220.138	522.85
220.355	428.31
220.572	435.83
220.79	362.65
221.007	289.52
221.224	273.86
221.441	261.61
221.658	323.34
221.875	536.67
222.092	301.66
222.309	326.82
222.526	436.24
222.743	3336.84
222.96	4370.97
223.177	-2112.5
223.394	-681
223.611	-888.16
223.828	-469.92
224.045	-1256.56
224.262	1475
224.479	-4668.75
224.696	-3272.92
224.913	-33700
225.13	786.63
225.347	653.33
225.564	505.36
225.781	317.93
225.997	244.66
226.214	199.86
226.431	168.4
226.648	149.46
226.865	119.86
227.082	110
227.298	110.48
227.515	107.9
227.732	101.76
227.949	104.77
228.165	104.44
228.382	110.46
228.599	115.29
228.816	111.73
229.032	116.64
229.249	129.34
229.466	142.76
229.682	158.03
229.899	142.04
230.116	162.78
230.332	203.97
230.549	260.71
230.765	307.73
230.982	233.94
231.199	349.6
231.415	266.41
231.632	284.41
231.848	300.85
232.065	258.66
232.281	258.19
232.498	215.31
232.714	184.9
232.931	192.83
233.147	166.16
233.364	162.13
233.58	148.98
233.797	157.59
234.013	158.99
234.23	164.56
234.446	157.41
234.662	188.56
234.879	252.54
235.095	247.86
235.312	211.98
235.528	204.71
235.744	241.61
235.961	208.9
236.177	167.52
236.393	156.12
236.61	155.27
236.826	169.94
237.042	160.85
237.258	146.94
237.475	144.91
237.691	144.31
237.907	157.71
238.123	153.18
238.339	165.62
238.556	185.04
238.772	181.91
238.988	150.78
239.204	133.45
239.42	120.98
239.636	119.89
239.853	115.24
240.069	107.76
240.285	98.66
240.501	86.54
240.717	79.56
240.933	73.45
241.149	72.18
241.365	77.88
241.581	78.24
241.797	82.37
242.013	78.27
242.229	78.69
242.445	76.48
242.661	81.61
242.877	84.59
243.093	91.69
243.309	103.33
243.525	101.76
243.741	98.13
243.957	95.48
244.173	78.62
244.388	70.74
244.604	64.55
244.82	60.86
245.036	54.32
245.252	49.7
245.468	47.6
245.683	43.84
245.899	42.7
246.115	40.27
246.331	39.35
246.547	39.19
246.762	40
246.978	38.34
247.194	38.14
247.409	40.65
247.625	44.25
247.841	45.1
248.057	49.39
248.272	58.58
248.488	64.3
248.703	69.57
248.919	79.04
249.135	86.46
249.35	95.51
249.566	96.83
249.782	89.52
249.997	86.71
250.213	76.67
250.428	69.84
250.644	66.84
250.859	65.02
251.075	70.56
251.29	67.57
251.506	70.56
251.721	72.65
251.937	75.38
252.152	75.23
252.368	78.99
252.583	90.25
252.798	102.99
253.014	108.69
253.229	118.62
253.445	103.76
253.66	99.55
253.875	97.77
254.091	88.32
254.306	84.44
254.521	85.95
254.737	85.59
254.952	79.66
255.167	78.01
255.383	67.16
255.598	62.96
255.813	54.19
256.028	62.68
256.244	56.33
256.459	55.41
256.674	50.94
256.889	43.06
257.104	37.73
257.32	39.86
257.535	33.77
257.75	33.5
257.965	31.16
258.18	32.94
258.395	28.07
258.61	26.28
258.826	24.58
259.041	25.74
259.256	27.78
259.471	27.6
259.686	25.2
259.901	28.65
260.116	29.79
260.331	32.61
260.546	33.86
260.761	39.97
260.976	43.84
261.191	46.87
261.406	46.89
261.621	49.48
261.836	52
262.05	54.34
262.265	50.75
262.48	49.7
262.695	54.3
262.91	54.29
263.125	52.38
263.34	52.08
263.555	52.01
263.769	49.51
263.984	45.03
264.199	47.44
264.414	47.53
264.629	48.84
264.843	51.32
265.058	40.57
265.273	40.64
265.488	34.89
265.702	33.07
265.917	34.9
266.132	38.53
266.346	40.07
266.561	37.87
266.776	40.27
266.99	42.36
267.205	43.41
267.42	47.15
267.634	48.56
267.849	49.05
268.063	53.18
268.278	49.17
268.492	48.91
268.707	49.63
268.922	46.71
269.136	42.04
269.351	40.58
269.565	35.94
269.78	36.63
269.994	36.45
270.209	38.75
270.423	40.27
270.637	37.89
270.852	37.14
271.066	35.42
271.281	37.96
271.495	40.79
271.709	39.84
271.924	42.61
272.138	39.3
272.353	37.01
272.567	35.58
272.781	34.82
272.996	39
273.21	39.39
273.424	40.13
273.638	40.06
273.853	42.48
274.067	41.43
274.281	39.83
274.495	43.31
274.71	45.02
274.924	49.63
275.138	47.72
275.352	46.92
275.566	49.62
275.781	51.7
275.995	51.04
276.209	48.47
276.423	52.55
276.637	54.88
276.851	55.05
277.065	53.74
277.279	51.02
277.493	49.98
277.707	48.15
277.921	45.95
278.135	43.1
278.349	44.87
278.563	46.29
278.777	43.44
278.991	41.93
279.205	43.14
279.419	42.88
279.633	42.67
279.847	41.99
280.061	43.88
280.275	41.84
280.489	42.48
280.703	43.75
280.917	42.31
281.131	42.19
281.344	39.52
281.558	37.82
281.772	36.57
281.986	35.79
282.2	37.95
282.414	38.44
282.627	36.41
282.841	33.37
283.055	31.68
283.269	33.42
283.482	31.09
283.696	30.96
283.91	30.62
284.123	28.8
284.337	26.54
284.551	24.33
284.764	21.97
284.978	23.83
285.192	25.64
285.405	27.22
285.619	25.96
285.833	28.11
286.046	28.66
286.26	27.89
286.473	26.74
286.687	29.6
286.9	28.67
287.114	30.02
287.327	29.65
287.541	29.24
287.754	28.65
287.968	26.06
288.181	23.15
288.395	27.25
288.608	28.99
288.822	32.64
289.035	29.62
289.248	31.03
289.462	30.42
289.675	29.64
289.889	28.59
290.102	25.78
290.315	24.35
290.529	27.85
290.742	25.2
290.955	26.03
291.169	25.98
291.382	27.65
291.595	27.58
291.808	30.57
292.022	31.15
292.235	29.78
292.448	32.32
292.661	35.54
292.875	33.98
293.088	33.67
293.301	30.26
293.514	29.89
293.727	30.32
293.94	26.57
294.153	25.24
294.367	24.12
294.58	27.13
294.793	24.69
295.006	23.71
295.219	23.5
295.432	23.15
295.645	23.57
295.858	21.6
296.071	19.12
296.284	21.98
296.497	22.29
296.71	22.62
296.923	22.01
297.136	23.59
297.349	25.07
297.562	25.42
297.775	24.92
297.988	24.08
298.201	25.32
298.414	30.12
298.626	30.31
298.839	31.13
299.052	30.56
299.265	29.64
299.478	28.86
299.691	31.41
299.903	31.72
300.116	33.99
300.329	38.43
300.542	39.1
300.755	39.46
300.967	39.74
301.18	38.91
301.393	40.66
301.605	44.06
301.818	43.33
302.031	40.99
302.243	41.86
302.456	40.17
302.669	39.02
302.881	38.24
303.094	38.75
303.307	37.77
303.519	36.45
303.732	36.92
303.944	34.75
304.157	34.42
304.37	33.84
304.582	30.94
304.795	34.85
305.007	32.34
305.22	35.01
305.432	32.1
305.645	33.15
305.857	34.63
306.069	32.97
306.282	34.38
306.494	35.11
306.707	37.29
306.919	38.81
307.132	39.28
307.344	39.33
307.556	37.24
307.769	37.3
307.981	37.32
308.193	36.18
308.406	37.25
308.618	34.27
308.83	32.56
309.043	31.12
309.255	31.25
309.467	28.47
309.679	27
309.892	26.14
310.104	24.52
310.316	24.04
310.528	22.99
310.74	23.01
310.953	25.39
311.165	26.31
311.377	26.25
311.589	26.81
311.801	25.64
312.013	24.14
312.225	27.76
312.437	29.88
312.649	29.06
312.862	29.7
313.074	29.57
313.286	29.96
313.498	31.46
313.71	30.22
313.922	31.54
314.134	32.21
314.346	36.21
314.558	39.03
314.77	37.27
314.982	38.79
315.193	38.29
315.405	39.68
315.617	36.62
315.829	35.5
316.041	39.16
316.253	36.4
316.465	39.28
316.677	38.74
316.888	37
317.1	37.18
317.312	36.68
317.524	36.62
317.736	34.2
317.947	36.26
318.159	35.57
318.371	33.77
318.583	33.06
318.794	31.91
319.006	35.24
319.218	33.48
319.43	35.24
319.641	35.59
319.853	39.91
320.064	41.3
320.276	41.85
320.488	44.33
320.699	47.69
320.911	49
321.123	47.75
321.334	46.03
321.546	45.49
321.757	46.7
321.969	48.09
322.18	48.56
322.392	47.1
322.603	45.51
322.815	45.85
323.026	40.21
323.238	37.86
323.449	38.34
323.661	37.87
323.872	37.69
324.083	36.47
324.295	35.14
324.506	33.41
324.718	33.34
324.929	34.28
325.14	32.85
325.352	34.53
325.563	34.89
325.774	36.27
325.986	38.5
326.197	40.02
326.408	39.43
326.62	40.65
326.831	37.13
327.042	37.08
327.253	35.02
327.464	36.32
327.676	36.6
327.887	38.8
328.098	35.19
328.309	29.42
328.52	26.57
328.732	26.64
328.943	23.07
329.154	28.06
329.365	28.26
329.576	29.06
329.787	28.81
329.998	30.6
330.209	32.97
330.42	35.18
330.631	37.5
330.842	38.58
331.053	38.95
331.264	43.06
331.475	41.64
331.686	40.7
331.897	41.76
332.108	42.14
332.319	42.11
332.53	39.12
332.741	37.78
332.952	36.87
333.163	37.18
333.374	37.32
333.585	38.33
333.795	36.99
334.006	37.11
334.217	35.44
334.428	36.69
334.639	34.99
334.849	35.59
335.06	34.05
335.271	31.75
335.482	31.65
335.692	29.62
335.903	28.21
336.114	29.98
336.325	30.3
336.535	32.72
336.746	31.85
336.957	32.44
337.167	32.84
337.378	34.75
337.589	37.44
337.799	37.08
338.01	38.77
338.22	38.35
338.431	40.2
338.642	40.22
338.852	37.33
339.063	36.45
339.273	35.39
339.484	33.45
339.694	31.75
339.905	29.61
340.115	30.57
340.326	28.35
340.536	26.42
340.746	23.75
340.957	23.66
341.167	24.52
341.378	22.51
341.588	21.59
341.799	22.56
342.009	22.02
342.219	22.34
342.43	18.39
342.64	19.46
342.85	20.19
343.061	20.38
343.271	23.11
343.481	24.38
343.691	24.98
343.902	25.14
344.112	24.93
344.322	27.86
344.532	28.84
344.743	29.17
344.953	29.22
345.163	29.14
345.373	27.76
345.583	25.76
345.793	24.8
346.004	24.74
346.214	27.52
346.424	27.68
346.634	28.82
346.844	29.54
347.054	30.41
347.264	31.96
347.474	32.37
347.684	35.67
347.894	34.69
348.104	33.56
348.314	33.53
348.524	29.1
348.734	29.11
348.944	27.85
349.154	26.34
349.364	26.74
349.574	25.55
349.784	25.86
349.994	25.39
350.204	28.07
350.413	29.02
350.623	29.54
350.833	31.9
351.043	30.34
351.253	29.02
351.463	31.01
351.672	32.45
351.882	33.22
352.092	33.36
352.302	32.54
352.511	30.7
352.721	29.16
352.931	27.68
353.141	27.98
353.35	28.67
353.56	28.04
353.77	24.62
353.979	24.17
354.189	23.72
354.399	23.07
354.608	20.83
354.818	21.3
355.027	20.64
355.237	21.38
355.447	20.95
355.656	19.45
355.866	19.13
356.075	22.59
356.285	21.59
356.494	20.52
356.704	20.79
356.913	23.18
357.123	23.2
357.332	24.97
357.542	26.09
357.751	26.15
357.96	27.64
358.17	28.07
358.379	26.64
358.589	26.87
358.798	27.32
359.007	26.44
359.217	24.97
359.426	25.21
359.635	23.48
359.845	21.4
360.054	19.59
360.263	17.8
360.472	17.38
360.682	16.95
360.891	16.39
361.1	15.94
361.309	15.16
361.519	15.75
361.728	15.66
361.937	17.13
362.146	17.7
362.355	18.65
362.564	19.63
362.774	19.35
362.983	19.06
363.192	18.96
363.401	19.78
363.61	19.85
363.819	19.8
364.028	19.72
364.237	18.33
364.446	17.41
364.655	17.8
364.864	18.45
365.073	18.65
365.282	18.43
365.491	18.8
365.7	19.11
365.909	20.22
366.118	20.16
366.327	18.99
366.536	18.4
366.745	19.37
366.954	18.82
367.162	18.48
367.371	20.06
367.58	20.4
367.789	20.83
367.998	20.31
368.207	20.57
368.415	20.81
368.624	21.36
368.833	22.31
369.042	21.89
369.25	22.2
369.459	22.12
369.668	21.01
369.877	20.6
370.085	19.23
370.294	18.15
370.503	18.59
370.711	17.98
370.92	17.7
371.129	17.96
371.337	17.36
371.546	17.47
371.754	17.53
371.963	18.37
372.171	19.33
372.38	20.7
372.589	21.82
372.797	21.52
373.006	21.82
373.214	21.15
373.423	22.03
373.631	22.16
373.84	21.91
374.048	21.1
374.256	20.34
374.465	20.05
374.673	18.69
374.882	15.92
375.09	15.17
375.298	13.98
375.507	15.24
375.715	13.82
375.923	14.72
376.132	13.6
376.34	15.88
376.548	15.87
376.757	15.18
376.965	14.78
377.173	16.76
377.381	16.38
377.59	18.26
377.798	18.37
378.006	19.9
378.214	19.23
378.423	20.59
378.631	19.44
378.839	18.98
379.047	17.52
379.255	20.21
379.463	21.37
379.671	22.17
379.879	22.01
380.088	21.44
380.296	20.72
380.504	21.11
380.712	22.16
380.92	20.82
381.128	21.4
381.336	23.82
381.544	22.44
381.752	20.98
381.96	19.34
382.168	19.29
382.376	18.75
382.584	19.17
382.791	18.16
382.999	16.68
383.207	17.05
383.415	16.81
383.623	17.42
383.831	16.16
384.039	15.61
384.247	15.02
384.454	13.62
384.662	13.8
384.87	12.44
385.078	14.01
385.285	14.06
385.493	15.83
385.701	15.8
385.909	14.27
386.116	14.82
386.324	14.34
386.532	16.22
386.739	16.53
386.947	15.97
387.155	16.28
387.362	16.68
387.57	16.69
387.778	15.73
387.985	15.83
388.193	14.5
388.4	13.85
388.608	14.88
388.816	15.35
389.023	15.79
389.231	15.1
389.438	14.77
389.646	13.27
389.853	13.32
390.061	13.07
390.268	13.72
390.475	15.01
390.683	15.48
390.89	15.57
391.098	14.74
391.305	13.94
391.512	14.48
391.72	14.72
391.927	14.25
392.135	12.46
392.342	12.12
392.549	11.81
392.756	11.49
392.964	11.72
393.171	11.77
393.378	11.07
393.586	11.27
393.793	11.89
394	11.99
394.207	12.75
394.414	14.41
394.622	15.41
394.829	14.56
395.036	14.85
395.243	14.35
395.45	13.38
395.657	14.56
395.864	13.97
396.072	13.39
396.279	13.71
396.486	14.33
396.693	14.16
396.9	12.85
397.107	13.18
397.314	13.3
397.521	14.11
397.728	14.41
397.935	14.62
398.142	15.36
398.349	15.51
398.556	15.07
398.763	14.78
398.97	15.44
399.177	15.8
399.383	15.61
399.59	15.49
399.797	14.99
400.004	14.81
400.211	14.9
400.418	14.73
400.625	12.96
400.831	12.24
401.038	11.54
401.245	11.59
401.452	11.69
401.658	12.18
401.865	11.83
402.072	12.67
402.279	13.88
402.485	12.53
402.692	11.85
402.899	13.99
403.105	13.88
403.312	15.91
403.519	16.29
403.725	16.01
403.932	15.83
404.138	15.16
404.345	14.65
404.552	13.13
404.758	13.69
404.965	15.8
405.171	14.81
405.378	15.67
405.584	14.62
405.791	13.43
405.997	12.86
406.204	11.27
406.41	12.46
406.617	12.81
406.823	12.73
407.029	12.44
407.236	10.34
407.442	11.16
407.649	11.57
407.855	11.02
408.061	11.83
408.268	12.27
408.474	13.25
408.68	12.71
408.887	11.69
409.093	12.71
409.299	13.34
409.505	12.94
409.712	12.41
409.918	11.35
410.124	10.38
410.33	10.36
410.537	9.74
410.743	9.91
410.949	11.02
411.155	11.02
411.361	11.08
411.567	11.17
411.773	11.81
411.98	12.12
412.186	11.7
412.392	13.32
412.598	13.68
412.804	13.73
413.01	14.53
413.216	14.53
413.422	14.09
413.628	14.02
413.834	13.88
414.04	13.04
414.246	12.64
414.452	13.63
414.658	12.02
414.864	10.06
415.07	10.39
415.275	8.97
415.481	7.76
415.687	8.56
415.893	8.5
416.099	7.72
416.305	7.17
416.511	6.84
416.716	6.04
416.922	7.15
417.128	8.25
417.334	8.44
417.539	8.88
417.745	8.34
417.951	7.88
418.157	7.42
418.362	7.35
418.568	7.68
418.774	7.67
418.979	7.72
419.185	7.02
419.391	6.28
419.596	5.54
419.802	5.5
420.008	6.11
420.213	10.13
420.419	10.16
420.624	10.39
420.83	10.83
421.035	10.5
421.241	10.45
421.446	10.72
421.652	11.05
421.857	11.43
422.063	11
422.268	10.48
422.474	6.7
422.679	6.25
422.885	6.5
423.09	6.04
423.295	5.92
423.501	6.11
423.706	6.18
423.911	6.07
424.117	5.81
424.322	5.92
424.527	6.15
424.733	5.9
424.938	5.65
425.143	5.01
425.349	5.25
425.554	5.81
425.759	6.01
425.964	5.64
426.169	5.32
426.375	5.68
426.58	6.5
426.785	6.61
426.99	6.13
427.195	7.02
427.4	7.32
427.605	7.13
427.811	7.3
428.016	7.02
428.221	7.6
428.426	7.99
428.631	7.72
428.836	6.98
429.041	7.46
429.246	7.77
429.451	7.37
429.656	7.95
429.861	8.46
430.066	8.66
430.271	8.48
430.476	7.65
430.681	7.96
430.886	8.69
431.09	8.7
431.295	7.36
431.5	7.61
431.705	7.32
431.91	6.66
432.115	5.8
432.32	5.8
432.524	5.61
432.729	5.94
432.934	5.45
433.139	4.99
433.343	5.08
433.548	5.94
433.753	5.72
433.958	5.62
434.162	5.97
434.367	7.28
434.572	6.86
434.776	6.34
434.981	5.94
435.186	5.99
435.39	5.56
435.595	5.47
435.799	5.73
436.004	5.86
436.209	6.69
436.413	6.24
436.618	5.64
436.822	6.3
437.027	6.69
437.231	6.85
437.436	7.27
437.64	7.36
437.845	6.92
438.049	6.58
438.253	6.61
438.458	6.84
438.662	7.08
438.867	7.01
439.071	6.45
439.275	6.2
439.48	6.28
439.684	5.83
439.888	5.93
440.093	6.12
440.297	6.17
440.501	6.16
440.706	5.87
440.91	5.95
441.114	6.53
441.318	6.63
441.523	7.51
441.727	7.35
441.931	8.24
442.135	8.94
442.339	8.78
442.543	8.77
442.748	8.91
442.952	8.78
443.156	8.42
443.36	7.7
443.564	7.73
443.768	6.93
443.972	7.02
444.176	6.2
444.38	5.6
444.584	6.23
444.788	5.66
444.992	5.28
445.196	5.1
445.4	5.04
445.604	4.96
445.808	4.71
446.012	4.41
446.216	4.15
446.42	4.28
446.624	4.44
446.828	3.82
447.032	4.22
447.235	4.39
447.439	4.27
447.643	4.31
447.847	4.86
448.051	4.77
448.254	5.39
448.458	5.48
448.662	5.34
448.866	4.94
449.069	4.85
449.273	4.77
449.477	4.74
449.681	5.16
449.884	6.02
450.088	5.64
450.292	5.94
450.495	6.62
450.699	7.54
450.902	7.32
451.106	7.75
451.31	7.93
451.513	8.59
451.717	8.96
451.92	9.57
452.124	9.42
452.327	9.33
452.531	10.2
452.734	9.72
