Data from JASIL_3107_Reflection_1.txt Node
Date: Thu Nov 12 19:47:28 EST 2015
User: Geneva
Spectrometer: USB4E03002
Autoset integration time: false
Trigger mode: 4
Integration Time (sec): 1.000000E-1
Scans to average: 10
Electric dark correction enabled: true
Nonlinearity correction enabled: false
Boxcar width: 5
Stray light correction enabled: false
XAxis mode: Wavelengths
Stop averaging: false
Number of Pixels in Spectrum: 3648
>>>>>Begin Spectral Data<<<<<
177.575	-177.02
177.794	318.97
178.014	-767.53
178.233	-81.29
178.452	8.09
178.672	7.4
178.891	63.89
179.11	298.18
179.33	119.55
179.549	150.55
179.768	140.57
179.987	106.99
180.207	80.97
180.426	76.44
180.645	138.58
180.864	37.86
181.084	72.16
181.303	14.29
181.522	-109.64
181.741	-23.09
181.96	5.54
182.179	20.49
182.398	28.74
182.618	-4.42
182.837	2.8
183.056	-751.37
183.275	876.7
183.494	370.53
183.713	124.84
183.932	-863.77
184.151	-713.75
184.37	821.23
184.589	1144.92
184.808	371.76
185.027	871.1
185.246	-128.66
185.465	-221.76
185.684	-191.39
185.903	-328.44
186.122	-245.29
186.341	-628.29
186.56	-718.84
186.779	-338.35
186.998	8482.67
187.216	667.43
187.435	683.27
187.654	208.06
187.873	129.34
188.092	157.44
188.311	-486.16
188.53	154.65
188.748	684.11
188.967	-386.02
189.186	169.76
189.405	582.51
189.623	2946.49
189.842	-245.54
190.061	-180.97
190.28	-252.07
190.498	-213.61
190.717	1015.77
190.936	-920.52
191.154	586.13
191.373	355
191.592	-2733.96
191.81	1183.66
192.029	-844.43
192.248	-196.57
192.466	-224.38
192.685	-476.97
192.904	1215.85
193.122	443.2
193.341	206.29
193.559	230.8
193.778	225.26
193.996	230.9
194.215	923.49
194.433	284.11
194.652	190.85
194.87	189.06
195.089	254.78
195.307	50
195.526	634.4
195.744	-424.12
195.963	180.43
196.181	-166.07
196.399	-403.22
196.618	-249.51
196.836	-376.43
197.055	-839.19
197.273	-135.68
197.491	-50.46
197.71	-5.81
197.928	-5.98
198.146	-59.44
198.365	-89
198.583	-3.68
198.801	53.75
199.019	48.25
199.238	59.85
199.456	60.53
199.674	39.91
199.892	16.35
200.111	-161.18
200.329	51.69
200.547	-181.21
200.765	-64.07
200.983	-29.83
201.202	-15.29
201.42	-15.96
201.638	-53.76
201.856	-42.58
202.074	-26.72
202.292	-132.95
202.51	-252.87
202.728	-199.95
202.946	-230.77
203.165	1991.93
203.383	609.99
203.601	235.43
203.819	957.63
204.037	-1583.65
204.255	-359.26
204.473	2640.49
204.691	-165.06
204.909	-397.49
205.127	-891.84
205.345	180.57
205.562	201.83
205.78	133.35
205.998	280.93
206.216	115.31
206.434	63.44
206.652	66.55
206.87	73.99
207.088	36.78
207.306	60.69
207.523	52.22
207.741	42.8
207.959	211.45
208.177	27090
208.395	305.64
208.612	270.66
208.83	-586.02
209.048	-612.98
209.266	-493.21
209.483	-207.17
209.701	-112.55
209.919	-157.02
210.136	-106.31
210.354	-62.24
210.572	-12.17
210.79	13
211.007	4.92
211.225	8.2
211.442	18.33
211.66	8.53
211.878	35.04
212.095	47.14
212.313	59.83
212.53	64.14
212.748	33.05
212.966	46.17
213.183	135.56
213.401	172.69
213.618	57.39
213.836	47.59
214.053	29.43
214.271	322.87
214.488	193.25
214.705	629.77
214.923	-376.28
215.14	-5735.8
215.358	1358.2
215.575	-20123.64
215.793	-481.98
216.01	-1242.74
216.227	1574.34
216.445	719.54
216.662	-318.96
216.879	-4324.06
217.097	371.62
217.314	227.22
217.531	320.44
217.749	-76.56
217.966	-319.09
218.183	-161.52
218.4	-35.76
218.618	585.77
218.835	-290.07
219.052	43.97
219.269	1.47
219.487	-16.15
219.704	13.46
219.921	31.21
220.138	92.2
220.355	148.13
220.572	117.78
220.79	84.96
221.007	19.4
221.224	55.89
221.441	86.88
221.658	212.24
221.875	336
222.092	558.78
222.309	515.64
222.526	1848.91
222.743	1653.75
222.96	517.15
223.177	-2618.1
223.394	-700.86
223.611	-411.1
223.828	-5052.05
224.045	1348.86
224.262	-598.8
224.479	-1046.37
224.696	-198.4
224.913	-113.79
225.13	-31.17
225.347	-40.47
225.564	-43.61
225.781	-32.72
225.997	-48.01
226.214	-41.72
226.431	-46.61
226.648	-57.07
226.865	-28.57
227.082	-30.94
227.298	-35.87
227.515	-35.22
227.732	-31.52
227.949	-28.87
228.165	-26.59
228.382	-18.27
228.599	-12.56
228.816	-5.01
229.032	2.96
229.249	5.35
229.466	-0.55
229.682	-4.52
229.899	-3.73
230.116	-0.54
230.332	-8.3
230.549	-7.89
230.765	-8.1
230.982	-11.95
231.199	-5.52
231.415	-16.2
231.632	-53.54
231.848	-48.75
232.065	-44.85
232.281	-35.18
232.498	-41.92
232.714	-17.65
232.931	-26.32
233.147	-28.11
233.364	-42.6
233.58	-56.1
233.797	-40.98
234.013	-6.26
234.23	-6.36
234.446	-11.36
234.662	-16.69
234.879	-29.42
235.095	-46.41
235.312	-29.41
235.528	-24.81
235.744	-12.24
235.961	-20.26
236.177	-13.56
236.393	-25.03
236.61	-13.28
236.826	-3.32
237.042	-24.51
237.258	-20.16
237.475	-11.2
237.691	-21.14
237.907	-22.89
238.123	-24.98
238.339	-35.34
238.556	-31.68
238.772	-29.67
238.988	-33.42
239.204	-41.84
239.42	-22.53
239.636	-4.77
239.853	-10.79
240.069	-5.13
240.285	-8.73
240.501	-5.08
240.717	3.89
240.933	4.31
241.149	4.45
241.365	5.83
241.581	4.18
241.797	5.94
242.013	0.73
242.229	5.42
242.445	3.96
242.661	12.32
242.877	12.38
243.093	13.12
243.309	11.46
243.525	10.28
243.741	3.25
243.957	2.79
244.173	2.55
244.388	4.44
244.604	5.47
244.82	8.5
245.036	4.69
245.252	4.87
245.468	0.53
245.683	-0.53
245.899	0.07
246.115	0.35
246.331	0.43
246.547	2.74
246.762	1.35
246.978	1.9
247.194	-0.01
247.409	-2.1
247.625	-6.36
247.841	-5.23
248.057	-5.37
248.272	-4.37
248.488	-5.06
248.703	-3.58
248.919	-10.64
249.135	-12.93
249.35	-22.65
249.566	-28.35
249.782	-27.62
249.997	-22.49
250.213	-22.66
250.428	-20.54
250.644	-23.73
250.859	-15.34
251.075	-15.61
251.29	-6.47
251.506	-4.69
251.721	-1.03
251.937	3
252.152	-1.07
252.368	1.59
252.583	3.72
252.798	1.89
253.014	2.92
253.229	1.89
253.445	4.2
253.66	2.14
253.875	4.72
254.091	1.12
254.306	7.62
254.521	7.03
254.737	0.46
254.952	-2.8
255.167	-3.02
255.383	2.27
255.598	3.48
255.813	1.45
256.028	-7.4
256.244	-10.39
256.459	-5.21
256.674	-10.87
256.889	-6.32
257.104	-5.45
257.32	-7.88
257.535	-5.46
257.75	-5.7
257.965	-4.1
258.18	-4.13
258.395	-1.62
258.61	-3.63
258.826	-2.5
259.041	-2.93
259.256	-1.23
259.471	-0.94
259.686	1.95
259.901	0.29
260.116	0.78
260.331	1.04
260.546	1.7
260.761	1.85
260.976	4.43
261.191	3.37
261.406	6.39
261.621	3.52
261.836	5.03
262.05	1.17
262.265	3.15
262.48	-3.86
262.695	-8.06
262.91	-10.69
263.125	-7.49
263.34	-3.68
263.555	-8.68
263.769	-11.1
263.984	-6.09
264.199	-1.06
264.414	3.31
264.629	0.68
264.843	4.54
265.058	2.03
265.273	-0.58
265.488	0.5
265.702	-3.13
265.917	0.5
266.132	-0.4
266.346	-0.7
266.561	-4.07
266.776	-1.9
266.99	1.85
267.205	1.73
267.42	4.16
267.634	7.76
267.849	4.84
268.063	7.41
268.278	3.31
268.492	3.14
268.707	-0.61
268.922	1.03
269.136	-2.82
269.351	-3.29
269.565	-0.31
269.78	2.28
269.994	1.1
270.209	1.56
270.423	-0.7
270.637	1.89
270.852	2.34
271.066	4.1
271.281	4.75
271.495	7.28
271.709	5.92
271.924	4.7
272.138	1.29
272.353	-0.84
272.567	-0.87
272.781	-1.1
272.996	-2.81
273.21	-3.45
273.424	-5.61
273.638	-6.91
273.853	-8.98
274.067	-7.15
274.281	-7.66
274.495	-5.68
274.71	-5.78
274.924	-8.43
275.138	-5.93
275.352	-7.1
275.566	-7.88
275.781	-7
275.995	-7.93
276.209	-6.42
276.423	-8.19
276.637	-7.45
276.851	-8.25
277.065	-6.5
277.279	-4.16
277.493	-3.06
277.707	0.64
277.921	0.45
278.135	4.49
278.349	4.99
278.563	3.28
278.777	4.85
278.991	5.4
279.205	5.49
279.419	7.27
279.633	6.82
279.847	3.51
280.061	2.89
280.275	4.5
280.489	0.12
280.703	0.71
280.917	1.08
281.131	1.67
281.344	1.37
281.558	0.28
281.772	-3.44
281.986	-3.1
282.2	-0.69
282.414	-2.66
282.627	-2.92
282.841	-0.66
283.055	-1.55
283.269	0.48
283.482	-0.1
283.696	-3.83
283.91	-0.73
284.123	2.19
284.337	2.26
284.551	-1.01
284.764	-0.91
284.978	-0.96
285.192	-1.78
285.405	-3.42
285.619	-6.69
285.833	-7.75
286.046	-3.93
286.26	-7.65
286.473	-8.51
286.687	-7.75
286.9	-6.02
287.114	-4.7
287.327	-3.11
287.541	-1.27
287.754	0.69
287.968	2.31
288.181	2.87
288.395	0.15
288.608	3.16
288.822	4.41
289.035	4.03
289.248	2.97
289.462	1.3
289.675	-2.01
289.889	-2.98
290.102	-4.65
290.315	-6.15
290.529	-5.21
290.742	-2.32
290.955	-1.82
291.169	-4.84
291.382	-5
291.595	-5.66
291.808	-4.41
292.022	-1.21
292.235	-4.43
292.448	-0.44
292.661	1.26
292.875	0.67
293.088	-3.04
293.301	-4.54
293.514	-2.69
293.727	-3.02
293.94	-2.05
294.153	-3.08
294.367	-4.51
294.58	-4
294.793	-4.9
295.006	-5.75
295.219	-4.6
295.432	-2.81
295.645	-3.6
295.858	-4.05
296.071	-4.62
296.284	-3.86
296.497	-2.45
296.71	-1.03
296.923	1.95
297.136	2
297.349	2.23
297.562	1.21
297.775	1.91
297.988	2.66
298.201	3.2
298.414	3.82
298.626	3.07
298.839	2.44
299.052	1.79
299.265	-0.36
299.478	-3.13
299.691	-3.34
299.903	-2.01
300.116	-4.24
300.329	-2.81
300.542	-2.96
300.755	-2.38
300.967	-0.66
301.18	0.83
301.393	-0.55
301.605	-0.79
301.818	2.18
302.031	2.41
302.243	1.44
302.456	0.18
302.669	-1.41
302.881	-1.2
303.094	0.29
303.307	-0.43
303.519	-1.83
303.732	-1.16
303.944	-1.44
304.157	-3
304.37	-0.92
304.582	0.65
304.795	4.54
305.007	2.69
305.22	5.88
305.432	3.43
305.645	2.83
305.857	4.05
306.069	3.81
306.282	5.39
306.494	6.69
306.707	4.75
306.919	0.28
307.132	-2.18
307.344	-0.16
307.556	-2.21
307.769	-2.55
307.981	-2.24
308.193	-3.38
308.406	-1.82
308.618	-1.69
308.83	-0.83
309.043	0.65
309.255	3.43
309.467	4.82
309.679	4.23
309.892	5.17
310.104	5.57
310.316	4.8
310.528	4.9
310.74	3.71
310.953	2.98
311.165	4.64
311.377	3.59
311.589	1.95
311.801	0.68
312.013	1.59
312.225	-0.08
312.437	0.64
312.649	2.26
312.862	4.1
313.074	3.78
313.286	2.65
313.498	-2.33
313.71	-2.59
313.922	-1.92
314.134	-1
314.346	-3.54
314.558	-3.4
314.77	-4.14
314.982	-4.29
315.193	-3
315.405	-2.34
315.617	-1.37
315.829	0.28
316.041	-1.09
316.253	0.31
316.465	-0.06
316.677	1.52
316.888	1.88
317.1	3.98
317.312	6.73
317.524	3.4
317.736	2.41
317.947	3.09
318.159	1.8
318.371	3.01
318.583	1.54
318.794	2.09
319.006	3.11
319.218	3.32
319.43	2.47
319.641	0.28
319.853	1.45
320.064	4.55
320.276	7.4
320.488	8.56
320.699	11.1
320.911	11.28
321.123	10.99
321.334	9.8
321.546	8.34
321.757	6.41
321.969	7.53
322.18	6.75
322.392	6.06
322.603	5.79
322.815	5.24
323.026	3.18
323.238	4.44
323.449	2.16
323.661	4.54
323.872	1.83
324.083	2.55
324.295	3.25
324.506	4.6
324.718	4.03
324.929	2.61
325.14	5.95
325.352	6.24
325.563	7.74
325.774	10.92
325.986	9.88
326.197	12.46
326.408	13.25
326.62	13.25
326.831	13.74
327.042	13.52
327.253	14.45
327.464	13.23
327.676	14.93
327.887	13.64
328.098	12.73
328.309	11.02
328.52	9.95
328.732	11.34
328.943	9.5
329.154	7.55
329.365	9
329.576	9.2
329.787	10.16
329.998	9.54
330.209	8.68
330.42	7.96
330.631	9.95
330.842	12.23
331.053	9.56
331.264	10.26
331.475	13.4
331.686	13.11
331.897	11.55
332.108	10.98
332.319	11.89
332.53	14.23
332.741	14.16
332.952	14.67
333.163	15.37
333.374	18.36
333.585	18.1
333.795	14.65
334.006	13.5
334.217	12.96
334.428	12.45
334.639	11.05
334.849	9.08
335.06	9.34
335.271	10.98
335.482	8.53
335.692	6.95
335.903	6.51
336.114	8.17
336.325	10.1
336.535	10.49
336.746	9.69
336.957	7.46
337.167	10.02
337.378	11.2
337.589	11.52
337.799	12.72
338.01	11.81
338.22	11.94
338.431	10.41
338.642	10.07
338.852	10.42
339.063	12.6
339.273	14.92
339.484	12.69
339.694	12.36
339.905	10.7
340.115	13.14
340.326	13.97
340.536	12.94
340.746	14.31
340.957	12.92
341.167	13.76
341.378	11.51
341.588	10.81
341.799	12.14
342.009	10.71
342.219	9.55
342.43	6.22
342.64	5.17
342.85	4.47
343.061	5.06
343.271	4.82
343.481	2.92
343.691	4.57
343.902	3.82
344.112	2.18
344.322	1.75
344.532	4.14
344.743	5.79
344.953	5.71
345.163	5.44
345.373	4.61
345.583	4.97
345.793	5.09
346.004	4.01
346.214	5.81
346.424	6.44
346.634	9.24
346.844	7.89
347.054	7.43
347.264	8.48
347.474	9.12
347.684	10.14
347.894	11.75
348.104	14.6
348.314	15.55
348.524	16.22
348.734	15.91
348.944	15.61
349.154	16.37
349.364	17.17
349.574	15.08
349.784	16.48
349.994	16.37
350.204	16.14
350.413	15.8
350.623	16.37
350.833	13.86
351.043	13.74
351.253	13.96
351.463	14.13
351.672	13.06
351.882	16.82
352.092	16.13
352.302	15.62
352.511	14.48
352.721	15.27
352.931	16.09
353.141	16.33
353.35	17.46
353.56	16.58
353.77	14.49
353.979	14.39
354.189	12
354.399	13
354.608	12.26
354.818	12.52
355.027	11.83
355.237	10.68
355.447	11.54
355.656	10.57
355.866	9.97
356.075	9.86
356.285	10.45
356.494	10.75
356.704	10.62
356.913	11.68
357.123	10.57
357.332	9.72
357.542	8.71
357.751	8.58
357.96	9.43
358.17	9.6
358.379	10.27
358.589	10.83
358.798	11
359.007	11.39
359.217	10.41
359.426	12.12
359.635	11.28
359.845	11.96
360.054	12.25
360.263	12.26
360.472	11.92
360.682	13.65
360.891	12.33
361.1	12.75
361.309	11.53
361.519	12.71
361.728	13.07
361.937	13.9
362.146	13.73
362.355	14.31
362.564	13.73
362.774	14.85
362.983	15.09
363.192	15.27
363.401	15.32
363.61	15.76
363.819	14.94
364.028	13.01
364.237	13.18
364.446	12.57
364.655	11.59
364.864	12.26
365.073	10.47
365.282	8.64
365.491	10.07
365.7	10.46
365.909	11.09
366.118	11.89
366.327	13.29
366.536	12.27
366.745	12.48
366.954	12.87
367.162	13.37
367.371	14.21
367.58	14.81
367.789	13.43
367.998	11.71
368.207	11.58
368.415	10.25
368.624	10.1
368.833	11.32
369.042	12.21
369.25	12.95
369.459	12.48
369.668	12.17
369.877	11.36
370.085	12.63
370.294	13.64
370.503	12.16
370.711	12.76
370.92	11.99
371.129	11.67
371.337	11.19
371.546	9.64
371.754	9.38
371.963	10.05
372.171	10.94
372.38	10.23
372.589	11.74
372.797	12.62
373.006	12.19
373.214	12.41
373.423	12.66
373.631	12.68
373.84	13.28
374.048	12.43
374.256	10.4
374.465	10.11
374.673	9.11
374.882	8.99
375.09	10.51
375.298	10.44
375.507	11.3
375.715	11.03
375.923	10.77
376.132	11.12
376.34	11.19
376.548	12.86
376.757	12.28
376.965	13.61
377.173	13.43
377.381	11.97
377.59	12.34
377.798	11.69
378.006	11.52
378.214	13.14
378.423	12.96
378.631	12.62
378.839	12.78
379.047	12.54
379.255	13.18
379.463	12.33
379.671	13.12
379.879	14.3
380.088	15.24
380.296	15.67
380.504	14.55
380.712	15.91
380.92	17.08
381.128	15.58
381.336	16.91
381.544	16.55
381.752	16.84
381.96	16.21
382.168	14.11
382.376	12.4
382.584	11.96
382.791	11.63
382.999	10.79
383.207	9.93
383.415	11.6
383.623	10.75
383.831	10.18
384.039	9.3
384.247	9.42
384.454	11.29
384.662	12.16
384.87	12.57
385.078	12.37
385.285	12.36
385.493	13.67
385.701	12.4
385.909	11.89
386.116	11.23
386.324	11.13
386.532	11.41
386.739	10.84
386.947	11.64
387.155	10.23
387.362	11.03
387.57	11.43
387.778	10.64
387.985	10.57
388.193	10.43
388.4	10.42
388.608	10.53
388.816	10.64
389.023	11.17
389.231	11.16
389.438	12.28
389.646	13.28
389.853	12.63
390.061	12.2
390.268	12.91
390.475	13.19
390.683	12.83
390.89	13.28
391.098	13.67
391.305	13.88
391.512	12.99
391.72	13.24
391.927	11.77
392.135	12
392.342	12.84
392.549	12.37
392.756	13.71
392.964	14.65
393.171	14.85
393.378	14.77
393.586	13.38
393.793	13.8
394	13.67
394.207	14.51
394.414	14.29
394.622	13.5
394.829	13.67
395.036	12.01
395.243	11.5
395.45	10.86
395.657	10.37
395.864	11.63
396.072	10.15
396.279	9.54
396.486	8.89
396.693	8.73
396.9	9.22
397.107	9.84
397.314	10.09
397.521	10.52
397.728	10.91
397.935	10.49
398.142	9.53
398.349	10.79
398.556	11.22
398.763	10.87
398.97	11.06
399.177	12.53
399.383	13.69
399.59	14.43
399.797	14.36
400.004	15.05
400.211	15.13
400.418	15.12
400.625	15.98
400.831	16.25
401.038	17.03
401.245	17.24
401.452	15.74
401.658	14.33
401.865	14.04
402.072	14.43
402.279	13.31
402.485	12.88
402.692	13.36
402.899	12.06
403.105	10.83
403.312	11.03
403.519	10.26
403.725	9.8
403.932	9.91
404.138	9.21
404.345	8.51
404.552	9.41
404.758	10.48
404.965	10.63
405.171	11.21
405.378	11.43
405.584	10.39
405.791	11.8
405.997	11.97
406.204	13.04
406.41	14.06
406.617	14.19
406.823	13.77
407.029	12.87
407.236	13.26
407.442	13.91
407.649	14.42
407.855	15.19
408.061	14.31
408.268	15.13
408.474	14.07
408.68	13.7
408.887	13.57
409.093	13.99
409.299	15.08
409.505	14.37
409.712	13.43
409.918	12.84
410.124	13.11
410.33	13.28
410.537	12.57
410.743	13.76
410.949	12.96
411.155	13.55
411.361	12.57
411.567	12.01
411.773	11.07
411.98	10.6
412.186	11.36
412.392	10.54
412.598	9.89
412.804	9.88
413.01	8.27
413.216	8.89
413.422	8.68
413.628	9.66
413.834	9.19
414.04	9.89
414.246	10.36
414.452	10.62
414.658	11.43
414.864	11.82
415.07	12.34
415.275	12.86
415.481	13.13
415.687	12.78
415.893	12.23
416.099	12.22
416.305	12.35
416.511	12.54
416.716	12.12
416.922	12.35
417.128	12.42
417.334	12.7
417.539	12.27
417.745	12.5
417.951	12.56
418.157	12.82
418.362	12.35
418.568	12.64
418.774	12.57
418.979	12.54
419.185	12.1
419.391	12.02
419.596	11.73
419.802	12.11
420.008	12.12
420.213	7.5
420.419	7.57
420.624	8.39
420.83	8.11
421.035	7.9
421.241	8.69
421.446	8.49
421.652	8.56
421.857	8.23
422.063	8.36
422.268	8.29
422.474	12.59
422.679	12.94
422.885	12.85
423.09	12.92
423.295	13.33
423.501	12.46
423.706	12.65
423.911	12.69
424.117	12.79
424.322	12.71
424.527	12.75
424.733	13
424.938	12.67
425.143	12.97
425.349	12.57
425.554	12.14
425.759	12.78
425.964	12.62
426.169	12.63
426.375	12.62
426.58	12.37
426.785	11.93
426.99	12.41
427.195	12.33
427.4	11.26
427.605	11.29
427.811	11.63
428.016	10.99
428.221	11.06
428.426	10.95
428.631	10.8
428.836	10.57
429.041	11
429.246	10.11
429.451	10.08
429.656	9.84
429.861	10.06
430.066	9.43
430.271	9.7
430.476	10.22
430.681	10.5
430.886	11.25
431.09	11.73
431.295	11.54
431.5	12.3
431.705	12.13
431.91	13.4
432.115	13.3
432.32	13.72
432.524	13.82
432.729	13.62
432.934	13.23
433.139	12.83
433.343	12.51
433.548	12.84
433.753	12.38
433.958	13.08
434.162	12.79
434.367	13.36
434.572	13.61
434.776	13.78
434.981	14.11
435.186	14.53
435.39	14.52
435.595	14.5
435.799	13.6
436.004	13.19
436.209	12.28
436.413	11.29
436.618	11.46
436.822	11.53
437.027	11.3
437.231	11.57
437.436	11.74
437.64	11.8
437.845	11.98
438.049	12.42
438.253	12.92
438.458	13.32
438.662	14.06
438.867	13.46
439.071	13.41
439.275	13.69
439.48	13.5
439.684	13.26
439.888	13.5
440.093	13.47
440.297	13.43
440.501	13.04
440.706	12.83
440.91	12.7
441.114	12.71
441.318	12.08
441.523	12.21
441.727	11.65
441.931	11.46
442.135	11.36
442.339	10.69
442.543	10.73
442.748	10.74
442.952	10.35
443.156	10.26
443.36	10.96
443.564	11.62
443.768	11.37
443.972	11.33
444.176	11.29
444.38	10.89
444.584	11.53
444.788	11.96
444.992	12.4
445.196	13.24
445.4	13.16
445.604	12.87
445.808	12.55
446.012	12.58
446.216	12.65
446.42	12.75
446.624	13.11
446.828	13.31
447.032	13.09
447.235	12.96
447.439	12.55
447.643	12.73
447.847	13.2
448.051	13.26
448.254	13.27
448.458	13.22
448.662	13.25
448.866	13.14
449.069	12.38
449.273	12.12
449.477	12.58
449.681	12.53
449.884	12.68
450.088	11.55
450.292	11.84
450.495	11.66
450.699	11.59
450.902	11.76
451.106	12.07
451.31	13.02
451.513	13.14
451.717	13.04
451.92	13.1
452.124	12.72
452.327	12.96
452.531	13.05
452.734	12.93
452.938	12.88
453.141	12.36
453.345	12.54
453.548	12.52
453.752	12.61
453.955	12.01
454.158	12.46
454.362	12.64
454.565	12.83
454.769	12.71
454.972	12.48
455.175	12.83
455.379	12.54
455.582	12.29
455.785	12.36
455.988	12.57
456.192	12.89
456.395	12.53
456.598	12.3
456.801	11.94
457.005	12.11
