Data from JASIL_3202_Reflection_02.txt Node
Date: Fri Nov 13 14:27:37 EST 2015
User: Geneva
Spectrometer: USB4E03002
Autoset integration time: false
Trigger mode: 4
Integration Time (sec): 1.000000E-1
Scans to average: 10
Electric dark correction enabled: false
Nonlinearity correction enabled: false
Boxcar width: 5
Stray light correction enabled: false
XAxis mode: Wavelengths
Stop averaging: false
Number of Pixels in Spectrum: 3648
>>>>>Begin Spectral Data<<<<<
177.575	84.26
177.794	86.03
178.014	89.11
178.233	84.29
178.452	86.59
178.672	88.35
178.891	100.04
179.11	103.43
179.33	111.28
179.549	103.33
179.768	97.86
179.987	96.97
180.207	95.04
180.426	97.15
180.645	98.72
180.864	102.07
181.084	98.89
181.303	91.61
181.522	95.88
181.741	91.18
181.96	91.91
182.179	92.16
182.398	94.26
182.618	97.87
182.837	97.79
183.056	104.4
183.275	98.28
183.494	100.77
183.713	99.73
183.932	96.51
184.151	95.78
184.37	99.31
184.589	103.83
184.808	106.18
185.027	107.53
185.246	102.76
185.465	97.26
185.684	102.26
185.903	101.67
186.122	100.17
186.341	95.12
186.56	95.7
186.779	90.27
186.998	87.61
187.216	89.08
187.435	85.57
187.654	85.17
187.873	85.27
188.092	80.21
188.311	78.9
188.53	80.07
188.748	79.63
188.967	80.18
189.186	82.89
189.405	84.01
189.623	85.95
189.842	84.72
190.061	86.18
190.28	87.35
190.498	93.22
190.717	94.98
190.936	93.06
191.154	96.51
191.373	97.44
191.592	103.7
191.81	102.97
192.029	94.37
192.248	94.9
192.466	97.25
192.685	96.92
192.904	95.44
193.122	96.48
193.341	98.87
193.559	101.84
193.778	104.12
193.996	96.75
194.215	97.92
194.433	105.91
194.652	107.34
194.87	100.35
195.089	97.89
195.307	97.38
195.526	98.89
195.744	97.88
195.963	92.07
196.181	88.66
196.399	92.93
196.618	93.15
196.836	88.61
197.055	83.77
197.273	86.49
197.491	88.52
197.71	88.65
197.928	86.01
198.146	83.34
198.365	86.75
198.583	91.2
198.801	84.24
199.019	81.51
199.238	84.78
199.456	89.47
199.674	90.96
199.892	87.84
200.111	87.86
200.329	89.71
200.547	95.54
200.765	93.23
200.983	87.76
201.202	92.03
201.42	98.27
201.638	100.58
201.856	99.41
202.074	95.64
202.292	97.98
202.51	95.97
202.728	95
202.946	92.64
203.165	91.34
203.383	91.39
203.601	91.43
203.819	89
204.037	84.12
204.255	86.64
204.473	89.65
204.691	88.42
204.909	91.22
205.127	89.65
205.345	94.09
205.562	100.11
205.78	101.76
205.998	110.84
206.216	118.63
206.434	115.61
206.652	115.9
206.87	108.28
207.088	106.18
207.306	105.39
207.523	106.02
207.741	102.01
207.959	94.83
208.177	87.78
208.395	82.56
208.612	81.53
208.83	82.82
209.048	82.74
209.266	88.81
209.483	86.91
209.701	82.67
209.919	83.26
210.136	84.28
210.354	93.96
210.572	99.03
210.79	100.46
211.007	100.14
211.225	101.74
211.442	99.02
211.66	93.37
211.878	99.88
212.095	101.55
212.313	100.71
212.53	97.54
212.748	95.44
212.966	98.37
213.183	96.29
213.401	93.9
213.618	95.61
213.836	99.8
214.053	103.7
214.271	101.73
214.488	107.34
214.705	106.2
214.923	106.37
215.14	107.42
215.358	104.12
215.575	107.08
215.793	112.06
216.01	115.56
216.227	108.16
216.445	99.44
216.662	104.29
216.879	98.87
217.097	99.32
217.314	104.17
217.531	103.89
217.749	101.87
217.966	103.03
218.183	102.63
218.4	100.52
218.618	97.65
218.835	101.91
219.052	98.24
219.269	104.99
219.487	104.55
219.704	104.24
219.921	101.58
220.138	102.66
220.355	95.5
220.572	91.18
220.79	88.53
221.007	86.33
221.224	90.6
221.441	85.89
221.658	80.49
221.875	80.51
222.092	78.19
222.309	79.04
222.526	85.31
222.743	90.17
222.96	90.11
223.177	88.92
223.394	91.19
223.611	86
223.828	91.58
224.045	93.28
224.262	91.45
224.479	91.76
224.696	89.9
224.913	84.55
225.13	84.27
225.347	83.2
225.564	79.86
225.781	78.84
225.997	77.4
226.214	76.97
226.431	76.07
226.648	71.11
226.865	69.47
227.082	69.3
227.298	67.73
227.515	64.15
227.732	61.67
227.949	62.44
228.165	62.1
228.382	63.02
228.599	59.71
228.816	58.67
229.032	57.01
229.249	54.75
229.466	54.04
229.682	52.96
229.899	54.32
230.116	55.62
230.332	54.57
230.549	56.24
230.765	57.76
230.982	59.5
231.199	59.84
231.415	66.18
231.632	68.17
231.848	70.37
232.065	74.05
232.281	73.97
232.498	72.21
232.714	69.76
232.931	67.9
233.147	67.12
233.364	67.31
233.58	69.14
233.797	64.63
234.013	67.22
234.23	68.71
234.446	63.32
234.662	65.63
234.879	68.86
235.095	74.29
235.312	76.49
235.528	75.28
235.744	79.26
235.961	78.48
236.177	81.17
236.393	81.38
236.61	80.02
236.826	82.17
237.042	82.5
237.258	82.52
237.475	81.51
237.691	76.57
237.907	78.15
238.123	74.27
238.339	73.66
238.556	77.52
238.772	72.77
238.988	70.26
239.204	70.39
239.42	68.58
239.636	64.76
239.853	62.73
240.069	64.22
240.285	62.11
240.501	60.08
240.717	59.63
240.933	55.88
241.149	53.24
241.365	49.55
241.581	49.5
241.797	49.32
242.013	49.59
242.229	52.27
242.445	54.26
242.661	55.31
242.877	55.7
243.093	57.12
243.309	56.58
243.525	58.41
243.741	59.93
243.957	59.5
244.173	57.84
244.388	56.76
244.604	51.5
244.82	50.44
245.036	44.98
245.252	43.52
245.468	39.26
245.683	37.89
245.899	35.87
246.115	35.36
246.331	32.63
246.547	30.59
246.762	31.58
246.978	32.6
247.194	32.81
247.409	34.48
247.625	34.9
247.841	34.06
248.057	35.82
248.272	36.76
248.488	39.68
248.703	42.77
248.919	46.9
249.135	45.53
249.35	47.28
249.566	46
249.782	47.77
249.997	49.29
250.213	53
250.428	53.37
250.644	54.98
250.859	53.33
251.075	51.18
251.29	50.16
251.506	50.63
251.721	50.12
251.937	50.57
252.152	50.7
252.368	50.45
252.583	49.54
252.798	50.59
253.014	50.47
253.229	50.41
253.445	52.18
253.66	51.32
253.875	52.89
254.091	54.51
254.306	55.15
254.521	54.96
254.737	54.87
254.952	53.89
255.167	54.81
255.383	55.63
255.598	58.56
255.813	61.55
256.028	62.95
256.244	62.65
256.459	60.48
256.674	61.79
256.889	58.23
257.104	55.46
257.32	54.79
257.535	49.59
257.75	44.94
257.965	42.26
258.18	38.16
258.395	37.4
258.61	34.26
258.826	33.51
259.041	30.74
259.256	29.81
259.471	31.07
259.686	31.41
259.901	33.16
260.116	34.97
260.331	34.38
260.546	36.97
260.761	37.35
260.976	40.99
261.191	42.51
261.406	43.63
261.621	46.31
261.836	47.72
262.05	49.9
262.265	51.89
262.48	52.26
262.695	53.29
262.91	53.76
263.125	54.96
263.34	54.29
263.555	52.25
263.769	53.09
263.984	52.72
264.199	49.13
264.414	48.01
264.629	44.79
264.843	44.45
265.058	45.2
265.273	43.66
265.488	40.91
265.702	40.16
265.917	41.64
266.132	42.39
266.346	42.24
266.561	44.17
266.776	42.58
266.99	44.23
267.205	43.69
267.42	41.76
267.634	41.14
267.849	43.59
268.063	42.98
268.278	42.09
268.492	40.32
268.707	41.39
268.922	39.4
269.136	39.95
269.351	39.2
269.565	39.94
269.78	39.54
269.994	37.48
270.209	36.38
270.423	35.58
270.637	34.64
270.852	35.46
271.066	35.11
271.281	35.45
271.495	34.55
271.709	34.25
271.924	33.4
272.138	35.68
272.353	36.57
272.567	36.52
272.781	37.92
272.996	40.18
273.21	39.32
273.424	38.52
273.638	38.79
273.853	38.87
274.067	37.1
274.281	37.78
274.495	38.03
274.71	38.19
274.924	39.12
275.138	40.18
275.352	39.99
275.566	41.17
275.781	41.91
275.995	41.74
276.209	43.88
276.423	44.41
276.637	43.65
276.851	41.68
277.065	42.05
277.279	40.58
277.493	39.41
277.707	37.79
277.921	36.39
278.135	35.79
278.349	35.37
278.563	33.04
278.777	32.94
278.991	32.76
279.205	33.27
279.419	32.3
279.633	31.9
279.847	31.28
280.061	31.78
280.275	32.08
280.489	32.66
280.703	31.9
280.917	33.8
281.131	34.19
281.344	34.74
281.558	33.86
281.772	34.04
281.986	33.42
282.2	34.35
282.414	33.05
282.627	32.65
282.841	32.45
283.055	32.78
283.269	32.66
283.482	32.24
283.696	30.94
283.91	31.88
284.123	31.12
284.337	31.53
284.551	29.32
284.764	30.14
284.978	29.62
285.192	30.63
285.405	30.53
285.619	28.71
285.833	29.85
286.046	30.04
286.26	27.91
286.473	28.95
286.687	30.29
286.9	31.2
287.114	30.69
287.327	32.21
287.541	32.06
287.754	32.08
287.968	34.5
288.181	33.55
288.395	33.55
288.608	36.08
288.822	35.31
289.035	34.23
289.248	34.62
289.462	34.56
289.675	34.02
289.889	33.42
290.102	33.1
290.315	31.56
290.529	31.72
290.742	31.42
290.955	31.42
291.169	32.57
291.382	33.54
291.595	33.81
291.808	34.17
292.022	34.71
292.235	32.42
292.448	33.07
292.661	33.6
292.875	33.96
293.088	34.45
293.301	34.11
293.514	33.66
293.727	32.4
293.94	32.25
294.153	32.49
294.367	31.62
294.58	33.04
294.793	32.99
295.006	32.91
295.219	32.39
295.432	31.56
295.645	30.33
295.858	28.73
296.071	28.74
296.284	27.12
296.497	26.3
296.71	25.62
296.923	25.97
297.136	24.18
297.349	22.77
297.562	23.17
297.775	23.47
297.988	24.49
298.201	25.12
298.414	24.1
298.626	26.03
298.839	25.17
299.052	25.28
299.265	25.91
299.478	27.79
299.691	29.12
299.903	29.01
300.116	29.13
300.329	29.94
300.542	30.68
300.755	32.17
300.967	31.38
301.18	33.35
301.393	33.59
301.605	31.03
301.818	32.07
302.031	32.39
302.243	32.45
302.456	34.21
302.669	33.51
302.881	34.21
303.094	33.81
303.307	35.3
303.519	35.16
303.732	36.98
303.944	39.15
304.157	39.7
304.37	38.9
304.582	39.44
304.795	39.26
305.007	39.9
305.22	39.7
305.432	40.81
305.645	39.18
305.857	39.77
306.069	37.33
306.282	35.78
306.494	34.94
306.707	34.51
306.919	32.98
307.132	31.78
307.344	30.94
307.556	30.47
307.769	30.55
307.981	30.91
308.193	29.05
308.406	29.94
308.618	30.69
308.83	30.56
309.043	31.43
309.255	31.96
309.467	31.61
309.679	31.21
309.892	30.96
310.104	30.03
310.316	29.94
310.528	31.43
310.74	30.75
310.953	31.51
311.165	31.5
311.377	30.28
311.589	29.99
311.801	30.3
312.013	32.25
312.225	31.64
312.437	32.93
312.649	33.48
312.862	32.59
313.074	32.75
313.286	32.02
313.498	32.28
313.71	34.14
313.922	34.34
314.134	36
314.346	33.52
314.558	35.6
314.77	36.83
314.982	36.6
315.193	38.2
315.405	38.68
315.617	38.39
315.829	38.56
316.041	38.42
316.253	38.84
316.465	38.65
316.677	39.35
316.888	39.52
317.1	37.72
317.312	39.09
317.524	38.12
317.736	39.01
317.947	41.85
318.159	42.55
318.371	41.63
318.583	42.02
318.794	41.03
319.006	40.81
319.218	40.85
319.43	42.18
319.641	42.95
319.853	43.5
320.064	43.49
320.276	42.25
320.488	41.18
320.699	42.49
320.911	41.72
321.123	43.91
321.334	45.58
321.546	44.47
321.757	43.83
321.969	42.77
322.18	41.58
322.392	41.68
322.603	41.89
322.815	42.89
323.026	42.47
323.238	43.01
323.449	41.79
323.661	39.71
323.872	39.43
324.083	37.64
324.295	36.74
324.506	36.67
324.718	36.88
324.929	35.1
325.14	34.73
325.352	33
325.563	31.59
325.774	30.42
325.986	32.18
326.197	33.11
326.408	33.46
326.62	34.64
326.831	34.66
327.042	34.12
327.253	35.33
327.464	36.1
327.676	37.09
327.887	38.46
328.098	40.21
328.309	37.32
328.52	36.97
328.732	37.28
328.943	36.94
329.154	38.54
329.365	39.13
329.576	38.94
329.787	40.62
329.998	41.99
330.209	42.24
330.42	41.59
330.631	44.14
330.842	44.03
331.053	44.07
331.264	43.4
331.475	42.51
331.686	42.19
331.897	40.61
332.108	37.76
332.319	38.06
332.53	37.45
332.741	37.76
332.952	38.76
333.163	37.58
333.374	36.85
333.585	36.7
333.795	37.05
334.006	36.18
334.217	36.72
334.428	37.08
334.639	36.61
334.849	36.73
335.06	35.97
335.271	34.91
335.482	36.47
335.692	38.25
335.903	38.87
336.114	38.35
336.325	39.6
336.535	40.19
336.746	39.37
336.957	38.97
337.167	39.99
337.378	40.84
337.589	41.17
337.799	38.96
338.01	39.72
338.22	40.87
338.431	40.8
338.642	41.12
338.852	41.56
339.063	42.25
339.273	43.67
339.484	43.06
339.694	42.56
339.905	42.12
340.115	44.21
340.326	42.33
340.536	40.48
340.746	39.53
340.957	38.29
341.167	37.23
341.378	35.8
341.588	33.74
341.799	34.11
342.009	34.25
342.219	33.42
342.43	33.95
342.64	34.47
342.85	35.34
343.061	36.31
343.271	37.12
343.481	36.67
343.691	37.13
343.902	37.85
344.112	36.89
344.322	35.15
344.532	36.02
344.743	34.87
344.953	34.17
345.163	34.04
345.373	34.08
345.583	33.72
345.793	32.93
346.004	34.11
346.214	33.91
346.424	34.04
346.634	34.64
346.844	35.1
347.054	35.64
347.264	36.74
347.474	34.72
347.684	34.22
347.894	33.43
348.104	35.68
348.314	35.39
348.524	33
348.734	33.4
348.944	32.51
349.154	30.19
349.364	29.57
349.574	27.7
349.784	30.51
349.994	31.42
350.204	32.45
350.413	31.32
350.623	31.82
350.833	32.95
351.043	32.56
351.253	33.07
351.463	35.36
351.672	35.98
351.882	37.56
352.092	36.16
352.302	35.46
352.511	34.54
352.721	34.24
352.931	32.56
353.141	33.55
353.35	32.79
353.56	33.18
353.77	33.47
353.979	33.23
354.189	32.56
354.399	32.18
354.608	33.16
354.818	34.27
355.027	34.52
355.237	35.89
355.447	36.03
355.656	35.33
355.866	34.72
356.075	33.56
356.285	33.35
356.494	33.71
356.704	34.39
356.913	33.47
357.123	32.66
357.332	31.98
357.542	30.71
357.751	30.43
357.96	31.43
358.17	31.41
358.379	32
358.589	32.34
358.798	30.95
359.007	30
359.217	30.24
359.426	29.98
359.635	30.02
359.845	29.96
360.054	29.43
360.263	28.77
360.472	28.96
360.682	28.77
360.891	27.54
361.1	27.58
361.309	28.6
361.519	27.83
361.728	27.58
361.937	28.58
362.146	29.29
362.355	29.5
362.564	30.55
362.774	30.62
362.983	29.45
363.192	30.59
363.401	31.83
363.61	30.57
363.819	30.57
364.028	30.39
364.237	29.94
364.446	29.84
364.655	29.67
364.864	30.09
365.073	30.45
365.282	31.71
365.491	31.62
365.7	30.42
365.909	30.44
366.118	31.07
366.327	31.26
366.536	31.34
366.745	31.18
366.954	31.47
367.162	30.87
367.371	30.91
367.58	31.34
367.789	30.96
367.998	32.33
368.207	33.29
368.415	33.24
368.624	33.61
368.833	33.78
369.042	34.41
369.25	33.47
369.459	33.32
369.668	33.26
369.877	33.28
370.085	34.54
370.294	33.02
370.503	32.98
370.711	31.96
370.92	32.43
371.129	31.9
371.337	30.81
371.546	31.89
371.754	31.73
371.963	31.43
372.171	30.41
372.38	29.08
372.589	28.94
372.797	27.34
373.006	28.58
373.214	27.8
373.423	27.24
373.631	28.11
373.84	27.76
374.048	28.09
374.256	27.83
374.465	28.67
374.673	28.3
374.882	29.4
375.09	29.43
375.298	29.59
375.507	29.42
375.715	30.47
375.923	28.87
376.132	28.54
376.34	27.89
376.548	28.54
376.757	27.84
376.965	28.44
377.173	27.74
377.381	28.54
377.59	28.74
377.798	29.29
378.006	28.3
378.214	29.59
378.423	30.15
378.631	30.09
378.839	29.88
379.047	30.04
379.255	29.66
379.463	30.12
379.671	29.63
379.879	28.9
380.088	28.8
380.296	29.31
380.504	30.14
380.712	29.52
380.92	30.08
381.128	30.47
381.336	30.36
381.544	31.02
381.752	30.88
381.96	31.35
382.168	32.63
382.376	31.63
382.584	31.21
382.791	30.45
382.999	30.28
383.207	29.93
383.415	30.01
383.623	30.45
383.831	30.67
384.039	31.2
384.247	31.08
384.454	30.34
384.662	30.89
384.87	30.69
385.078	29.64
385.285	30.13
385.493	29.85
385.701	29.24
385.909	28.24
386.116	27.97
386.324	28.23
386.532	28.41
386.739	28.03
386.947	28.03
387.155	29.12
387.362	30.6
387.57	29.54
387.778	29.3
387.985	28.5
388.193	29.81
388.4	29.72
388.608	29.7
388.816	29.34
389.023	29.02
389.231	28.08
389.438	26.77
389.646	26.65
389.853	27.51
390.061	27.01
390.268	27.12
390.475	25.95
390.683	25.89
390.89	24.99
391.098	24.98
391.305	25.56
391.512	26.72
391.72	27.54
391.927	27.68
392.135	27.42
392.342	27.92
392.549	29.55
392.756	29.6
392.964	29.44
393.171	29.87
393.378	30.17
393.586	29.2
393.793	28.85
394	28.47
394.207	27.32
394.414	27.71
394.622	28.36
394.829	27.33
395.036	27.45
395.243	27.76
395.45	27.97
395.657	27.79
395.864	28.58
396.072	29.39
396.279	29.47
396.486	29.87
396.693	29.85
396.9	29.94
397.107	28.83
397.314	29.74
397.521	29.88
397.728	28.48
397.935	29.32
398.142	29.34
398.349	29.19
398.556	29.1
398.763	29.78
398.97	30.71
399.177	30.63
399.383	31.5
399.59	31.27
399.797	31.61
400.004	33.33
400.211	33.75
400.418	33.77
400.625	33.41
400.831	33.91
401.038	33.72
401.245	32.39
401.452	32.23
401.658	31.93
401.865	31.08
402.072	30.88
402.279	30.47
402.485	28.31
402.692	28.73
402.899	29.12
403.105	28.67
403.312	29.79
403.519	30.66
403.725	29.57
403.932	29.81
404.138	29.89
404.345	29.62
404.552	29.46
404.758	30.48
404.965	30.16
405.171	29.83
405.378	30.3
405.584	29.33
405.791	28.51
405.997	30.04
406.204	30.5
406.41	30.88
406.617	30.33
406.823	30.99
407.029	31.52
407.236	30.7
407.442	31.2
407.649	30.86
407.855	31.05
408.061	30.49
408.268	30.41
408.474	31.19
408.68	31.15
408.887	31.32
409.093	30.5
409.299	29.89
409.505	30.96
409.712	31.13
409.918	30.62
410.124	30.62
410.33	31.71
410.537	31.27
410.743	31.35
410.949	31.97
411.155	32.7
411.361	32.83
411.567	32.74
411.773	32.07
411.98	31.38
412.186	32.04
412.392	32.38
412.598	31.82
412.804	32.54
413.01	32.5
413.216	32.36
413.422	32.51
413.628	32.23
413.834	32.53
414.04	33.31
414.246	34.37
414.452	34.4
414.658	33.73
414.864	34.22
415.07	33.81
415.275	33.33
415.481	33.02
415.687	32.34
415.893	32.11
416.099	31.91
416.305	31.42
416.511	30.51
416.716	29.62
416.922	29.77
417.128	29.7
417.334	29.21
417.539	28.65
417.745	28.51
417.951	27.87
418.157	28.04
418.362	28.03
418.568	27.76
418.774	27.75
418.979	28.07
419.185	27.54
419.391	27.21
419.596	27.32
419.802	27.19
420.008	26.95
420.213	27.96
420.419	27.77
420.624	27.81
420.83	28.23
421.035	28.14
421.241	28.28
421.446	28.39
421.652	28.68
421.857	28.25
422.063	28.83
422.268	28.81
422.474	28.38
422.679	28.45
422.885	28.51
423.09	27.99
423.295	28.18
423.501	28.25
423.706	28.46
423.911	27.52
424.117	28.02
424.322	28.11
424.527	28.57
424.733	28.56
424.938	28.18
425.143	28.03
425.349	28.25
425.554	27.83
425.759	28.35
425.964	28.19
426.169	29.67
426.375	29.84
426.58	29.43
426.785	29.53
426.99	29.47
427.195	30.17
427.4	30.59
427.605	30.73
427.811	31.64
428.016	30.6
428.221	31.53
428.426	30.58
428.631	30.44
428.836	30.7
429.041	30.23
429.246	30.1
429.451	30.98
429.656	31.17
429.861	31.73
430.066	31.87
430.271	32.57
430.476	32.32
430.681	33.13
430.886	32.62
431.09	32.22
431.295	32.31
431.5	32.33
431.705	31.65
431.91	31.27
432.115	30.9
432.32	30.43
432.524	30.15
432.729	29.92
432.934	30.26
433.139	30.65
433.343	30.52
433.548	30.63
433.753	31
433.958	31.53
434.162	31.37
434.367	31.32
434.572	31.14
434.776	31.46
434.981	31.08
435.186	29.81
435.39	30.07
435.595	30.63
435.799	31.12
436.004	30.94
436.209	30.89
436.413	30.91
436.618	30.72
436.822	31.24
437.027	30.73
437.231	30.79
437.436	30.9
437.64	30.37
437.845	29.89
438.049	29.42
438.253	29.73
438.458	29.55
438.662	29.37
438.867	28.99
439.071	28.74
439.275	28.58
439.48	28.69
439.684	28.81
439.888	29.17
440.093	29.17
440.297	28.85
440.501	28.93
440.706	29.04
440.91	29.38
441.114	29.58
441.318	29.54
441.523	29.94
441.727	29.99
441.931	30.56
442.135	30.01
442.339	30.05
442.543	31.05
442.748	30.68
442.952	30.26
443.156	30.36
443.36	30.81
443.564	30.93
443.768	30.45
443.972	30.96
444.176	30.03
444.38	30.66
444.584	30.19
444.788	28.98
444.992	28.89
445.196	28.86
445.4	28.73
445.604	28.01
445.808	28.02
446.012	28.05
446.216	27.35
446.42	27.87
446.624	27.6
446.828	28.18
447.032	28.59
447.235	28.68
447.439	28.6
447.643	28.58
447.847	29.24
448.051	29.57
448.254	30.11
448.458	30.87
448.662	31.14
448.866	30.87
449.069	31.09
449.273	31.43
449.477	31.34
449.681	31.64
449.884	31.59
450.088	31.83
450.292	31.37
450.495	31.02
450.699	31.12
450.902	30.98
451.106	30.83
451.31	30.82
451.513	31.03
451.717	30.82
451.92	30.76
452.124	30.85
452.327	30.86
452.531	30.62
452.734	31.04
452.938	30.37
453.141	30.68
453.345	31.27
453.548	31
453.752	30.94
453.955	31.48
454.158	31.82
454.362	31.86
454.565	31.56
454.769	32.14
454.972	31.87
455.175	32.38
455.379	31.68
455.582	32.12
455.785	31.68
