Data from JASIL_2912_Reflection_2.txt Node
Date: Sat Nov 07 20:32:47 EST 2015
User: Geneva
Spectrometer: USB4E03002
Autoset integration time: false
Trigger mode: 4
Integration Time (sec): 1.000000E-1
Scans to average: 10
Electric dark correction enabled: true
Nonlinearity correction enabled: false
Boxcar width: 5
Stray light correction enabled: false
XAxis mode: Wavelengths
Stop averaging: false
Number of Pixels in Spectrum: 3648
>>>>>Begin Spectral Data<<<<<
177.575	142.3
177.794	184.39
178.014	124
178.233	129.47
178.452	135.42
178.672	203.5
178.891	-795.35
179.11	201.69
179.33	130.41
179.549	142.67
179.768	114.29
179.987	94.06
180.207	106.72
180.426	87.69
180.645	106.12
180.864	100.22
181.084	107.18
181.303	90.78
181.522	103.17
181.741	119.15
181.96	108.97
182.179	116.59
182.398	141.31
182.618	135.46
182.837	129.58
183.056	100.13
183.275	106.02
183.494	89.89
183.713	92.3
183.932	92.15
184.151	89.13
184.37	102.15
184.589	107.8
184.808	91.94
185.027	85.29
185.246	92.63
185.465	102.66
185.684	96.73
185.903	111.82
186.122	115.9
186.341	107.29
186.56	100.49
186.779	105.1
186.998	101.32
187.216	97.67
187.435	100.79
187.654	97.23
187.873	100.72
188.092	116.79
188.311	93.53
188.53	87.79
188.748	77.06
188.967	80.58
189.186	79.34
189.405	77.27
189.623	84.93
189.842	98.48
190.061	102.43
190.28	89.57
190.498	81.94
190.717	89.05
190.936	93.81
191.154	96.1
191.373	96.09
191.592	88.38
191.81	90.13
192.029	82.08
192.248	68.06
192.466	61.77
192.685	67.05
192.904	66.17
193.122	65.88
193.341	68.97
193.559	71.46
193.778	70.12
193.996	71.59
194.215	71.17
194.433	78.54
194.652	76.64
194.87	78.72
195.089	81.18
195.307	85.11
195.526	87.05
195.744	85.52
195.963	87.76
196.181	89.01
196.399	89.54
196.618	92.15
196.836	95.54
197.055	96.26
197.273	95.96
197.491	97.51
197.71	93.07
197.928	93.19
198.146	96.83
198.365	91.96
198.583	83.14
198.801	81.41
199.019	70.37
199.238	66.33
199.456	60.19
199.674	69.34
199.892	64.41
200.111	71.62
200.329	77.72
200.547	60.93
200.765	73.2
200.983	79.9
201.202	88.25
201.42	102.74
201.638	101.82
201.856	99.27
202.074	86.29
202.292	80.77
202.51	78.65
202.728	87.31
202.946	102.21
203.165	91.23
203.383	93.34
203.601	87.37
203.819	76.7
204.037	68.53
204.255	69.54
204.473	70.22
204.691	73.66
204.909	66.65
205.127	58.83
205.345	55.23
205.562	65.45
205.78	61.99
205.998	63.85
206.216	72.61
206.434	75.98
206.652	80.44
206.87	75.71
207.088	76.56
207.306	78.08
207.523	77.91
207.741	74.28
207.959	76.42
208.177	72.44
208.395	66.47
208.612	62.31
208.83	62.94
209.048	59.1
209.266	60.02
209.483	55.41
209.701	57.33
209.919	58.68
210.136	55.92
210.354	56.46
210.572	64.83
210.79	68.59
211.007	68.52
211.225	64.59
211.442	65
211.66	69.64
211.878	70.84
212.095	112.65
212.313	103.14
212.53	107.44
212.748	102.66
212.966	95.22
213.183	94.42
213.401	94.9
213.618	95.62
213.836	97.16
214.053	96.81
214.271	92.95
214.488	54.92
214.705	55.14
214.923	55.33
215.14	52.04
215.358	51.49
215.575	51.82
215.793	55.16
216.01	59.5
216.227	55.32
216.445	58.94
216.662	63.17
216.879	72.42
217.097	77.49
217.314	74.1
217.531	74.82
217.749	74.44
217.966	72.28
218.183	69.25
218.4	57.21
218.618	61.13
218.835	53.12
219.052	49.74
219.269	44.82
219.487	47.5
219.704	44.99
219.921	42.88
220.138	42.61
220.355	40.53
220.572	39.09
220.79	45.51
221.007	43.63
221.224	41.84
221.441	42.13
221.658	42.97
221.875	38.41
222.092	40.08
222.309	39.18
222.526	40.51
222.743	44.05
222.96	44.71
223.177	40.64
223.394	40.91
223.611	44.02
223.828	42.49
224.045	39
224.262	39.36
224.479	35.54
224.696	36.34
224.913	33.84
225.13	31.64
225.347	30.9
225.564	30.29
225.781	28.3
225.997	26.38
226.214	24.92
226.431	23.51
226.648	22
226.865	22.2
227.082	21.51
227.298	21.2
227.515	20.83
227.732	20.58
227.949	20.4
228.165	19.55
228.382	19.07
228.599	18.63
228.816	18.96
229.032	19.06
229.249	18.66
229.466	18.84
229.682	19.2
229.899	19.48
230.116	18.99
230.332	18.64
230.549	19.72
230.765	20.73
230.982	21.63
231.199	21.9
231.415	22.04
231.632	22.12
231.848	22.06
232.065	20.77
232.281	20.46
232.498	20.56
232.714	21.05
232.931	21.65
233.147	21.58
233.364	20.59
233.58	20.29
233.797	20.76
234.013	21.36
234.23	21.07
234.446	20.19
234.662	20.18
234.879	21.32
235.095	21.05
235.312	20.66
235.528	21.06
235.744	22.1
235.961	21.83
236.177	20.15
236.393	20.39
236.61	20.76
236.826	22.26
237.042	21.42
237.258	19.9
237.475	20.63
237.691	20.53
237.907	19.77
238.123	19.49
238.339	18.6
238.556	19.84
238.772	19.28
238.988	18.71
239.204	18.46
239.42	18.65
239.636	18.67
239.853	17.94
240.069	17.9
240.285	17.59
240.501	17.03
240.717	17.56
240.933	17.21
241.149	16.31
241.365	16.16
241.581	16.1
241.797	15.92
242.013	15.69
242.229	15.92
242.445	15.38
242.661	15.26
242.877	15.58
243.093	15.25
243.309	14.75
243.525	15.38
243.741	15.71
243.957	15.71
244.173	15.4
244.388	15.26
244.604	14.49
244.82	14.29
245.036	13.98
245.252	13.87
245.468	13.73
245.683	13.83
245.899	13.67
246.115	13.58
246.331	13.16
246.547	12.94
246.762	13.02
246.978	13.13
247.194	13.06
247.409	13.15
247.625	13.2
247.841	13.07
248.057	13.21
248.272	13.03
248.488	12.62
248.703	12.92
248.919	13.54
249.135	13.58
249.35	13.72
249.566	13.89
249.782	13.93
249.997	13.48
250.213	13.29
250.428	12.79
250.644	13.56
250.859	13.88
251.075	14.01
251.29	13.12
251.506	12.61
251.721	12.32
251.937	12.59
252.152	12.59
252.368	12.85
252.583	13.25
252.798	13.86
253.014	13.66
253.229	13.01
253.445	12.77
253.66	13.99
253.875	14.24
254.091	14.7
254.306	14.13
254.521	13.81
254.737	13.53
254.952	13.39
255.167	12.92
255.383	12.69
255.598	13.06
255.813	12.5
256.028	12.32
256.244	12.62
256.459	12.33
256.674	11.95
256.889	11.52
257.104	11.3
257.32	11.26
257.535	11.16
257.75	10.71
257.965	10.57
258.18	10.64
258.395	10.42
258.61	10.35
258.826	10.2
259.041	10.36
259.256	10.41
259.471	10.35
259.686	10.1
259.901	10.11
260.116	10.31
260.331	10.15
260.546	10.17
260.761	10.02
260.976	9.99
261.191	10.04
261.406	10.01
261.621	10.27
261.836	10.3
262.05	10.39
262.265	10.15
262.48	9.9
262.695	10.19
262.91	10.4
263.125	10.77
263.34	10.86
263.555	11.31
263.769	11.33
263.984	11.42
264.199	11.55
264.414	11.62
264.629	11.57
264.843	11.91
265.058	12.06
265.273	11.67
265.488	11.39
265.702	11.36
265.917	11.17
266.132	10.95
266.346	10.61
266.561	10.37
266.776	10.54
266.99	10.54
267.205	10.44
267.42	10.31
267.634	10.32
267.849	10.42
268.063	10.38
268.278	10.44
268.492	10.44
268.707	10.28
268.922	10.4
269.136	10.19
269.351	9.89
269.565	9.86
269.78	9.64
269.994	9.52
270.209	9.41
270.423	9.37
270.637	9.1
270.852	9.12
271.066	9.21
271.281	9.19
271.495	9.14
271.709	9.53
271.924	9.39
272.138	9.64
272.353	9.69
272.567	9.59
272.781	9.33
272.996	9.57
273.21	9.67
273.424	9.59
273.638	9.42
273.853	9.57
274.067	9.31
274.281	9.31
274.495	9.27
274.71	9.34
274.924	9.43
275.138	9.69
275.352	9.45
275.566	9.52
275.781	9.65
275.995	9.91
276.209	10.1
276.423	9.92
276.637	9.94
276.851	9.84
277.065	9.62
277.279	9.56
277.493	9.33
277.707	9.45
277.921	9.24
278.135	9.03
278.349	8.65
278.563	8.23
278.777	8.67
278.991	8.82
279.205	8.69
279.419	8.87
279.633	9.16
279.847	9.48
280.061	9.33
280.275	9.07
280.489	9.25
280.703	9.2
280.917	9.29
281.131	9.01
281.344	8.96
281.558	8.85
281.772	8.85
281.986	8.5
282.2	8.38
282.414	8.36
282.627	8.61
282.841	8.7
283.055	8.95
283.269	9.08
283.482	9.11
283.696	8.93
283.91	9.01
284.123	8.89
284.337	9.05
284.551	8.98
284.764	9.01
284.978	8.76
285.192	8.61
285.405	8.52
285.619	8.33
285.833	8.42
286.046	8.39
286.26	8.49
286.473	8.45
286.687	8.37
286.9	8.49
287.114	8.55
287.327	8.82
287.541	8.69
287.754	8.68
287.968	8.97
288.181	8.9
288.395	8.91
288.608	8.98
288.822	8.97
289.035	8.79
289.248	8.68
289.462	8.68
289.675	8.63
289.889	8.66
290.102	8.58
290.315	8.51
290.529	8.46
290.742	8.54
290.955	8.5
291.169	8.59
291.382	8.84
291.595	8.99
291.808	8.91
292.022	8.87
292.235	9.22
292.448	9.35
292.661	9.06
292.875	9.02
293.088	8.82
293.301	8.75
293.514	8.76
293.727	8.67
293.94	8.53
294.153	8.46
294.367	8.53
294.58	8.17
294.793	8.1
295.006	8.36
295.219	8.52
295.432	8.52
295.645	8.5
295.858	8.38
296.071	8.29
296.284	8.23
296.497	8.18
296.71	8.12
296.923	8.35
297.136	8.31
297.349	8.23
297.562	8
297.775	8.06
297.988	8.16
298.201	8.25
298.414	8.51
298.626	8.43
298.839	8.49
299.052	8.65
299.265	8.56
299.478	8.48
299.691	8.5
299.903	8.69
300.116	8.79
300.329	8.61
300.542	8.65
300.755	8.61
300.967	8.64
301.18	8.66
301.393	8.38
301.605	8.44
301.818	8.67
302.031	8.8
302.243	8.77
302.456	8.89
302.669	8.98
302.881	9.27
303.094	9.25
303.307	9.22
303.519	9.3
303.732	9.5
303.944	9.3
304.157	9.5
304.37	9.29
304.582	9.16
304.795	8.85
305.007	8.96
305.22	8.8
305.432	8.81
305.645	8.87
305.857	8.94
306.069	8.65
306.282	8.73
306.494	8.7
306.707	8.64
306.919	8.77
307.132	8.63
307.344	8.22
307.556	8.21
307.769	8.33
307.981	8.51
308.193	8.37
308.406	8.53
308.618	8.56
308.83	8.25
309.043	8.32
309.255	8.47
309.467	8.68
309.679	9
309.892	8.89
310.104	8.74
310.316	8.6
310.528	8.78
310.74	8.82
310.953	8.98
311.165	9.25
311.377	9.11
311.589	9.07
311.801	9.24
312.013	9.28
312.225	9.48
312.437	9.77
312.649	9.95
312.862	9.61
313.074	9.42
313.286	9.43
313.498	9.42
313.71	9.93
313.922	9.87
314.134	9.9
314.346	9.9
314.558	9.86
314.77	9.77
314.982	9.92
315.193	10.12
315.405	10.45
315.617	10.31
315.829	10.15
316.041	10.12
316.253	10.21
316.465	10.04
316.677	10.15
316.888	10.22
317.1	10.14
317.312	10.23
317.524	10.45
317.736	10.62
317.947	10.98
318.159	11.31
318.371	10.97
318.583	11.04
318.794	11.16
319.006	11.07
319.218	11.26
319.43	11.37
319.641	11.57
319.853	11.78
320.064	12.1
320.276	12.07
320.488	12.33
320.699	12.74
320.911	13.3
321.123	13.84
321.334	14.3
321.546	14.74
321.757	15.3
321.969	15.33
322.18	15.62
322.392	15.79
322.603	16.08
322.815	16.38
323.026	16.7
323.238	16.72
323.449	16.98
323.661	17.33
323.872	17.6
324.083	18.01
324.295	18.55
324.506	19.08
324.718	19.62
324.929	20.08
325.14	20.72
325.352	21.4
325.563	21.92
325.774	22.35
325.986	22.86
326.197	23.46
326.408	23.84
326.62	24.07
326.831	24.37
327.042	24.71
327.253	25.2
327.464	25.41
327.676	25.7
327.887	26.19
328.098	26.6
328.309	27.01
328.52	27.3
328.732	27.8
328.943	28.47
329.154	28.84
329.365	29.42
329.576	29.75
329.787	30.04
329.998	30.39
330.209	30.54
330.42	30.73
330.631	30.96
330.842	31.1
331.053	30.97
331.264	31.25
331.475	31.47
331.686	31.17
331.897	31.27
332.108	31.4
332.319	31.43
332.53	31.61
332.741	31.7
332.952	31.66
333.163	31.65
333.374	31.9
333.585	31.86
333.795	31.85
334.006	32.11
334.217	32.17
334.428	32.17
334.639	32.29
334.849	32.07
335.06	32.15
335.271	32.06
335.482	32.08
335.692	31.88
335.903	31.69
336.114	31.78
336.325	31.86
336.535	31.94
336.746	31.96
336.957	31.84
337.167	31.89
337.378	31.85
337.589	32.03
337.799	31.86
338.01	31.88
338.22	31.74
338.431	31.37
338.642	31.27
338.852	31.15
339.063	30.87
339.273	30.69
339.484	30.66
339.694	30.78
339.905	30.63
340.115	30.64
340.326	30.62
340.536	30.62
340.746	30.71
340.957	30.67
341.167	30.57
341.378	30.73
341.588	30.9
341.799	30.84
342.009	30.43
342.219	30.34
342.43	30.31
342.64	30.21
342.85	30.12
343.061	30.04
343.271	29.85
343.481	29.81
343.691	29.76
343.902	29.62
344.112	29.53
344.322	29.64
344.532	29.46
344.743	29.39
344.953	29.25
345.163	29.28
345.373	29.27
345.583	29.3
345.793	29.25
346.004	29.26
346.214	29.23
346.424	29.38
346.634	29.39
346.844	29.49
347.054	29.42
347.264	29.61
347.474	29.65
347.684	29.64
347.894	29.59
348.104	29.52
348.314	29.26
348.524	28.98
348.734	28.7
348.944	28.53
349.154	28.65
349.364	28.44
349.574	28.28
349.784	28.25
349.994	28.06
350.204	27.94
350.413	27.86
350.623	27.81
350.833	27.93
351.043	27.81
351.253	27.8
351.463	27.5
351.672	27.83
351.882	27.75
352.092	27.6
352.302	27.71
352.511	27.75
352.721	27.62
352.931	27.63
353.141	27.8
353.35	27.91
353.56	27.73
353.77	27.76
353.979	27.63
354.189	27.6
354.399	27.49
354.608	27.24
354.818	27.17
355.027	27.11
355.237	27.09
355.447	26.8
355.656	26.69
355.866	26.65
356.075	26.58
356.285	26.52
356.494	26.36
356.704	26.33
356.913	26.42
357.123	26.37
357.332	26.4
357.542	26.42
357.751	26.4
357.96	26.42
358.17	26.39
358.379	26.31
358.589	26.23
358.798	26.21
359.007	26.25
359.217	26.28
359.426	26.16
359.635	26.21
359.845	26.14
360.054	26.07
360.263	26.07
360.472	26.1
360.682	26.06
360.891	25.99
361.1	26.04
361.309	25.93
361.519	25.83
361.728	25.81
361.937	25.72
362.146	25.64
362.355	25.56
362.564	25.42
362.774	25.41
362.983	25.43
363.192	25.38
363.401	25.37
363.61	25.39
363.819	25.4
364.028	25.39
364.237	25.34
364.446	25.21
364.655	25.38
364.864	25.43
365.073	25.34
365.282	25.25
365.491	25.22
365.7	25.18
365.909	25.29
366.118	25.18
366.327	25.06
366.536	24.99
366.745	25.1
366.954	25.07
367.162	25.13
367.371	25.22
367.58	25.32
367.789	25.34
367.998	25.37
368.207	25.14
368.415	25.18
368.624	25.3
368.833	25.21
369.042	25.28
369.25	25.2
369.459	25.13
369.668	24.94
369.877	24.87
370.085	24.75
370.294	24.64
370.503	24.61
370.711	24.55
370.92	24.51
371.129	24.54
371.337	24.4
371.546	24.27
371.754	24.24
371.963	24.24
372.171	24.21
372.38	24.16
372.589	24.14
372.797	24.2
373.006	24.18
373.214	24.12
373.423	24.14
373.631	24.06
373.84	24.06
374.048	24.02
374.256	23.94
374.465	23.9
374.673	23.89
374.882	23.76
375.09	23.77
375.298	23.84
375.507	23.71
375.715	23.67
375.923	23.63
376.132	23.72
376.34	23.7
376.548	23.74
376.757	23.7
376.965	23.77
377.173	23.86
377.381	23.85
377.59	23.79
377.798	23.91
378.006	23.82
378.214	23.91
378.423	23.79
378.631	23.74
378.839	23.82
379.047	23.78
379.255	23.71
379.463	23.7
379.671	23.64
379.879	23.65
380.088	23.68
380.296	23.7
380.504	23.67
380.712	23.67
380.92	23.6
381.128	23.55
381.336	23.45
381.544	23.37
381.752	23.33
381.96	23.3
382.168	23.21
382.376	23.16
382.584	23.23
382.791	23.21
382.999	23.21
383.207	23.25
383.415	23.22
383.623	23.27
383.831	23.36
384.039	23.33
384.247	23.27
384.454	23.26
384.662	23.07
384.87	23.07
385.078	22.99
385.285	22.8
385.493	22.74
385.701	22.68
385.909	22.6
386.116	22.53
386.324	22.43
386.532	22.32
386.739	22.25
386.947	22.37
387.155	22.29
387.362	22.27
387.57	22.38
387.778	22.34
387.985	22.26
388.193	22.36
388.4	22.41
388.608	22.54
388.816	22.65
389.023	22.61
389.231	22.45
389.438	22.42
389.646	22.36
389.853	22.35
390.061	22.34
390.268	22.3
390.475	22.15
390.683	22.07
390.89	21.98
391.098	21.94
391.305	21.99
391.512	22.04
391.72	21.94
391.927	21.95
392.135	21.91
392.342	21.84
392.549	21.88
392.756	21.92
392.964	21.89
393.171	21.83
393.378	21.85
393.586	21.79
393.793	21.81
394	21.85
394.207	21.75
394.414	21.66
394.622	21.71
394.829	21.7
395.036	21.77
395.243	21.73
395.45	21.53
395.657	21.47
395.864	21.43
396.072	21.37
396.279	21.33
396.486	21.39
396.693	21.41
396.9	21.36
397.107	21.25
397.314	21.16
397.521	21.13
397.728	21.21
397.935	21.23
398.142	21.2
398.349	21.14
398.556	21.07
398.763	20.99
398.97	20.97
399.177	20.94
399.383	20.96
399.59	20.89
399.797	20.95
400.004	20.98
400.211	20.94
400.418	20.91
400.625	20.89
400.831	20.95
401.038	20.97
401.245	21.02
401.452	21
401.658	20.96
401.865	20.94
402.072	20.86
402.279	20.82
402.485	20.76
402.692	20.71
402.899	20.67
403.105	20.62
403.312	20.64
403.519	20.62
403.725	20.66
403.932	20.64
404.138	20.56
404.345	20.51
404.552	20.61
404.758	20.64
404.965	20.6
405.171	20.61
405.378	20.61
405.584	20.62
405.791	20.5
405.997	20.46
406.204	20.57
406.41	20.61
406.617	20.62
406.823	20.49
407.029	20.47
407.236	20.54
407.442	20.58
407.649	20.59
407.855	20.39
408.061	20.47
408.268	20.41
408.474	20.27
408.68	20.3
408.887	20.28
409.093	20.29
409.299	20.26
409.505	20.14
409.712	20.09
409.918	20
410.124	20.07
410.33	20.04
410.537	20.02
410.743	20.02
410.949	19.95
411.155	19.99
411.361	19.92
411.567	19.86
411.773	19.97
411.98	20
412.186	20.13
412.392	20.15
412.598	20.15
412.804	20.17
413.01	20.14
413.216	20.14
413.422	20.03
413.628	20.07
413.834	20.02
414.04	19.97
414.246	19.91
414.452	19.77
414.658	19.84
414.864	19.78
415.07	19.73
415.275	19.74
415.481	19.69
415.687	19.65
415.893	19.66
416.099	19.67
416.305	19.63
416.511	19.6
416.716	19.56
416.922	19.48
417.128	19.46
417.334	19.47
417.539	19.47
417.745	19.49
417.951	19.5
418.157	19.48
418.362	19.46
418.568	19.48
418.774	19.52
418.979	19.57
419.185	19.6
419.391	19.62
419.596	19.63
419.802	19.62
420.008	19.58
420.213	19.37
420.419	19.37
420.624	19.35
420.83	19.38
421.035	19.33
421.241	19.3
421.446	19.23
421.652	19.18
421.857	19.15
422.063	19.1
422.268	19.08
422.474	19.27
422.679	19.28
422.885	19.29
423.09	19.22
423.295	19.22
423.501	19.25
423.706	19.27
423.911	19.26
424.117	19.27
424.322	19.31
424.527	19.37
424.733	19.35
424.938	19.35
425.143	19.37
425.349	19.38
425.554	19.39
425.759	19.36
425.964	19.37
426.169	19.43
426.375	19.43
426.58	19.43
426.785	19.44
426.99	19.53
427.195	19.5
427.4	19.5
427.605	19.56
427.811	19.53
428.016	19.6
428.221	19.62
428.426	19.58
428.631	19.56
428.836	19.57
429.041	19.57
429.246	19.55
429.451	19.58
429.656	19.63
429.861	19.6
430.066	19.65
430.271	19.6
430.476	19.57
430.681	19.59
430.886	19.63
431.09	19.63
431.295	19.54
431.5	19.46
431.705	19.41
431.91	19.37
432.115	19.4
432.32	19.37
432.524	19.36
432.729	19.3
432.934	19.29
433.139	19.31
433.343	19.28
433.548	19.37
433.753	19.39
433.958	19.44
434.162	19.4
434.367	19.39
434.572	19.44
434.776	19.41
434.981	19.46
435.186	19.45
435.39	19.4
435.595	19.41
435.799	19.33
436.004	19.4
436.209	19.4
436.413	19.38
436.618	19.34
436.822	19.3
437.027	19.3
437.231	19.3
437.436	19.27
437.64	19.28
437.845	19.29
438.049	19.33
438.253	19.24
438.458	19.19
438.662	19.24
438.867	19.25
439.071	19.28
439.275	19.31
439.48	19.33
439.684	19.33
439.888	19.34
440.093	19.33
440.297	19.32
440.501	19.38
440.706	19.42
440.91	19.4
441.114	19.4
441.318	19.38
441.523	19.37
441.727	19.32
441.931	19.33
442.135	19.28
442.339	19.28
442.543	19.29
442.748	19.29
442.952	19.23
443.156	19.22
443.36	19.21
443.564	19.17
443.768	19.1
443.972	19.11
444.176	19.11
444.38	19.13
444.584	19.1
444.788	19.02
444.992	19
445.196	19.02
445.4	18.96
445.604	18.95
445.808	18.92
446.012	18.95
446.216	18.91
446.42	18.9
446.624	18.88
446.828	18.86
447.032	18.89
447.235	18.85
447.439	18.86
447.643	18.92
447.847	18.91
448.051	18.94
448.254	18.94
448.458	18.99
448.662	19.01
448.866	18.98
449.069	18.94
449.273	18.98
449.477	19.03
449.681	19
449.884	18.91
450.088	18.92
450.292	18.89
450.495	18.83
450.699	18.88
450.902	18.83
451.106	18.89
451.31	19.02
451.513	18.94
451.717	18.9
451.92	18.89
452.124	18.92
452.327	18.95
452.531	18.92
452.734	18.96
452.938	18.89
453.141	18.9
453.345	18.88
453.548	18.8
453.752	18.88
453.955	18.94
454.158	18.93
454.362	18.89
454.565	18.87
454.769	18.87
454.972	18.88
455.175	18.9
455.379	18.89
455.582	18.8
455.785	18.76
455.988	18.66
456.192	18.6
456.395	18.55
456.598	18.57
456.801	18.51
457.005	18.53
457.208	18.51
457.411	18.48
457.614	18.4
457.817	18.4
458.021	18.33
458.224	18.32
458.427	18.26
458.63	18.24
458.833	18.2
459.036	18.17
459.239	18.13
459.442	18.09
