Data from JASIL_3082_Reflection_02.txt Node
Date: Mon Nov 09 11:59:45 EST 2015
User: Geneva
Spectrometer: USB4E03002
Autoset integration time: false
Trigger mode: 4
Integration Time (sec): 1.000000E-1
Scans to average: 10
Electric dark correction enabled: false
Nonlinearity correction enabled: false
Boxcar width: 5
Stray light correction enabled: false
XAxis mode: Wavelengths
Stop averaging: false
Number of Pixels in Spectrum: 3648
>>>>>Begin Spectral Data<<<<<
177.575	-106.3
177.794	1184.21
178.014	-253.06
178.233	-17.34
178.452	26.81
178.672	131.02
178.891	123.17
179.11	418.75
179.33	300
179.549	132.23
179.768	209.9
179.987	122.46
180.207	94.32
180.426	94.33
180.645	134.58
180.864	67.99
181.084	21.32
181.303	15.17
181.522	-20.93
181.741	-1845.45
181.96	69.74
182.179	233.85
182.398	55.9
182.618	19.78
182.837	17.65
183.056	109.52
183.275	177.78
183.494	11.59
183.713	125
183.932	-472.73
184.151	-86.93
184.37	-13.11
184.589	18.33
184.808	-0.2
185.027	3.71
185.246	-0.75
185.465	39.29
185.684	76.87
185.903	180.85
186.122	196.23
186.341	390.7
186.56	934.21
186.779	-258.45
186.998	-441.57
187.216	-1220
187.435	-113.04
187.654	2000
187.873	23.53
188.092	-84
188.311	34.71
188.53	1.86
188.748	-11.36
188.967	45.36
189.186	21.68
189.405	17.38
189.623	57.37
189.842	80.53
190.061	86.38
190.28	97.24
190.498	366.67
190.717	148.12
190.936	139.17
191.154	58.66
191.373	-28.7
191.592	33.57
191.81	100
192.029	32.04
192.248	45.82
192.466	63.5
192.685	74.22
192.904	41.13
193.122	48.96
193.341	69.19
193.559	91
193.778	118.77
193.996	141.79
194.215	184.08
194.433	298.73
194.652	240.4
194.87	251.27
195.089	297.61
195.307	737.11
195.526	998.15
195.744	1337.14
195.963	355.94
196.181	476.34
196.399	219.85
196.618	166.95
196.836	133.41
197.055	127.4
197.273	154.14
197.491	155.25
197.71	122.77
197.928	143.27
198.146	158.14
198.365	193.76
198.583	239.4
198.801	202.19
199.019	226.29
199.238	616.67
199.456	752.29
199.674	1629.17
199.892	-6418.18
200.111	-863.64
200.329	25300
200.547	429.55
200.765	240.59
200.983	208.56
201.202	273.14
201.42	207.94
201.638	144.32
201.856	116.28
202.074	77.58
202.292	84.52
202.51	87.44
202.728	63.65
202.946	78.88
203.165	83.58
203.383	86.36
203.601	44.19
203.819	39.47
204.037	41.7
204.255	38.5
204.473	93.08
204.691	60.7
204.909	128.08
205.127	128.43
205.345	103.23
205.562	92.52
205.78	55.46
205.998	87.65
206.216	124.72
206.434	110.24
206.652	111.34
206.87	96.02
207.088	99.4
207.306	59.15
207.523	47.95
207.741	83.2
207.959	533.33
208.177	-321.88
208.395	618.75
208.612	1233.33
208.83	273.17
209.048	294.17
209.266	14233.33
209.483	-493.18
209.701	-177.95
209.919	-151.16
210.136	-211.01
210.354	1114.52
210.572	1398.04
210.79	-506.96
211.007	-828.12
211.225	-204.81
211.442	-67.44
211.66	-73.26
211.878	-15.87
212.095	1414.52
212.313	-1084.62
212.53	-2133.33
212.748	1001.11
212.966	2505.71
213.183	-6450
213.401	565.73
213.618	499.1
213.836	1039.25
214.053	719.55
214.271	1680.77
214.488	40.19
214.705	43.37
214.923	95.16
215.14	46.52
215.358	54.52
215.575	91.93
215.793	71.31
216.01	-12.21
216.227	34.15
216.445	70.9
216.662	22.22
216.879	-131.41
217.097	-140.27
217.314	-217.86
217.531	367.05
217.749	1206.25
217.966	-3320
218.183	30500
218.4	-227.78
218.618	452.94
218.835	-1444.12
219.052	-256.65
219.269	-215.08
219.487	-244.32
219.704	-2244
219.921	-534.85
220.138	444.74
220.355	1130.65
220.572	363.38
220.79	273.68
221.007	336.45
221.224	298.59
221.441	175.69
221.658	114.35
221.875	110.26
222.092	100.64
222.309	173.33
222.526	126.54
222.743	90.27
222.96	73.53
223.177	71.98
223.394	22.62
223.611	30.78
223.828	56.11
224.045	66.67
224.262	42.41
224.479	53.9
224.696	26.69
224.913	24.04
225.13	7.44
225.347	22.3
225.564	3.44
225.781	11.08
225.997	-0.6
226.214	-2.06
226.431	8.06
226.648	13.04
226.865	6.51
227.082	9.28
227.298	6.24
227.515	5.87
227.732	11.42
227.949	16.85
228.165	21.25
228.382	27.27
228.599	32.13
228.816	30.01
229.032	30.28
229.249	35.4
229.466	47.53
229.682	47.17
229.899	47.8
230.116	49.11
230.332	46.59
230.549	41.34
230.765	42.04
230.982	38.88
231.199	40.24
231.415	37.28
231.632	44.94
231.848	27.68
232.065	36.35
232.281	41.71
232.498	23.92
232.714	21.47
232.931	17.28
233.147	8.43
233.364	10.31
233.58	18.01
233.797	17.12
234.013	13.78
234.23	16.26
234.446	18.8
234.662	19.29
234.879	17.52
235.095	14.69
235.312	20.48
235.528	29.43
235.744	24.98
235.961	17.6
236.177	39.06
236.393	38.81
236.61	38.65
236.826	26.04
237.042	25.85
237.258	25.31
237.475	25.86
237.691	39.48
237.907	27.37
238.123	41.94
238.339	41.16
238.556	29.58
238.772	28.65
238.988	27.23
239.204	25.08
239.42	29.74
239.636	32.87
239.853	25.32
240.069	18.1
240.285	17.51
240.501	12.29
240.717	13.47
240.933	15.14
241.149	9.75
241.365	12.83
241.581	13.06
241.797	13.11
242.013	12.62
242.229	16.93
242.445	14.3
242.661	17.7
242.877	16.68
243.093	12.81
243.309	8.4
243.525	12.3
243.741	6.57
243.957	4.03
244.173	1.88
244.388	1.45
244.604	1.24
244.82	4.65
245.036	4.23
245.252	5.09
245.468	3.21
245.683	2.96
245.899	7.6
246.115	7.88
246.331	10.45
246.547	10.43
246.762	11.21
246.978	10.21
247.194	9.34
247.409	6.87
247.625	5.9
247.841	7.8
248.057	8.81
248.272	6.18
248.488	1.68
248.703	-3.38
248.919	-4.58
249.135	-3.24
249.35	-2.52
249.566	5
249.782	6.76
249.997	7.12
250.213	9.65
250.428	8.61
250.644	4.86
250.859	10.72
251.075	11.92
251.29	12.32
251.506	7.64
251.721	6.93
251.937	5.17
252.152	10.31
252.368	11.47
252.583	10.14
252.798	16.37
253.014	19.9
253.229	18.11
253.445	15.78
253.66	11.61
253.875	14.36
254.091	17.97
254.306	17.8
254.521	12.31
254.737	9.76
254.952	8.88
255.167	10.31
255.383	6.16
255.598	6.12
255.813	8.67
256.028	11.79
256.244	10.3
256.459	3.71
256.674	3.33
256.889	4.54
257.104	5.13
257.32	10.25
257.535	9.07
257.75	8.4
257.965	7.28
258.18	5.06
258.395	2.02
258.61	3.19
258.826	6
259.041	5.97
259.256	6.74
259.471	6.98
259.686	5.57
259.901	6.22
260.116	7.6
260.331	9.19
260.546	8.97
260.761	11.84
260.976	9.43
261.191	7.49
261.406	7.65
261.621	6.33
261.836	8.86
262.05	1.98
262.265	-0.34
262.48	-1.55
262.695	-3.11
262.91	2.55
263.125	7.45
263.34	11.47
263.555	14.17
263.769	14.9
263.984	15.52
264.199	11.33
264.414	19.44
264.629	17.27
264.843	21.12
265.058	19.14
265.273	18.11
265.488	15.17
265.702	16.61
265.917	16.03
266.132	14.36
266.346	13
266.561	17.66
266.776	17.86
266.99	15.93
267.205	13.76
267.42	13.85
267.634	11.8
267.849	13.31
268.063	9.3
268.278	7.63
268.492	6.57
268.707	5.73
268.922	1.55
269.136	-0.18
269.351	5.08
269.565	7.1
269.78	8.29
269.994	9.19
270.209	8.48
270.423	12.16
270.637	12.06
270.852	10.77
271.066	13.41
271.281	14.93
271.495	14
271.709	13.38
271.924	9.3
272.138	7.67
272.353	8.17
272.567	8.81
272.781	4.18
272.996	5.37
273.21	9.62
273.424	5.79
273.638	2.45
273.853	3.38
274.067	4.02
274.281	5.39
274.495	7.56
274.71	8.91
274.924	6.18
275.138	7.92
275.352	4.91
275.566	3.29
275.781	3.06
275.995	11.24
276.209	11.4
276.423	9.91
276.637	11.31
276.851	9.55
277.065	8.76
277.279	10.63
277.493	10.9
277.707	11.65
277.921	11.58
278.135	13.14
278.349	6.55
278.563	7.02
278.777	8.24
278.991	4.28
279.205	6.37
279.419	4.12
279.633	1.48
279.847	1.68
280.061	3.62
280.275	5.11
280.489	6.12
280.703	5.19
280.917	6.32
281.131	6.02
281.344	7.59
281.558	5.04
281.772	4.66
281.986	7.2
282.2	4.89
282.414	5.06
282.627	2.85
282.841	2.73
283.055	1.82
283.269	1.76
283.482	2.24
283.696	5.37
283.91	7.65
284.123	8.19
284.337	5.61
284.551	7.13
284.764	5.8
284.978	8.22
285.192	6.51
285.405	9.2
285.619	5.65
285.833	3.82
286.046	2.9
286.26	1.08
286.473	-0.25
286.687	1.6
286.9	4.63
287.114	3.83
287.327	0.83
287.541	-1.32
287.754	0.09
287.968	2.51
288.181	4.18
288.395	3.61
288.608	5.28
288.822	4.35
289.035	2.34
289.248	-0.57
289.462	-1.82
289.675	-0.47
289.889	1.88
290.102	-1.45
290.315	0.66
290.529	-2.11
290.742	-2.5
290.955	-4.09
291.169	-0.5
291.382	2.26
291.595	1.61
291.808	3.52
292.022	1.74
292.235	2.89
292.448	3.12
292.661	1.04
292.875	3.94
293.088	2.04
293.301	3.27
293.514	3.33
293.727	4.03
293.94	6.39
294.153	7.31
294.367	8.44
294.58	7.39
294.793	7.68
295.006	7.79
295.219	6.56
295.432	6.51
295.645	6.69
295.858	5.33
296.071	4.84
296.284	3.87
296.497	5.1
296.71	5.58
296.923	7.34
297.136	8.59
297.349	9.87
297.562	10.02
297.775	11.09
297.988	13.35
298.201	13.61
298.414	14.14
298.626	13.9
298.839	12.12
299.052	12.3
299.265	10.04
299.478	9.47
299.691	9.1
299.903	9.44
300.116	10.2
300.329	7.01
300.542	8.28
300.755	9.28
300.967	8.78
301.18	11.15
301.393	10.74
301.605	11.27
301.818	11.03
302.031	10.63
302.243	12.59
302.456	11.5
302.669	12.94
302.881	12.12
303.094	10.11
303.307	12.18
303.519	9.87
303.732	7.62
303.944	9.25
304.157	10.67
304.37	9.34
304.582	5.39
304.795	7.62
305.007	6.44
305.22	11.04
305.432	12.74
305.645	10.27
305.857	10.19
306.069	11.32
306.282	8.57
306.494	6.27
306.707	4.45
306.919	8.02
307.132	5.29
307.344	4.94
307.556	1.23
307.769	-2.58
307.981	-2.16
308.193	-0.33
308.406	2.15
308.618	3.49
308.83	5.17
309.043	6.66
309.255	4.53
309.467	3.93
309.679	5.05
309.892	4.97
310.104	9.51
310.316	9.73
310.528	8.66
310.74	6.6
310.953	4.55
311.165	5.6
311.377	5.8
311.589	8.76
311.801	8.64
312.013	7.7
312.225	7.24
312.437	3.69
312.649	4.6
312.862	2.54
313.074	1.01
313.286	3.29
313.498	2.79
313.71	3.91
313.922	4.24
314.134	7.49
314.346	8.93
314.558	11.57
314.77	13.81
314.982	12.54
315.193	14.3
315.405	15.97
315.617	15.89
315.829	13.24
316.041	15.22
316.253	11.27
316.465	10.97
316.677	10.35
316.888	7.31
317.1	7.84
317.312	7.72
317.524	6.34
317.736	5.46
317.947	6.42
318.159	6.27
318.371	3.92
318.583	7.5
318.794	8.53
319.006	9.19
319.218	10.48
319.43	7.44
319.641	7.3
319.853	11
320.064	13.85
320.276	12.72
320.488	12.98
320.699	11.48
320.911	9.44
321.123	6.76
321.334	5.53
321.546	6.89
321.757	4.8
321.969	6.19
322.18	4.94
322.392	6.39
322.603	5.48
322.815	6.36
323.026	7.77
323.238	8.3
323.449	9.4
323.661	8.81
323.872	6.57
324.083	6.21
324.295	3.88
324.506	2.27
324.718	-0.71
324.929	3.32
325.14	3.71
325.352	3.79
325.563	4.43
325.774	6.34
325.986	6.2
326.197	6.39
326.408	9.1
326.62	11.25
326.831	13.21
327.042	16.4
327.253	13.28
327.464	13.22
327.676	14.54
327.887	12.51
328.098	11.57
328.309	10.35
328.52	12.76
328.732	11.06
328.943	12.36
329.154	11.74
329.365	9.36
329.576	9.73
329.787	8.42
329.998	5.39
330.209	6.51
330.42	4.26
330.631	8.64
330.842	9.22
331.053	11.52
331.264	10.15
331.475	9.76
331.686	10.05
331.897	11.63
332.108	10.62
332.319	10.84
332.53	14.79
332.741	16.71
332.952	14.78
333.163	13.86
333.374	15.52
333.585	17.58
333.795	19.35
334.006	17.6
334.217	17.27
334.428	20.81
334.639	22.38
334.849	19.87
335.06	19.58
335.271	19.29
335.482	16.46
335.692	15.69
335.903	13.34
336.114	12.5
336.325	11.81
336.535	10.68
336.746	7.96
336.957	6.61
337.167	7.58
337.378	7.46
337.589	8.69
337.799	11.59
338.01	9.73
338.22	10.79
338.431	10.06
338.642	10.78
338.852	9.89
339.063	11.34
339.273	11.22
339.484	11.01
339.694	11.11
339.905	11.87
340.115	10.68
340.326	10.49
340.536	8.74
340.746	7.18
340.957	9.14
341.167	10.16
341.378	8.66
341.588	10.44
341.799	8.69
342.009	9.15
342.219	7.59
342.43	8.14
342.64	9.23
342.85	11.55
343.061	12.92
343.271	12.93
343.481	12.8
343.691	12.85
343.902	11.34
344.112	10.2
344.322	10.05
344.532	8.42
344.743	9.22
344.953	8.79
345.163	7.59
345.373	7.93
345.583	6.5
345.793	4.21
346.004	5.05
346.214	5.05
346.424	4.81
346.634	4.9
346.844	9.48
347.054	8.22
347.264	6.54
347.474	4.6
347.684	3.68
347.894	4.3
348.104	5.46
348.314	3.6
348.524	3.94
348.734	5.42
348.944	4.7
349.154	2.28
349.364	3.13
349.574	6.65
349.784	7.85
349.994	7.79
350.204	7.36
350.413	8.29
350.623	9.72
350.833	9.88
351.043	8.98
351.253	9.45
351.463	9.36
351.672	8.82
351.882	7.49
352.092	8.07
352.302	7.74
352.511	7.79
352.721	7.95
352.931	7.22
353.141	6.41
353.35	5.92
353.56	6.42
353.77	6.65
353.979	5.02
354.189	5.03
354.399	5.9
354.608	6.2
354.818	7.92
355.027	8.82
355.237	9.88
355.447	11.06
355.656	11.56
355.866	12.59
356.075	12.83
356.285	14.55
356.494	14.51
356.704	12.6
356.913	12.21
357.123	10.96
357.332	9.49
357.542	8.25
357.751	7.24
357.96	7.01
358.17	5.32
358.379	5.41
358.589	4.58
358.798	5.06
359.007	6.28
359.217	7.81
359.426	8.38
359.635	9.19
359.845	10.08
360.054	9.83
360.263	10.32
360.472	9.66
360.682	8.86
360.891	9.94
361.1	9
361.309	9.05
361.519	8.46
361.728	8.13
361.937	7.04
362.146	5.94
362.355	5.93
362.564	5.49
362.774	4.8
362.983	5.83
363.192	4.64
363.401	5.68
363.61	7.02
363.819	8.97
364.028	9.3
364.237	10.7
364.446	11.18
364.655	11.33
364.864	12.45
365.073	13.71
365.282	13.42
365.491	12.84
365.7	12.51
365.909	12.7
366.118	10.56
366.327	10.76
366.536	10.33
366.745	10.71
366.954	12.56
367.162	13.18
367.371	13.41
367.58	11.96
367.789	13.72
367.998	13.11
368.207	10.78
368.415	11.1
368.624	9.58
368.833	9.43
369.042	8.86
369.25	8.5
369.459	7.54
369.668	7.09
369.877	7.22
370.085	6.93
370.294	6.63
370.503	8.73
370.711	8.3
370.92	9.94
371.129	11.18
371.337	10.9
371.546	9.99
371.754	9.22
371.963	9.42
372.171	11.22
372.38	10.4
372.589	11.52
372.797	9.51
373.006	9.58
373.214	8.62
373.423	8.33
373.631	8.35
373.84	6.24
374.048	6.51
374.256	5.97
374.465	5.14
374.673	6.38
374.882	6.07
375.09	6.34
375.298	5.71
375.507	4.05
375.715	2.9
375.923	3.45
376.132	4.38
376.34	5.58
376.548	4.82
376.757	5.06
376.965	4.54
377.173	4.32
377.381	5.43
377.59	5.76
377.798	7.85
378.006	7.34
378.214	8.69
378.423	9.91
378.631	9.66
378.839	9.94
379.047	9.44
379.255	9.06
379.463	8.69
379.671	9.6
379.879	10.35
380.088	9.76
380.296	10.65
380.504	9.07
380.712	9.43
380.92	6.57
381.128	7.28
381.336	6.99
381.544	6.49
381.752	6.71
381.96	3.97
382.168	3.25
382.376	3.39
382.584	2.19
382.791	2.53
382.999	1.83
383.207	4.44
383.415	3.27
383.623	3.11
383.831	4.65
384.039	5.2
384.247	6.85
384.454	6.48
384.662	6.64
384.87	6.69
385.078	7.38
385.285	6.54
385.493	6.29
385.701	6.62
385.909	6.72
386.116	5.54
386.324	5.31
386.532	5.09
386.739	5.55
386.947	7.02
387.155	7.46
387.362	7.4
387.57	7.89
387.778	7.55
387.985	8.03
388.193	8.91
388.4	9.02
388.608	8.84
388.816	7.24
389.023	9.1
389.231	6.81
389.438	8.22
389.646	8.18
389.853	6.75
390.061	6.65
390.268	7.28
390.475	6.66
390.683	6.18
390.89	5.57
391.098	6.71
391.305	4.45
391.512	4.63
391.72	4.55
391.927	3.38
392.135	4.98
392.342	5.33
392.549	5
392.756	4.52
392.964	5.16
393.171	5.58
393.378	6.22
393.586	8.8
393.793	8.96
394	6.75
394.207	6.22
394.414	6.53
394.622	6.72
394.829	6.15
395.036	7.14
395.243	6.42
395.45	5.45
395.657	4.57
395.864	2.09
396.072	2.94
396.279	4.09
396.486	5.16
396.693	5.72
396.9	5.61
397.107	6.38
397.314	6.96
397.521	6.86
397.728	8.44
397.935	7.94
398.142	7.75
398.349	7.34
398.556	8.3
398.763	8.46
398.97	8.9
399.177	8.95
399.383	8.31
399.59	8.29
399.797	9.38
400.004	8.93
400.211	9.75
400.418	10.94
400.625	9.88
400.831	9.64
401.038	10.29
401.245	9.82
401.452	9.91
401.658	10.56
401.865	10.29
402.072	10.48
402.279	10.05
402.485	9.55
402.692	8.18
402.899	9.68
403.105	9.47
403.312	9.2
403.519	7.55
403.725	6.87
403.932	6.86
404.138	7.14
404.345	6.49
404.552	6.67
404.758	6.57
404.965	7.46
405.171	7.2
405.378	8.2
405.584	7.23
405.791	7.98
405.997	8.26
406.204	8.69
406.41	8.62
406.617	8.53
406.823	8.33
407.029	9.05
407.236	8.78
407.442	8.46
407.649	6.69
407.855	7.73
408.061	7.66
408.268	8.09
408.474	7.27
408.68	6.94
408.887	7.1
409.093	8.18
409.299	7.85
409.505	7.52
409.712	7.57
409.918	8.24
410.124	8.72
410.33	9.29
410.537	9.52
410.743	10.49
410.949	10.88
411.155	10.07
411.361	9.68
411.567	10.38
411.773	11.21
411.98	10.45
412.186	9.89
412.392	8.13
412.598	8.92
412.804	8.85
413.01	8.42
413.216	7.92
413.422	8.97
413.628	8.32
413.834	7.82
414.04	7.29
414.246	7.99
414.452	8.98
414.658	9.86
414.864	8.57
415.07	8.65
415.275	8.34
415.481	9.1
415.687	8.47
415.893	8.91
416.099	9.17
416.305	8.72
416.511	8.14
416.716	7.53
416.922	7.61
417.128	8.31
417.334	7.95
417.539	8.08
417.745	7.15
417.951	7.37
418.157	7.25
418.362	6.88
418.568	6.83
418.774	6.88
418.979	6.77
419.185	6.37
419.391	5.77
419.596	6.18
419.802	6.18
420.008	6.27
420.213	6.24
420.419	6.05
420.624	5.7
420.83	5.7
421.035	6.24
421.241	6.39
421.446	6.62
421.652	7.01
421.857	6.36
422.063	5.67
422.268	5.79
422.474	5.72
422.679	6.09
422.885	6.62
423.09	6.89
423.295	6.68
423.501	6.39
423.706	6.51
423.911	6.23
424.117	6.07
424.322	6.18
424.527	6.35
424.733	6.83
424.938	6.29
425.143	6.58
425.349	6.85
425.554	6.27
425.759	6.97
425.964	6.76
426.169	7.12
426.375	7.46
426.58	8.02
426.785	7.86
426.99	7.3
427.195	7.18
427.4	6.74
427.605	6.57
427.811	6.64
428.016	6.35
428.221	6.73
428.426	6.15
428.631	6.35
428.836	6.26
429.041	6.3
429.246	6.66
429.451	7.38
429.656	7.22
429.861	7.31
430.066	7.55
430.271	7.33
430.476	7.05
430.681	7.08
430.886	6.89
431.09	6.77
431.295	7.04
431.5	7.03
431.705	7.09
431.91	6.98
432.115	6.79
432.32	7.33
432.524	7.07
432.729	7.43
432.934	7.45
433.139	7.55
433.343	7.62
433.548	7.3
433.753	7.74
433.958	7.89
434.162	7.44
434.367	7.26
434.572	6.61
434.776	7.06
434.981	6.81
435.186	6.95
435.39	7.01
435.595	7.22
435.799	7.12
436.004	5.92
436.209	4.94
436.413	5.52
436.618	5.97
436.822	6.07
437.027	6.16
437.231	6.1
437.436	6.41
437.64	6.36
437.845	6.08
438.049	6.64
438.253	7.34
438.458	7.07
438.662	7.38
438.867	7.15
439.071	7.16
439.275	7.03
439.48	7.25
439.684	7.25
439.888	7.34
440.093	7.35
440.297	7.15
440.501	6.97
440.706	7.21
440.91	7.12
441.114	7.52
441.318	8.06
441.523	8.03
441.727	7.72
441.931	7.59
442.135	7.42
442.339	7.8
442.543	7.86
442.748	7.83
442.952	8.42
443.156	8.13
443.36	7.7
443.564	7.31
443.768	7.08
443.972	7.4
444.176	7.34
444.38	7.5
444.584	6.88
444.788	6.43
444.992	6.62
445.196	6.16
445.4	6.04
445.604	6.01
445.808	6.25
446.012	6.49
446.216	6.6
446.42	6.14
446.624	5.73
446.828	6.25
447.032	6.64
447.235	6.71
447.439	7.06
447.643	7.56
447.847	7.75
448.051	7.05
448.254	7.26
448.458	7.17
448.662	8.07
448.866	8.52
449.069	8.77
449.273	8.66
449.477	8.3
449.681	8.83
449.884	9.13
450.088	9.03
450.292	9.76
450.495	9.73
450.699	9.32
450.902	8.33
451.106	7.82
451.31	7.97
451.513	7.99
451.717	8.02
451.92	7.58
452.124	6.8
452.327	6.88
452.531	6.5
452.734	6.19
452.938	6.58
453.141	6.91
453.345	8.23
453.548	7.49
453.752	7.26
453.955	7.22
454.158	7.36
454.362	7.04
454.565	6.67
454.769	6.49
454.972	6.36
455.175	5.91
455.379	6.45
455.582	5.1
455.785	6.01
455.988	5.62
456.192	5.71
456.395	5.38
456.598	5.42
456.801	5.42
457.005	6.2
457.208	6.68
457.411	7.13
457.614	6.43
457.817	7.02
458.021	6.41
458.224	6.65
458.427	6.6
458.63	6.71
458.833	6.89
459.036	7.33
459.239	6.87
459.442	6.59
459.645	6.3
459.848	6.71
460.051	6.3
460.254	6.45
460.457	6.38
460.66	6.71
460.863	6.54
461.066	6.61
461.269	6.16
461.472	7.14
461.675	7.05
461.878	7.52
462.081	8.17
462.284	8.11
462.486	8.02
462.689	8.02
462.892	8.32
463.095	8.82
463.298	9.57
463.5	10.17
463.703	8.98
463.906	9.2
464.109	8.71
464.311	7.84
464.514	8.67
464.717	8.95
464.92	9.44
465.122	8.68
465.325	8.02
465.528	7.67
465.73	6.68
465.933	6.91
