Data from JASIL_3103_Relative_1.txt Node
Date: Thu Nov 12 19:34:46 EST 2015
User: Geneva
Spectrometer: USB4E03002
Autoset integration time: false
Trigger mode: 4
Integration Time (sec): 1.000000E-1
Scans to average: 10
Electric dark correction enabled: true
Nonlinearity correction enabled: false
Boxcar width: 5
Stray light correction enabled: false
XAxis mode: Wavelengths
Stop averaging: false
Number of Pixels in Spectrum: 3648
>>>>>Begin Spectral Data<<<<<
177.575	162.9
177.794	745.58
178.014	222.48
178.233	106.33
178.452	81.33
178.672	101.9
178.891	707.04
179.11	175.07
179.33	3445.24
179.549	-227.81
179.768	-499.8
179.987	2008.07
180.207	-606.27
180.426	-1648.01
180.645	7095.56
180.864	-292.86
181.084	-517.25
181.303	-308.06
181.522	-322.34
181.741	-4732.64
181.96	383.95
182.179	2766.78
182.398	-630.55
182.618	-1970.86
182.837	-2175.22
183.056	782.82
183.275	161.08
183.494	398.51
183.713	226.16
183.932	270.39
184.151	329.07
184.37	985.95
184.589	363.38
184.808	303.44
185.027	1061.49
185.246	285.5
185.465	379.96
185.684	653.33
185.903	408.1
186.122	520.49
186.341	1008.12
186.56	590.71
186.779	-480.47
186.998	-176.77
187.216	-3.63
187.435	-12.69
187.654	-41.67
187.873	-14.85
188.092	-0.48
188.311	-2.98
188.53	-19.53
188.748	-52.43
188.967	-49.75
189.186	-125.55
189.405	-188
189.623	-755.04
189.842	2106.95
190.061	-14698.73
190.28	1115.65
190.498	478.55
190.717	433.67
190.936	495.51
191.154	317.54
191.373	278.36
191.592	205.17
191.81	214.37
192.029	273.49
192.248	291.88
192.466	257.23
192.685	307.29
192.904	229.27
193.122	222.71
193.341	457.42
193.559	-893.6
193.778	1088.53
193.996	1412.15
194.215	779.28
194.433	515.3
194.652	3166.67
194.87	-671.94
195.089	-392.18
195.307	-321.69
195.526	-293.43
195.744	-605.59
195.963	-2103.66
196.181	4843.29
196.399	-429.68
196.618	-763.45
196.836	-658.02
197.055	-369.74
197.273	-191.06
197.491	-316.97
197.71	11241.11
197.928	704.04
198.146	467.58
198.365	533.1
198.583	7656.9
198.801	368.23
199.019	325.38
199.238	230.84
199.456	173.85
199.674	136.89
199.892	163.76
200.111	380.44
200.329	-661.84
200.547	-301.94
200.765	-130.98
200.983	-60.7
201.202	-42.2
201.42	-82.73
201.638	-135.38
201.856	-239.57
202.074	-163.48
202.292	-109.88
202.51	779.8
202.728	289.03
202.946	266.5
203.165	246.45
203.383	227.62
203.601	247.9
203.819	277.61
204.037	327.33
204.255	248.09
204.473	212.68
204.691	165.21
204.909	281.67
205.127	304.5
205.345	686.89
205.562	-4015.3
205.78	-401.11
205.998	-434.76
206.216	-1426.67
206.434	392.18
206.652	-4008.82
206.87	-312.92
207.088	-219.71
207.306	-1025.31
207.523	-198.22
207.741	-388.03
207.959	3815.83
208.177	44992
208.395	-522.7
208.612	-884.32
208.83	-341.99
209.048	-289.45
209.266	-1030.27
209.483	-225.05
209.701	10.36
209.919	-186.55
210.136	-251.7
210.354	-193.47
210.572	-45.76
210.79	-311.75
211.007	544.73
211.225	480.88
211.442	182.36
211.66	1493.25
211.878	377.45
212.095	256.22
212.313	376.96
212.53	274.24
212.748	264.92
212.966	179.99
213.183	149.07
213.401	187.5
213.618	257.49
213.836	337.63
214.053	360.6
214.271	382.06
214.488	805.27
214.705	378.68
214.923	-6375.69
215.14	9721.36
215.358	-394.14
215.575	-329.32
215.793	-547.38
216.01	-431.84
216.227	-47196.3
216.445	-2354.92
216.662	-596.13
216.879	-21198.11
217.097	-377.88
217.314	1185.06
217.531	-2423.42
217.749	574.06
217.966	740
218.183	3061.43
218.4	657.47
218.618	885.77
218.835	459.2
219.052	216.99
219.269	215.48
219.487	204.2
219.704	170.63
219.921	126.23
220.138	143.26
220.355	177.89
220.572	313.83
220.79	365.21
221.007	467.49
221.224	-392.37
221.441	-138.24
221.658	-121.55
221.875	-178.29
222.092	-128.1
222.309	-124.53
222.526	-230.5
222.743	-360.23
222.96	-237.73
223.177	-201.64
223.394	-100.44
223.611	-589.31
223.828	-255.19
224.045	-255.25
224.262	-134.64
224.479	-135.97
224.696	-139.47
224.913	-78.6
225.13	-75.36
225.347	-145.02
225.564	-109.85
225.781	-231.21
225.997	-149.06
226.214	-161.84
226.431	-238.1
226.648	-219.57
226.865	-166.54
227.082	-175.44
227.298	-189.74
227.515	-129.08
227.732	-82.34
227.949	-106.03
228.165	-101.62
228.382	-70.03
228.599	-72.82
228.816	-52.75
229.032	-34.39
229.249	-43.24
229.466	-30.76
229.682	-29.92
229.899	-31.91
230.116	-35.06
230.332	-21.29
230.549	-10.5
230.765	-16.1
230.982	-8.32
231.199	-17.33
231.415	-40.34
231.632	-7.46
231.848	-25.92
232.065	-15.53
232.281	-33.28
232.498	-37.55
232.714	-53.46
232.931	-128.09
233.147	-162.1
233.364	-176.71
233.58	-85.31
233.797	-82.67
234.013	-80.76
234.23	-89.83
234.446	-127.36
234.662	-133.67
234.879	-87.74
235.095	-109.35
235.312	-53.98
235.528	-55.78
235.744	-68.99
235.961	-77.48
236.177	-46.76
236.393	-74.71
236.61	-42.97
236.826	-29.9
237.042	-23.11
237.258	-25.02
237.475	-13.19
237.691	-24.12
237.907	-37.53
238.123	-36.13
238.339	-50.09
238.556	-69.78
238.772	-81.45
238.988	-74.87
239.204	-77.04
239.42	-80.78
239.636	-85.69
239.853	-63
240.069	-59.57
240.285	-42.47
240.501	-43.42
240.717	-41.97
240.933	-44.78
241.149	-35.76
241.365	-37.9
241.581	-33.85
241.797	-32.56
242.013	-28.27
242.229	-31.07
242.445	-22.14
242.661	-24.06
242.877	-14.69
243.093	-14.17
243.309	-10.65
243.525	-9.58
243.741	-11.38
243.957	-15.19
244.173	-15.26
244.388	-15.73
244.604	-13.79
244.82	-11.2
245.036	-8.53
245.252	-12.12
245.468	-11.53
245.683	-8.55
245.899	-9.96
246.115	-7.19
246.331	-4.17
246.547	-4.43
246.762	-4.91
246.978	-5.59
247.194	-10.27
247.409	-12.94
247.625	-14.6
247.841	-16.28
248.057	-16.86
248.272	-20.64
248.488	-24.2
248.703	-20.14
248.919	-19.34
249.135	-30.95
249.35	-25.38
249.566	-25.06
249.782	-18.18
249.997	-16.49
250.213	-9.06
250.428	-11.36
250.644	-4.92
250.859	-2.29
251.075	-6.72
251.29	-6.81
251.506	0.03
251.721	-5.18
251.937	-4.73
252.152	-12.31
252.368	-8.35
252.583	-19.41
252.798	-29.13
253.014	-38.12
253.229	-44.16
253.445	-61.79
253.66	-70.94
253.875	-67.46
254.091	-76.03
254.306	-76.32
254.521	-75.88
254.737	-112.95
254.952	-82.05
255.167	-77.85
255.383	-62.17
255.598	-61.48
255.813	-25.34
256.028	-19.77
256.244	-28.14
256.459	-20.89
256.674	-20.19
256.889	-20.76
257.104	-12.46
257.32	-14.4
257.535	-13.06
257.75	-6.9
257.965	-6.09
258.18	-11.35
258.395	-8.82
258.61	-5.72
258.826	-6.45
259.041	-6.11
259.256	-3.61
259.471	-5.08
259.686	-3.41
259.901	-3.18
260.116	-4.9
260.331	-6.88
260.546	-5.91
260.761	-6.41
260.976	-6.64
261.191	-7.46
261.406	-8.82
261.621	-15.72
261.836	-15.51
262.05	-14.14
262.265	-10.26
262.48	-19.98
262.695	-14.12
262.91	-19.18
263.125	-16.59
263.34	-26.31
263.555	-27.01
263.769	-29.34
263.984	-25.04
264.199	-30.53
264.414	-31.45
264.629	-38.46
264.843	-46.86
265.058	-42.21
265.273	-40.75
265.488	-38.86
265.702	-30.12
265.917	-24.15
266.132	-17.17
266.346	-15.45
266.561	-15.09
266.776	-18.82
266.99	-17.22
267.205	-5.9
267.42	-6.02
267.634	-6.33
267.849	-8.47
268.063	-11.94
268.278	-10.66
268.492	-13.99
268.707	-11.88
268.922	-8.43
269.136	-5.96
269.351	-3.93
269.565	-1.64
269.78	-4.03
269.994	-4.55
270.209	-4.87
270.423	-5.04
270.637	-6.48
270.852	-6.83
271.066	-12.59
271.281	-13.44
271.495	-14.08
271.709	-15.36
271.924	-20.57
272.138	-23.94
272.353	-19.98
272.567	-17.57
272.781	-18.95
272.996	-18.16
273.21	-15.99
273.424	-10.92
273.638	-12.03
273.853	-10.79
274.067	-8.36
274.281	-3.89
274.495	-1.73
274.71	-3.67
274.924	-6.02
275.138	-2.66
275.352	-3.63
275.566	-6.38
275.781	-6.25
275.995	-9.05
276.209	-13.08
276.423	-15.77
276.637	-19.18
276.851	-18.58
277.065	-20.07
277.279	-22.5
277.493	-24.17
277.707	-30.17
277.921	-28.99
278.135	-30.79
278.349	-21.02
278.563	-11.83
278.777	-13.03
278.991	-12.11
279.205	-10.17
279.419	-8.73
279.633	-6.31
279.847	-1.05
280.061	0.82
280.275	0.59
280.489	-2.27
280.703	-5.64
280.917	-5.94
281.131	-4.45
281.344	-5.57
281.558	-4.95
281.772	-7.9
281.986	-9.68
282.2	-13.2
282.414	-10.33
282.627	-9.11
282.841	-8.09
283.055	-6.22
283.269	-10.91
283.482	-8.88
283.696	-7.51
283.91	-7.14
284.123	-3.92
284.337	-3.72
284.551	-2.69
284.764	-4.72
284.978	-6.46
285.192	-5.88
285.405	-8.03
285.619	-4.97
285.833	-8.06
286.046	-6.31
286.26	-9.54
286.473	-12.37
286.687	-13.22
286.9	-14.64
287.114	-12.53
287.327	-13.25
287.541	-10.09
287.754	-8.96
287.968	-8.92
288.181	-7.69
288.395	-9.51
288.608	-6.96
288.822	-7.21
289.035	-5.9
289.248	-7.19
289.462	-6.46
289.675	-3.68
289.889	-5.58
290.102	-4.28
290.315	-5.19
290.529	-4.11
290.742	-2.55
290.955	-3.24
291.169	-2.63
291.382	-1.09
291.595	-2.87
291.808	-4.23
292.022	0.71
292.235	-0.22
292.448	0.85
292.661	1.08
292.875	1.79
293.088	-3.27
293.301	-0.73
293.514	-2.3
293.727	-4.51
293.94	-3.89
294.153	-1.61
294.367	-7.43
294.58	-5.66
294.793	-4.46
295.006	-3.45
295.219	-6.13
295.432	-2.8
295.645	-3.73
295.858	-1.4
296.071	-0.81
296.284	-2.35
296.497	-3.34
296.71	-1.84
296.923	-1.96
297.136	-3.13
297.349	-2.78
297.562	-1.22
297.775	-3.59
297.988	-4.06
298.201	-5
298.414	-4.74
298.626	-0.85
298.839	-1.31
299.052	-1.75
299.265	-1.59
299.478	-3.28
299.691	-8.45
299.903	-10.65
300.116	-8.4
300.329	-10.77
300.542	-10.62
300.755	-11.21
300.967	-15.03
301.18	-17.34
301.393	-14.78
301.605	-16.4
301.818	-15.11
302.031	-14.75
302.243	-14.02
302.456	-14.05
302.669	-9.75
302.881	-9.98
303.094	-8.96
303.307	-7.66
303.519	-8.41
303.732	-10.26
303.944	-13.41
304.157	-13.24
304.37	-11.29
304.582	-7.64
304.795	-8
305.007	-11.11
305.22	-6.83
305.432	-6.92
305.645	-8.1
305.857	-5.67
306.069	-7.88
306.282	-5.89
306.494	-6.97
306.707	-5.27
306.919	-6.75
307.132	-4.89
307.344	-4.48
307.556	-6.44
307.769	-5.56
307.981	-3.73
308.193	-1.99
308.406	0.1
308.618	-0.28
308.83	-0.1
309.043	1.25
309.255	-0.43
309.467	-2.87
309.679	-2.43
309.892	-4.67
310.104	-5.34
310.316	-2.74
310.528	-4.79
310.74	-4.6
310.953	-4.21
311.165	-5.79
311.377	-7.52
311.589	-7.14
311.801	-7.88
312.013	-6.51
312.225	-6.7
312.437	-8.29
312.649	-11.78
312.862	-12.88
313.074	-13.65
313.286	-14.01
313.498	-11.62
313.71	-15.43
313.922	-14.82
314.134	-9.93
314.346	-12.65
314.558	-13.92
314.77	-12.42
314.982	-8.73
315.193	-5.14
315.405	-7.26
315.617	-8.68
315.829	-6.64
316.041	-3.66
316.253	-2.06
316.465	-6.65
316.677	-6.28
316.888	-4.08
317.1	-6.22
317.312	-10.96
317.524	-11.99
317.736	-10.18
317.947	-9.52
318.159	-16.07
318.371	-15.67
318.583	-19.75
318.794	-17.77
319.006	-16.29
319.218	-12.84
319.43	-9.95
319.641	-10.94
319.853	-15.97
320.064	-16.36
320.276	-15.17
320.488	-10.55
320.699	-7.83
320.911	-5.64
321.123	-5.62
321.334	-4.37
321.546	-7.18
321.757	-7.62
321.969	-7.4
322.18	-6.47
322.392	-6.6
322.603	-6.86
322.815	-7.51
323.026	-9.93
323.238	-11.73
323.449	-11.56
323.661	-13.07
323.872	-11.64
324.083	-13.46
324.295	-11.28
324.506	-6.85
324.718	-6.61
324.929	-4.18
325.14	-4.84
325.352	-5.43
325.563	-3.37
325.774	-5.86
325.986	-8.29
326.197	-8.62
326.408	-7.18
326.62	-8.18
326.831	-10.96
327.042	-11.17
327.253	-13.9
327.464	-11.63
327.676	-12.13
327.887	-13.61
328.098	-12.12
328.309	-12.01
328.52	-12.7
328.732	-13.06
328.943	-10.12
329.154	-6.44
329.365	-8.16
329.576	-6.24
329.787	-5.17
329.998	-5.72
330.209	-3.88
330.42	-3.47
330.631	-1.47
330.842	-1.32
331.053	-1.45
331.264	-3.14
331.475	-5.52
331.686	-2.55
331.897	-2.57
332.108	-4.95
332.319	-2.94
332.53	-3.21
332.741	-2.97
332.952	-1.47
333.163	-0.8
333.374	0.72
333.585	-1.45
333.795	-3.32
334.006	-4.54
334.217	-6.47
334.428	-6.9
334.639	-6.53
334.849	-8.14
335.06	-6.7
335.271	-9.89
335.482	-10.96
335.692	-11.14
335.903	-4.93
336.114	-5.54
336.325	-6.13
336.535	-6.47
336.746	-8.06
336.957	-7.6
337.167	-4.06
337.378	-5.51
337.589	-3.67
337.799	-2.77
338.01	-4.13
338.22	-9.38
338.431	-9.94
338.642	-10.74
338.852	-7.94
339.063	-5.38
339.273	-7.22
339.484	-10.23
339.694	-9.16
339.905	-7.31
340.115	-6.19
340.326	-6.39
340.536	-2.68
340.746	-0.47
340.957	-0.13
341.167	1.25
341.378	1.49
341.588	5
341.799	4.43
342.009	3.91
342.219	1.11
342.43	0.9
342.64	2.49
342.85	0.22
343.061	3.01
343.271	1.61
343.481	-0.01
343.691	-0.66
343.902	-2.04
344.112	-0.5
344.322	-2.34
344.532	-2.42
344.743	-1.73
344.953	-3.15
345.163	-2.26
345.373	-4.1
345.583	-2.87
345.793	-2.33
346.004	-1.93
346.214	-3.72
346.424	-3.84
346.634	-0.82
346.844	-1.6
347.054	-4.34
347.264	-4.6
347.474	-4.61
347.684	-6.03
347.894	-4.15
348.104	-5.39
348.314	-4.63
348.524	-3
348.734	-2.28
348.944	-1.8
349.154	0.29
349.364	1.37
349.574	3.14
349.784	3.81
349.994	2.43
350.204	0.65
350.413	1.66
350.623	1.42
350.833	0.37
351.043	0.33
351.253	-0.22
351.463	0.07
351.672	0.74
351.882	1.2
352.092	-0.24
352.302	1.95
352.511	2.21
352.721	1.51
352.931	2.15
353.141	0.44
353.35	-0.54
353.56	-1
353.77	-1.83
353.979	-0.54
354.189	-1.09
354.399	0.6
354.608	1.25
354.818	2.63
355.027	2.61
355.237	1.69
355.447	4.45
355.656	5.09
355.866	6.04
356.075	5.91
356.285	3.01
356.494	1.64
356.704	0.2
356.913	0.55
357.123	1.29
357.332	1.14
357.542	0.66
357.751	0.5
357.96	-0.32
358.17	-2.58
358.379	-2.25
358.589	-0.84
358.798	-0.91
359.007	0.68
359.217	1.17
359.426	1.79
359.635	3.12
359.845	4.89
360.054	5.03
360.263	6.26
360.472	7.94
360.682	7.81
360.891	7.71
361.1	8
361.309	7.97
361.519	6.89
361.728	5.36
361.937	4.72
362.146	3.79
362.355	1.91
362.564	0.15
362.774	0.1
362.983	-0.07
363.192	0.63
363.401	1.36
363.61	0.52
363.819	1.07
364.028	0.91
364.237	0.54
364.446	-1.38
364.655	-0.2
364.864	0.88
365.073	-0.55
365.282	-0.42
365.491	-0.23
365.7	-1.78
365.909	-3.16
366.118	-3.87
366.327	-3.2
366.536	-2.07
366.745	-0.65
366.954	-0.41
367.162	-0.54
367.371	-1.42
367.58	-1.84
367.789	-2.62
367.998	-0.79
368.207	0.14
368.415	-0.89
368.624	-0.45
368.833	-1.29
369.042	-1
369.25	-0.81
369.459	-0.25
369.668	2.49
369.877	3.92
370.085	4.31
370.294	4.32
370.503	4.43
370.711	6.5
370.92	5.1
371.129	4.67
371.337	4.2
371.546	3.13
371.754	2.77
371.963	0.22
372.171	-1.06
372.38	-1.52
372.589	-4.54
372.797	-5.35
373.006	-5.73
373.214	-5.57
373.423	-7.09
373.631	-7.24
373.84	-5.91
374.048	-6.92
374.256	-4.91
374.465	-5
374.673	-4.26
374.882	-2.09
375.09	0.17
375.298	1.16
375.507	2.04
375.715	2.93
375.923	3.3
376.132	2.65
376.34	3.09
376.548	1.78
376.757	1.44
376.965	2.1
377.173	2.87
377.381	1.75
377.59	0.6
377.798	0.56
378.006	-0.11
378.214	-0.53
378.423	0.81
378.631	1.93
378.839	3.49
379.047	5.11
379.255	2.26
379.463	2.35
379.671	1.2
379.879	1.11
380.088	0.08
380.296	0.46
380.504	1.75
380.712	-0.05
380.92	-1.67
381.128	-2.21
381.336	-3.13
381.544	-2.48
381.752	-2.73
381.96	-1.13
382.168	-1.63
382.376	0.42
382.584	0.9
382.791	-0.26
382.999	-0.54
383.207	-0.6
383.415	-0.83
383.623	-2.06
383.831	-1.56
384.039	-1.97
384.247	-2.26
384.454	-2.29
384.662	-5.19
384.87	-3.52
385.078	-2.7
385.285	-2.51
385.493	-1.89
385.701	-1.33
385.909	0.5
386.116	1.39
386.324	0.65
386.532	0.2
386.739	0.36
386.947	1.6
387.155	0.09
387.362	0.37
387.57	0.32
387.778	-0.02
387.985	-0.75
388.193	-0.8
388.4	-1.72
388.608	-0.56
388.816	1.42
389.023	1.71
389.231	1.57
389.438	3.55
389.646	2.27
389.853	3.56
390.061	4.56
390.268	4.51
390.475	3.17
390.683	1.92
390.89	1.94
391.098	0.97
391.305	0.89
391.512	0.59
391.72	-0.54
391.927	-0.11
392.135	-0.24
392.342	0.16
392.549	0.54
392.756	0.71
392.964	1.88
393.171	1.42
393.378	1.36
393.586	1.56
393.793	1.58
394	1.71
394.207	1.88
394.414	1.23
394.622	-0.41
394.829	-1.07
395.036	-0.98
395.243	-1.19
395.45	-0.18
395.657	-1.03
395.864	-1.43
396.072	0.06
396.279	-0.77
396.486	-1.05
396.693	-0.39
396.9	0.68
397.107	0.24
397.314	0.1
397.521	0.35
397.728	-0.12
397.935	0.46
398.142	0.08
398.349	-2.47
398.556	-1.3
398.763	-0.47
398.97	-0.92
399.177	-1.38
399.383	-0.9
399.59	-0.68
399.797	-0.52
400.004	-1.96
400.211	-2.29
400.418	-2.76
400.625	0.07
400.831	-0.72
401.038	-0.23
401.245	-0.57
401.452	-0.27
401.658	-0.29
401.865	0.37
402.072	1.07
402.279	1.82
402.485	2.77
402.692	3.95
402.899	2.14
403.105	2.92
403.312	3.35
403.519	4.8
403.725	4.68
403.932	5.46
404.138	5.93
404.345	4.94
404.552	4.76
404.758	4.26
404.965	4.1
405.171	5.2
405.378	4.49
405.584	2.91
405.791	1.35
405.997	0.79
406.204	0.94
406.41	0.9
406.617	1.83
406.823	2.72
407.029	2.94
407.236	3
407.442	2.23
407.649	2.64
407.855	3.9
408.061	4.76
408.268	4.85
408.474	4.43
408.68	3.04
408.887	3.43
409.093	2.55
409.299	2.78
409.505	2.96
409.712	3.42
409.918	3.83
410.124	3.01
410.33	2.2
410.537	2.91
410.743	3.29
410.949	2.82
411.155	2.18
411.361	2.46
411.567	1.74
411.773	1.46
411.98	0.46
412.186	-1.48
412.392	-1.7
412.598	-1.7
412.804	-1.46
413.01	-1.97
413.216	-1.41
413.422	-1.38
413.628	-1.08
413.834	-1.52
414.04	-1.29
414.246	-0.31
414.452	1.52
414.658	1.55
414.864	2.16
415.07	2.53
415.275	2.33
415.481	3.1
415.687	2.76
415.893	2.87
416.099	2.97
416.305	2.98
416.511	3
416.716	2.48
416.922	2.54
417.128	2.28
417.334	1.94
417.539	2.19
417.745	1.59
417.951	1.85
418.157	1.84
418.362	2.64
418.568	3
418.774	3.06
418.979	3.38
419.185	3.82
419.391	4.17
419.596	4.16
419.802	4.14
420.008	5.1
420.213	4.94
420.419	5.15
420.624	5.03
420.83	4.84
421.035	5.12
421.241	5.03
421.446	4.74
421.652	4.59
421.857	5.05
422.063	5.04
422.268	4.47
422.474	4.99
422.679	4.76
422.885	5.03
423.09	4.59
423.295	4.73
423.501	4.66
423.706	4.97
423.911	5.22
424.117	4.79
424.322	4.8
424.527	5.08
424.733	4.8
424.938	4.83
425.143	4.88
425.349	5.51
425.554	5.35
425.759	5.22
425.964	4.96
426.169	4.71
426.375	4.57
426.58	4.61
426.785	4.09
426.99	3.66
427.195	3.91
427.4	3.13
427.605	2.65
427.811	2.43
428.016	2.36
428.221	2.83
428.426	2.68
428.631	2.57
428.836	2.81
429.041	2.95
429.246	3.67
429.451	3.6
429.656	4.04
429.861	4.21
430.066	3.51
430.271	4.05
430.476	4.27
430.681	4.74
430.886	5.26
431.09	5
431.295	5.51
431.5	5.48
431.705	5.31
431.91	4.81
432.115	5.13
432.32	5.54
432.524	5.53
432.729	4.79
432.934	4.28
433.139	3.43
433.343	3.81
433.548	3.52
433.753	3.25
433.958	3.52
434.162	3.91
434.367	3.96
434.572	3.76
434.776	4.4
434.981	4.48
435.186	4.98
435.39	6.17
435.595	5.8
435.799	5.38
436.004	5.31
436.209	5.21
436.413	4.52
436.618	4.47
436.822	5.02
437.027	4.38
437.231	3.93
437.436	3.82
437.64	3.49
437.845	3.27
438.049	4.12
438.253	4.04
438.458	3.61
438.662	4.05
438.867	3.67
439.071	3.48
439.275	3.63
439.48	4.12
439.684	4.3
439.888	4.54
440.093	5.37
440.297	4.97
440.501	5.07
440.706	5.67
440.91	5.51
441.114	5.74
441.318	5.62
441.523	5.05
441.727	5.23
441.931	4.93
442.135	4.77
442.339	4
442.543	4.08
442.748	3.63
442.952	2.9
443.156	3.51
443.36	3.16
443.564	3.29
443.768	3.69
443.972	3.34
444.176	4
444.38	4.05
444.584	4.25
444.788	4.29
444.992	5.27
445.196	5.58
445.4	5.42
445.604	5.51
445.808	5.39
446.012	5.12
446.216	5.35
446.42	5.34
446.624	5.03
446.828	5.09
447.032	5.24
447.235	4.79
447.439	4.73
447.643	4.52
447.847	4.5
448.051	4.57
448.254	4.49
448.458	4.25
448.662	3.64
448.866	3.66
449.069	3.55
449.273	3.02
449.477	3.24
449.681	2.59
449.884	2.62
450.088	2.69
450.292	2.19
450.495	2.85
450.699	2.81
450.902	2.74
451.106	3.27
451.31	2.72
451.513	3.15
451.717	2.47
451.92	3.13
452.124	2.96
452.327	2.96
452.531	3.22
452.734	2.88
452.938	2.2
453.141	2.56
453.345	2.03
453.548	2.75
453.752	1.96
453.955	2.81
454.158	2.91
