Data from JASIL_3273_Reflection_2.txt Node
Date: Tue Nov 17 19:02:55 EST 2015
User: Geneva
Spectrometer: USB4E03002
Autoset integration time: false
Trigger mode: 4
Integration Time (sec): 1.000000E-1
Scans to average: 10
Electric dark correction enabled: false
Nonlinearity correction enabled: false
Boxcar width: 5
Stray light correction enabled: false
XAxis mode: Wavelengths
Stop averaging: false
Number of Pixels in Spectrum: 3648
>>>>>Begin Spectral Data<<<<<
177.575	360.27
177.794	315.45
178.014	393.25
178.233	281.25
178.452	317.58
178.672	380.63
178.891	405.83
179.11	451.52
179.33	527.94
179.549	565.17
179.768	470.74
179.987	517.66
180.207	618.03
180.426	549.13
180.645	839.67
180.864	949.64
181.084	1358.71
181.303	-138400
181.522	-3418.67
181.741	-2485.44
181.96	-892.77
182.179	-808.36
182.398	-1109.48
182.618	-2433.64
182.837	-7997.06
183.056	-3960.87
183.275	2864.29
183.494	1176.32
183.713	1127.95
183.932	708.33
184.151	708.16
184.37	564.87
184.589	548.66
184.808	689.43
185.027	763.66
185.246	1402.44
185.465	1386.43
185.684	1898.64
185.903	4160.29
186.122	1951.06
186.341	-5346.94
186.56	-1016.53
186.779	-1089.86
186.998	-1002.24
187.216	-1332.18
187.435	-755.91
187.654	-625.72
187.873	-659.79
188.092	-570.02
188.311	-1104.8
188.53	-3584.72
188.748	-4361.9
188.967	1470.31
189.186	-3910.96
189.405	11353.85
189.623	-285300
189.842	1728.57
190.061	841.86
190.28	1143.75
190.498	1309.82
190.717	10281.48
190.936	291500
191.154	3346.51
191.373	3092.63
191.592	1201.72
191.81	1189.27
192.029	1159.43
192.248	-1875
192.466	-1521.79
192.685	-1158.15
192.904	-1160
193.122	-1937.21
193.341	-1440
193.559	-1126.82
193.778	-1019.92
193.996	-2505.5
194.215	-4383.08
194.433	-2612.96
194.652	1322.77
194.87	1522.92
195.089	1101.53
195.307	3609.88
195.526	-99233.33
195.744	315900
195.963	-3462.79
196.181	-1473.98
196.399	-818.02
196.618	-647.5
196.836	-1325
197.055	-1130.42
197.273	-3644
197.491	-1503.68
197.71	-2131.82
197.928	5791.84
198.146	-3725.71
198.365	-2314.16
198.583	11375
198.801	17018.75
199.019	-5472.55
199.238	-2639.05
199.456	9510
199.674	-1939.73
199.892	4033.78
200.111	-2731.13
200.329	-1435.61
200.547	-7834.21
200.765	1655.98
200.983	-35862.5
201.202	-8466.67
201.42	134050
201.638	-2413.46
201.856	-658.11
202.074	-601.4
202.292	-460.23
202.51	-810.71
202.728	-852.03
202.946	-848.37
203.165	-711.92
203.383	-1207.31
203.601	-1092.59
203.819	-880.92
204.037	-953.5
204.255	-11225
204.473	2152.89
204.691	1283.96
204.909	1382.93
205.127	1170.59
205.345	2423.21
205.562	-4095.08
205.78	-15600
205.998	2161.02
206.216	2048.06
206.434	2062.6
206.652	11330.43
206.87	4894
207.088	-4070.69
207.306	10439.13
207.523	-13635.29
207.741	13664.71
207.959	2070
208.177	2231.9
208.395	2005.26
208.612	-5234.69
208.83	4517.74
209.048	1896.05
209.266	2487.18
209.483	1455.02
209.701	1193.51
209.919	1514.08
210.136	932
210.354	1481.48
210.572	1537.07
210.79	-60420
211.007	1576.77
211.225	3184.95
211.442	2110.29
211.66	1396.62
211.878	2547.66
212.095	7189.47
212.313	5061.11
212.53	-1729.53
212.748	8318.18
212.966	-2022.05
213.183	-6397.5
213.401	-2385.45
213.618	53920
213.836	-2004.48
214.053	-1413
214.271	-1143.65
214.488	-1039.92
214.705	-1947.01
214.923	-2527.03
215.14	-3489.87
215.358	-5500
215.575	29360
215.793	-3314.1
216.01	-1568.15
216.227	-1045.99
216.445	-788.89
216.662	-2788.76
216.879	-1829.17
217.097	-1172.9
217.314	-1133.65
217.531	-1225.94
217.749	5103.7
217.966	7046.15
218.183	691.32
218.4	862.06
218.618	614.53
218.835	655.83
219.052	626.58
219.269	470.32
219.487	458.31
219.704	438.69
219.921	386.22
220.138	610.95
220.355	642.41
220.572	1080.62
220.79	688.01
221.007	731.11
221.224	478.91
221.441	503
221.658	616.99
221.875	672.43
222.092	674.87
222.309	674.93
222.526	405.78
222.743	378.03
222.96	409.7
223.177	460.8
223.394	372.66
223.611	484.05
223.828	531.47
224.045	415.77
224.262	413
224.479	345.33
224.696	339.41
224.913	424.45
225.13	463.99
225.347	500.17
225.564	379.18
225.781	427.18
225.997	368.69
226.214	261.71
226.431	227.35
226.648	202.28
226.865	181.54
227.082	155.31
227.298	128.43
227.515	114.57
227.732	110.21
227.949	110.62
228.165	101.75
228.382	95.73
228.599	102.54
228.816	110.97
229.032	113.52
229.249	116.31
229.466	126.18
229.682	132.93
229.899	143.69
230.116	155.45
230.332	163.49
230.549	178.48
230.765	206.17
230.982	195.46
231.199	191.52
231.415	201.04
231.632	234.17
231.848	232.7
232.065	248.54
232.281	248.47
232.498	232.08
232.714	210.16
232.931	216.66
233.147	194.05
233.364	192.5
233.58	193.72
233.797	200.45
234.013	186.41
234.23	175.8
234.446	172.32
234.662	153.24
234.879	153
235.095	163.33
235.312	159.08
235.528	174.92
235.744	180.89
235.961	188.4
236.177	176.13
236.393	190.37
236.61	200.13
236.826	208.83
237.042	229.36
237.258	234.76
237.475	212.19
237.691	219.31
237.907	193.1
238.123	193.96
238.339	178.5
238.556	160.58
238.772	149.65
238.988	138.29
239.204	128.36
239.42	121.37
239.636	113.62
239.853	108.15
240.069	95.16
240.285	87.28
240.501	81.66
240.717	77.98
240.933	70.62
241.149	64.71
241.365	63.33
241.581	60.2
241.797	62.48
242.013	61.85
242.229	59.54
242.445	66.68
242.661	68.14
242.877	68.5
243.093	70.27
243.309	73.48
243.525	79.03
243.741	80.16
243.957	80.75
244.173	73.85
244.388	70.08
244.604	66.92
244.82	60.56
245.036	56.36
245.252	52.38
245.468	49.17
245.683	45.93
245.899	43.55
246.115	41.66
246.331	40.48
246.547	39.38
246.762	38.5
246.978	38.95
247.194	40.43
247.409	41.63
247.625	43.79
247.841	45.56
248.057	50.74
248.272	54.68
248.488	63.37
248.703	65.68
248.919	73.12
249.135	79.35
249.35	81.1
249.566	81.62
249.782	79.98
249.997	82.65
250.213	83.46
250.428	78.61
250.644	77
250.859	72.75
251.075	73.34
251.29	70.45
251.506	72.05
251.721	73.02
251.937	71.05
252.152	74.57
252.368	77.33
252.583	83.95
252.798	92.66
253.014	97.53
253.229	103.4
253.445	106.52
253.66	120
253.875	119.78
254.091	117.7
254.306	122.14
254.521	128.04
254.737	123.15
254.952	114.74
255.167	109.46
255.383	104.25
255.598	100.07
255.813	99.13
256.028	89.16
256.244	89.56
256.459	85.63
256.674	78.94
256.889	75.69
257.104	67.23
257.32	59.93
257.535	51.67
257.75	50.62
257.965	46.69
258.18	42.62
258.395	39.43
258.61	35.56
258.826	33.07
259.041	31.17
259.256	29.42
259.471	30.34
259.686	30.96
259.901	31.93
260.116	31.88
260.331	31.87
260.546	32.6
260.761	34.62
260.976	37.71
261.191	42.49
261.406	47.11
261.621	53.28
261.836	54.14
262.05	55.76
262.265	58.3
262.48	58.28
262.695	61.79
262.91	65.1
263.125	69.22
263.34	72.76
263.555	72.05
263.769	68.61
263.984	65.19
264.199	64.77
264.414	65.78
264.629	71.31
264.843	70.18
265.058	66.43
265.273	63.35
265.488	59.62
265.702	56.21
265.917	53.8
266.132	54.01
266.346	53.52
266.561	52.61
266.776	49.24
266.99	45.09
267.205	44.99
267.42	47.29
267.634	46.6
267.849	45.7
268.063	47.2
268.278	47.67
268.492	48.42
268.707	45.98
268.922	45.92
269.136	44.07
269.351	43.03
269.565	40.53
269.78	40.34
269.994	40.3
270.209	41.78
270.423	41.16
270.637	40.35
270.852	38.77
271.066	40.74
271.281	41.2
271.495	41.86
271.709	41.54
271.924	42.74
272.138	40.65
272.353	40.51
272.567	40.34
272.781	39.28
272.996	41.04
273.21	42.02
273.424	40.77
273.638	41.79
273.853	42.36
274.067	43.26
274.281	43.89
274.495	45.39
274.71	45.69
274.924	46.09
275.138	47.11
275.352	45.47
275.566	44.64
275.781	44.31
275.995	43.01
276.209	46.34
276.423	45.41
276.637	43.78
276.851	43.34
277.065	41.86
277.279	42.29
277.493	44.43
277.707	49.54
277.921	48.28
278.135	49.68
278.349	49.82
278.563	48.17
278.777	48.33
278.991	48.16
279.205	48.46
279.419	50.41
279.633	49.43
279.847	45.04
280.061	40.89
280.275	41.23
280.489	40.58
280.703	38.92
280.917	38.89
281.131	39.03
281.344	40.73
281.558	40.15
281.772	39.38
281.986	38.14
282.2	38.71
282.414	37.27
282.627	38
282.841	38.33
283.055	38.09
283.269	37.65
283.482	37.75
283.696	36.25
283.91	35.66
284.123	34.16
284.337	34.49
284.551	34.3
284.764	33.9
284.978	34.31
285.192	32.71
285.405	33.22
285.619	32.08
285.833	31.93
286.046	32.53
286.26	32.81
286.473	33.32
286.687	32.81
286.9	34.55
287.114	36.35
287.327	34.86
287.541	36.12
287.754	36.42
287.968	36.61
288.181	36.18
288.395	35.51
288.608	35.25
288.822	35.53
289.035	35.15
289.248	33.69
289.462	32.19
289.675	32.5
289.889	32.69
290.102	32.76
290.315	33.62
290.529	32.61
290.742	33.5
290.955	35.09
291.169	33.69
291.382	35.09
291.595	34.58
291.808	35.99
292.022	36.64
292.235	36.27
292.448	34.52
292.661	32.31
292.875	32.44
293.088	30.93
293.301	30.2
293.514	30.65
293.727	28.89
293.94	29.73
294.153	29.41
294.367	29
294.58	27.59
294.793	27.14
295.006	27.33
295.219	27.51
295.432	27.47
295.645	26.04
295.858	26.57
296.071	26.6
296.284	26.6
296.497	25.38
296.71	25.13
296.923	25.77
297.136	25.81
297.349	26.6
297.562	27.33
297.775	28.74
297.988	30.02
298.201	30.4
298.414	30.92
298.626	30.43
298.839	31.45
299.052	32.16
299.265	33.67
299.478	33.79
299.691	33.31
299.903	32.45
300.116	32.31
300.329	31.72
300.542	30.5
300.755	30.21
300.967	30.8
301.18	31.46
301.393	31.65
301.605	30.41
301.818	31.62
302.031	32.82
302.243	33.3
302.456	32.35
302.669	31.81
302.881	34.22
303.094	34.54
303.307	34.27
303.519	34.65
303.732	34.68
303.944	34.4
304.157	34.94
304.37	34.93
304.582	35.17
304.795	34.79
305.007	37.25
305.22	35.09
305.432	36.05
305.645	36.73
305.857	35.27
306.069	34.35
306.282	34.34
306.494	34.12
306.707	33.36
306.919	31.23
307.132	32.4
307.344	29.81
307.556	30.6
307.769	30.08
307.981	30.24
308.193	30.95
308.406	30.84
308.618	30.19
308.83	29.51
309.043	28.81
309.255	29.65
309.467	29.09
309.679	28.72
309.892	28.92
310.104	28.2
310.316	27.14
310.528	25.86
310.74	25.84
310.953	27.13
311.165	26.9
311.377	27.66
311.589	28.94
311.801	28
312.013	28.93
312.225	28.85
312.437	29.9
312.649	31.42
312.862	32.4
313.074	32.87
313.286	33.42
313.498	34.28
313.71	34.16
313.922	32.39
314.134	33.62
314.346	33.39
314.558	34.36
314.77	34.97
314.982	35.13
315.193	34.7
315.405	35.55
315.617	32.51
315.829	32.2
316.041	31.84
316.253	32.24
316.465	32.23
316.677	32.64
316.888	32.27
317.1	32.8
317.312	32.18
317.524	33.07
317.736	34.3
317.947	38.31
318.159	39.82
318.371	40.08
318.583	41.67
318.794	42.82
319.006	44.21
319.218	44.73
319.43	45.15
319.641	45.96
319.853	46.39
320.064	44.3
320.276	44.88
320.488	43.89
320.699	46.11
320.911	46.87
321.123	47.24
321.334	48.29
321.546	48.64
321.757	47.63
321.969	48.37
322.18	49.11
322.392	50.82
322.603	48.67
322.815	48.88
323.026	48.25
323.238	47.31
323.449	47.55
323.661	45.1
323.872	45.92
324.083	45.12
324.295	44.75
324.506	45.07
324.718	43.57
324.929	45.64
325.14	46.78
325.352	46.65
325.563	46.97
325.774	46.1
325.986	48.45
326.197	48.15
326.408	48.97
326.62	47.26
326.831	47.18
327.042	48.39
327.253	48.28
327.464	47.94
327.676	48.37
327.887	48.28
328.098	51.24
328.309	51.63
328.52	52.13
328.732	53.97
328.943	56.13
329.154	56.28
329.365	57.15
329.576	56.47
329.787	58.13
329.998	58.51
330.209	59.66
330.42	57.59
330.631	57.7
330.842	57.4
331.053	57.77
331.264	57.93
331.475	58.13
331.686	57.94
331.897	59.03
332.108	58.2
332.319	59.9
332.53	60.74
332.741	61.55
332.952	60.74
333.163	59.74
333.374	57.47
333.585	58.12
333.795	58.65
334.006	59.58
334.217	58.53
334.428	57.94
334.639	57.12
334.849	57.05
335.06	55.91
335.271	56.29
335.482	56.77
335.692	57.32
335.903	55.81
336.114	55.22
336.325	55.12
336.535	56.54
336.746	56.78
336.957	57.99
337.167	58.19
337.378	58.49
337.589	59.09
337.799	58.95
338.01	60.63
338.22	61.95
338.431	62.66
338.642	61.77
338.852	60.01
339.063	61.14
339.273	59.63
339.484	57.49
339.694	57.37
339.905	56.33
340.115	56.83
340.326	54.89
340.536	54.4
340.746	53.29
340.957	53.99
341.167	55.15
341.378	54.57
341.588	55.35
341.799	56.43
342.009	57.53
342.219	58.39
342.43	58.19
342.64	59.19
342.85	59.56
343.061	60
343.271	58.51
343.481	57.37
343.691	57.23
343.902	55.82
344.112	56.25
344.322	54.39
344.532	53.72
344.743	53.74
344.953	53.6
345.163	52.81
345.373	52.3
345.583	53.04
345.793	53.13
346.004	53.27
346.214	54.2
346.424	52.94
346.634	54.33
346.844	54.16
347.054	53.68
347.264	54.57
347.474	55.7
347.684	55.89
347.894	54.86
348.104	54.4
348.314	53.44
348.524	53.78
348.734	54.07
348.944	52.8
349.154	53.82
349.364	53.5
349.574	52.31
349.784	52.01
349.994	52.95
350.204	54.86
350.413	55.29
350.623	55.52
350.833	55
351.043	55.18
351.253	55.85
351.463	54.42
351.672	54.28
351.882	53.62
352.092	52.16
352.302	51.2
352.511	49.42
352.721	48.39
352.931	48.99
353.141	47.73
353.35	47.04
353.56	46.84
353.77	46.32
353.979	47.53
354.189	48.12
354.399	48.92
354.608	46.99
354.818	46.92
355.027	48.42
355.237	47.23
355.447	47.84
355.656	47.75
355.866	47.85
356.075	48.66
356.285	47.22
356.494	47.29
356.704	46.56
356.913	47.59
357.123	48.22
357.332	47.29
357.542	47.76
357.751	47.1
357.96	47.26
358.17	46.81
358.379	46.22
358.589	46.99
358.798	46.94
359.007	46.88
359.217	46.97
359.426	46.23
359.635	45.93
359.845	45.07
360.054	45.12
360.263	44.78
360.472	43.96
360.682	43.89
360.891	43.11
361.1	42.13
361.309	42.1
361.519	41.9
361.728	41.86
361.937	42.33
362.146	42.52
362.355	43.51
362.564	42.96
362.774	43.45
362.983	43.77
363.192	44.1
363.401	44.67
363.61	44.54
363.819	44.32
364.028	43.93
364.237	43.78
364.446	44.31
364.655	43.02
364.864	44.06
365.073	44.31
365.282	44.27
365.491	43.23
365.7	43.32
365.909	43.6
366.118	44.64
366.327	45.23
366.536	45.64
366.745	45.35
366.954	46.98
367.162	46.33
367.371	45.71
367.58	46.17
367.789	47.54
367.998	46.55
368.207	47.53
368.415	46.42
368.624	46.64
368.833	45.44
369.042	45.88
369.25	45.83
369.459	46.84
369.668	47.01
369.877	46.65
370.085	47.05
370.294	47.55
370.503	47.42
370.711	47.24
370.92	46.69
371.129	47.8
371.337	47.45
371.546	46.12
371.754	45.81
371.963	46.42
372.171	46.67
372.38	46.61
372.589	47.92
372.797	47.66
373.006	48.18
373.214	48.21
373.423	47.01
373.631	47.5
373.84	48.16
374.048	47.46
374.256	47.26
374.465	46.56
374.673	45.49
374.882	44.68
375.09	44
375.298	43.21
375.507	43.77
375.715	44.04
375.923	43.86
376.132	42.97
376.34	42.93
376.548	41.61
376.757	40.92
376.965	40.77
377.173	40.36
377.381	40.49
377.59	40.81
377.798	40.11
378.006	39.81
378.214	39.54
378.423	40.1
378.631	39.84
378.839	40.68
379.047	41.74
379.255	42.63
379.463	42.81
379.671	42.32
379.879	43.01
380.088	43.33
380.296	43.48
380.504	42.71
380.712	42.19
380.92	42.63
381.128	41.87
381.336	40.83
381.544	40.88
381.752	40.79
381.96	41.22
382.168	40.62
382.376	40.22
382.584	40.8
382.791	40.82
382.999	41.32
383.207	40.84
383.415	41.67
383.623	42.03
383.831	41.78
384.039	41.65
384.247	41.34
384.454	41.2
384.662	41.45
384.87	40.18
385.078	40.2
385.285	39.71
385.493	39.63
385.701	39.71
385.909	39.39
386.116	39.15
386.324	38.44
386.532	38.38
386.739	38.68
386.947	38.91
387.155	38.95
387.362	39.37
387.57	39.07
387.778	38.81
387.985	38.39
388.193	39.39
388.4	39.39
388.608	40
388.816	40.06
389.023	39.32
389.231	38.18
389.438	37.73
389.646	37.59
389.853	37.14
390.061	37.17
390.268	37.04
390.475	36.08
390.683	35.66
390.89	35.23
391.098	34.92
391.305	35.2
391.512	35.3
391.72	36.27
391.927	35.68
392.135	35.74
392.342	35.92
392.549	35.72
392.756	35.72
392.964	35.49
393.171	35.53
393.378	35.65
393.586	35.13
393.793	35.86
394	35.48
394.207	35.34
394.414	35.27
394.622	34.67
394.829	34.84
395.036	35.14
395.243	35.1
395.45	35.06
395.657	34.58
395.864	34.92
396.072	34.4
396.279	34.53
396.486	34.96
396.693	35.39
396.9	35.25
397.107	35.38
397.314	35.18
397.521	34.95
397.728	35.22
397.935	35.99
398.142	35.76
398.349	35.5
398.556	35.25
398.763	34.85
398.97	34.52
399.177	34.91
399.383	34.71
399.59	34.75
399.797	35.26
400.004	34.92
400.211	34.03
400.418	34.47
400.625	34.58
400.831	35.03
401.038	34.94
401.245	35.01
401.452	34.86
401.658	35.02
401.865	35.09
402.072	35.17
402.279	35.1
402.485	35.31
402.692	34.22
402.899	34.14
403.105	33.09
403.312	33.34
403.519	33.06
403.725	32.74
403.932	32.33
404.138	31.59
404.345	31.43
404.552	31.45
404.758	31.95
404.965	32.04
405.171	31.5
405.378	32.01
405.584	31.87
405.791	31.56
405.997	32.03
406.204	32.47
406.41	32.71
406.617	32.61
406.823	32.76
407.029	31.97
407.236	31.75
407.442	31.48
407.649	32.02
407.855	31.41
408.061	31.9
408.268	31.77
408.474	31.28
408.68	31.88
408.887	31.73
409.093	30.87
409.299	30.81
409.505	31.91
409.712	32.21
409.918	31.62
410.124	31.98
410.33	31.95
410.537	32.14
410.743	32.04
410.949	31.31
411.155	31.26
411.361	31.53
411.567	31.92
411.773	31.35
411.98	32.27
412.186	32.32
412.392	32.38
412.598	31.84
412.804	31.94
413.01	31.84
413.216	32.17
413.422	32.08
413.628	32.02
413.834	31.72
414.04	31.88
414.246	30.77
414.452	30.34
414.658	30.54
414.864	30.17
415.07	29.54
415.275	29.22
415.481	28.47
415.687	28.26
415.893	28.17
416.099	27.84
416.305	27.76
416.511	27.67
416.716	27.39
416.922	27.26
417.128	27.79
417.334	27.94
417.539	28.02
417.745	28.01
417.951	27.62
418.157	27.41
418.362	27.37
418.568	26.82
418.774	26.75
418.979	26.76
419.185	26.33
419.391	25.65
419.596	25.12
419.802	24.93
420.008	24.69
420.213	22.48
420.419	22.63
420.624	22.66
420.83	22.78
421.035	22.95
421.241	22.72
421.446	22.8
421.652	23
421.857	23.1
422.063	23.19
422.268	23.19
422.474	25.43
422.679	25.12
422.885	24.81
423.09	24.71
423.295	24.46
423.501	24.63
423.706	24.51
423.911	24.52
424.117	24.56
424.322	24.39
424.527	24.48
424.733	24.7
424.938	25.15
425.143	25.27
425.349	25.32
425.554	25.59
425.759	25.91
425.964	26.16
426.169	25.81
426.375	25.97
426.58	26.15
426.785	26.78
426.99	26.48
427.195	26.36
427.4	26.34
427.605	26.37
427.811	26.26
428.016	25.83
428.221	25.77
428.426	25.93
428.631	25.86
428.836	26.28
429.041	25.73
429.246	25.61
429.451	25.77
429.656	26.12
429.861	25.92
430.066	26.2
430.271	26.2
430.476	26.03
430.681	26.29
430.886	26.24
431.09	25.78
431.295	25.87
431.5	25.98
431.705	25.79
431.91	25.56
432.115	25.17
432.32	24.54
432.524	24.74
432.729	24.81
432.934	24.7
433.139	24.59
433.343	24.56
433.548	24.3
433.753	24.22
433.958	23.94
434.162	24.24
434.367	24.76
434.572	24.94
434.776	24.65
434.981	24.5
435.186	24.41
435.39	24.33
435.595	23.98
435.799	24.05
436.004	23.98
436.209	23.99
436.413	23.52
436.618	23.36
436.822	23.08
437.027	23.13
437.231	23.39
437.436	22.97
437.64	23.16
437.845	23.27
438.049	23.55
438.253	23.55
438.458	23.39
438.662	23.44
438.867	23.44
439.071	23.57
439.275	23.44
439.48	23.14
439.684	23.28
439.888	22.93
440.093	22.69
440.297	22.51
440.501	22.4
440.706	22.44
440.91	22.35
441.114	22.24
441.318	22.29
441.523	22.22
441.727	22.22
441.931	22.64
442.135	22.85
442.339	23.2
442.543	23.14
442.748	23.02
442.952	22.53
443.156	22.58
443.36	22.75
443.564	22.66
443.768	22.26
443.972	22.06
444.176	21.37
444.38	21.35
444.584	21.24
444.788	21.05
444.992	21.05
445.196	21.15
445.4	20.96
445.604	20.94
445.808	20.82
446.012	21.03
446.216	21.03
446.42	21.33
446.624	21.5
446.828	21.6
447.032	21.6
447.235	21.63
447.439	21.81
447.643	21.98
447.847	21.91
448.051	22.15
448.254	22.16
448.458	22.13
448.662	22.1
448.866	21.93
449.069	22.23
449.273	22.07
449.477	22
449.681	22.02
449.884	21.86
450.088	21.94
