Data from JASIL_2909_Reflection_2.txt Node
Date: Sat Nov 07 20:25:30 EST 2015
User: Geneva
Spectrometer: USB4E03002
Autoset integration time: false
Trigger mode: 4
Integration Time (sec): 1.000000E-1
Scans to average: 10
Electric dark correction enabled: true
Nonlinearity correction enabled: false
Boxcar width: 5
Stray light correction enabled: false
XAxis mode: Wavelengths
Stop averaging: false
Number of Pixels in Spectrum: 3648
>>>>>Begin Spectral Data<<<<<
177.575	252.9
177.794	223.42
178.014	119.1
178.233	114.39
178.452	100.03
178.672	194.75
178.891	-2327.91
179.11	493.67
179.33	306.08
179.549	209.09
179.768	201.12
179.987	164.85
180.207	150.98
180.426	110.54
180.645	108.39
180.864	103.23
181.084	117.39
181.303	119.14
181.522	107.88
181.741	125.25
181.96	118.53
182.179	123.85
182.398	145.15
182.618	124.14
182.837	120.58
183.056	102.55
183.275	101.22
183.494	79.51
183.713	69.63
183.932	76.19
184.151	69.61
184.37	77.52
184.589	75.59
184.808	66.92
185.027	66.71
185.246	73.54
185.465	84.53
185.684	83.13
185.903	98.57
186.122	115.57
186.341	106.81
186.56	98.54
186.779	90.37
186.998	94.24
187.216	93.47
187.435	97.64
187.654	101.74
187.873	102.3
188.092	108.74
188.311	95.21
188.53	89.78
188.748	83.66
188.967	92.65
189.186	93.4
189.405	93.99
189.623	95.21
189.842	97.65
190.061	93.45
190.28	92.33
190.498	83.77
190.717	92.07
190.936	96.81
191.154	100.72
191.373	101.16
191.592	114.15
191.81	124.05
192.029	108.56
192.248	103.72
192.466	96.61
192.685	97.31
192.904	100.67
193.122	94.09
193.341	86.18
193.559	88.78
193.778	82.95
193.996	70.92
194.215	68.83
194.433	77.74
194.652	83.93
194.87	88.8
195.089	88.5
195.307	90.36
195.526	88.15
195.744	89.33
195.963	95.95
196.181	91.74
196.399	92.94
196.618	90.02
196.836	91.3
197.055	92.39
197.273	91.65
197.491	85.19
197.71	82.25
197.928	86.77
198.146	85.31
198.365	76.7
198.583	70.52
198.801	71.92
199.019	65.76
199.238	59.07
199.456	51.52
199.674	57.53
199.892	67.6
200.111	83.99
200.329	85.69
200.547	86.22
200.765	78.89
200.983	86.74
201.202	81.75
201.42	86.04
201.638	92.48
201.856	92.18
202.074	83.52
202.292	78.42
202.51	67.07
202.728	65.39
202.946	65.42
203.165	75.56
203.383	84.8
203.601	86.71
203.819	87.18
204.037	87.47
204.255	88.32
204.473	76.46
204.691	79.57
204.909	81.27
205.127	78.66
205.345	76.83
205.562	77.77
205.78	68.6
205.998	69.54
206.216	65.52
206.434	66.28
206.652	66.82
206.87	78.31
207.088	77.56
207.306	79.98
207.523	78.36
207.741	81.88
207.959	80.38
208.177	81.29
208.395	79.47
208.612	83.17
208.83	80.47
209.048	75.18
209.266	67.9
209.483	64.04
209.701	67.37
209.919	61.98
210.136	55
210.354	54.72
210.572	60.29
210.79	57.71
211.007	60.19
211.225	56.14
211.442	54.5
211.66	58.3
211.878	62.52
212.095	37.69
212.313	37.97
212.53	45.17
212.748	40.78
212.966	33.47
213.183	30.72
213.401	29.16
213.618	39.2
213.836	43.78
214.053	47.76
214.271	48.82
214.488	64.52
214.705	65.41
214.923	66.04
215.14	64.2
215.358	63.27
215.575	65.15
215.793	64.56
216.01	60.94
216.227	62.98
216.445	62.14
216.662	59.96
216.879	62.61
217.097	64.95
217.314	59.44
217.531	61.92
217.749	69.23
217.966	70.03
218.183	65.51
218.4	60.59
218.618	59.75
218.835	58.51
219.052	58.55
219.269	54.91
219.487	50.99
219.704	49.74
219.921	44.76
220.138	41.08
220.355	36.15
220.572	40.59
220.79	45.36
221.007	45.46
221.224	43.18
221.441	44.93
221.658	51
221.875	49.33
222.092	50.27
222.309	50.12
222.526	50.44
222.743	55.17
222.96	54.97
223.177	50.27
223.394	46.77
223.611	47.32
223.828	43.09
224.045	40.13
224.262	39.6
224.479	37.72
224.696	38.64
224.913	36.8
225.13	34.63
225.347	31.43
225.564	30.52
225.781	28.67
225.997	26.06
226.214	25.51
226.431	21.55
226.648	21.08
226.865	20.94
227.082	19.44
227.298	19.12
227.515	18.68
227.732	18.06
227.949	18.36
228.165	17.9
228.382	17.62
228.599	17.3
228.816	18.07
229.032	18.09
229.249	18.17
229.466	18.68
229.682	18.67
229.899	18.62
230.116	19.32
230.332	18.24
230.549	19.51
230.765	20.4
230.982	19.91
231.199	20.27
231.415	19.86
231.632	19.35
231.848	19.7
232.065	18.88
232.281	19.54
232.498	19.86
232.714	21.24
232.931	20.97
233.147	20.89
233.364	21.2
233.58	20.39
233.797	21
234.013	21.2
234.23	20.45
234.446	19.38
234.662	18.93
234.879	18.3
235.095	17.26
235.312	17.26
235.528	17.6
235.744	18.12
235.961	18.77
236.177	17.2
236.393	17.08
236.61	17.9
236.826	19.29
237.042	19.83
237.258	19.49
237.475	20.07
237.691	20.4
237.907	18.81
238.123	17.92
238.339	17.98
238.556	18.81
238.772	18.56
238.988	17.42
239.204	16.84
239.42	15.99
239.636	15.98
239.853	15.26
240.069	14.63
240.285	15.06
240.501	14.59
240.717	14.06
240.933	13.51
241.149	13.07
241.365	13.3
241.581	13.27
241.797	13.47
242.013	13.39
242.229	13.74
242.445	13.25
242.661	12.84
242.877	12.9
243.093	13.07
243.309	13.21
243.525	13.33
243.741	13.09
243.957	13.15
244.173	12.3
244.388	11.98
244.604	11.18
244.82	11.06
245.036	11.2
245.252	11.17
245.468	10.83
245.683	10.68
245.899	10.47
246.115	10.43
246.331	10.26
246.547	10.18
246.762	10.19
246.978	10.34
247.194	10.32
247.409	10.18
247.625	10.22
247.841	10.3
248.057	10.48
248.272	10.41
248.488	10.16
248.703	10.01
248.919	10.57
249.135	10.34
249.35	10.06
249.566	10.4
249.782	10.41
249.997	10.13
250.213	9.9
250.428	9.69
250.644	10.51
250.859	10.95
251.075	11.12
251.29	10.36
251.506	10.33
251.721	10.34
251.937	10.61
252.152	10.4
252.368	10.53
252.583	10.65
252.798	10.82
253.014	10.36
253.229	9.81
253.445	9.45
253.66	10.4
253.875	10.28
254.091	10.61
254.306	9.82
254.521	10.31
254.737	9.88
254.952	10.02
255.167	9.68
255.383	9.57
255.598	9.91
255.813	9.84
256.028	9.26
256.244	9.32
256.459	9.03
256.674	8.84
256.889	8.01
257.104	7.9
257.32	7.95
257.535	7.81
257.75	7.54
257.965	7.59
258.18	7.67
258.395	7.66
258.61	7.55
258.826	7.39
259.041	7.47
259.256	7.59
259.471	7.75
259.686	7.62
259.901	7.66
260.116	7.75
260.331	7.44
260.546	7.48
260.761	7.55
260.976	7.74
261.191	7.99
261.406	7.9
261.621	7.98
261.836	7.82
262.05	7.65
262.265	7.68
262.48	7.58
262.695	8.11
262.91	8.11
263.125	8.13
263.34	8.11
263.555	8.64
263.769	8.77
263.984	8.53
264.199	8.43
264.414	8.69
264.629	8.82
264.843	8.85
265.058	8.61
265.273	8.19
265.488	7.97
265.702	7.58
265.917	7.17
266.132	7.38
266.346	7.68
266.561	7.81
266.776	7.93
266.99	7.72
267.205	7.89
267.42	8
267.634	8.13
267.849	8.18
268.063	8.48
268.278	8.45
268.492	8.18
268.707	7.68
268.922	7.74
269.136	7.47
269.351	7.25
269.565	7.14
269.78	7.08
269.994	6.87
270.209	6.94
270.423	6.88
270.637	6.81
270.852	6.83
271.066	7.14
271.281	7.07
271.495	7.12
271.709	7.32
271.924	7.35
272.138	7.51
272.353	7.73
272.567	7.55
272.781	7.48
272.996	7.69
273.21	7.74
273.424	7.74
273.638	7.65
273.853	7.51
274.067	7.56
274.281	7.54
274.495	7.39
274.71	7.39
274.924	7.28
275.138	7.48
275.352	7.37
275.566	7.39
275.781	7.52
275.995	7.85
276.209	8.27
276.423	7.96
276.637	7.71
276.851	7.31
277.065	7.27
277.279	7.41
277.493	7.21
277.707	6.97
277.921	7.03
278.135	6.62
278.349	6.22
278.563	6.14
278.777	6.35
278.991	6.74
279.205	7.02
279.419	6.94
279.633	6.94
279.847	7
280.061	7.15
280.275	6.79
280.489	7.01
280.703	6.92
280.917	6.73
281.131	6.69
281.344	6.73
281.558	6.6
281.772	6.54
281.986	6.46
282.2	6.53
282.414	6.57
282.627	6.81
282.841	6.94
283.055	7.24
283.269	7.23
283.482	7.2
283.696	6.77
283.91	6.8
284.123	6.8
284.337	6.94
284.551	6.87
284.764	6.79
284.978	6.76
285.192	6.54
285.405	6.2
285.619	6.22
285.833	6.28
286.046	6.28
286.26	6.34
286.473	6.31
286.687	6.07
286.9	6.19
287.114	6.17
287.327	5.98
287.541	5.89
287.754	6.14
287.968	6.17
288.181	6.14
288.395	6.27
288.608	6.16
288.822	6.25
289.035	6.13
289.248	5.94
289.462	6.01
289.675	6
289.889	6.12
290.102	5.88
290.315	5.81
290.529	5.77
290.742	5.91
290.955	6.01
291.169	5.98
291.382	6.18
291.595	6.32
291.808	6.17
292.022	6.04
292.235	5.98
292.448	5.99
292.661	5.82
292.875	5.65
293.088	5.48
293.301	5.34
293.514	5.16
293.727	5.21
293.94	5.1
294.153	4.99
294.367	5.16
294.58	5.09
294.793	5.37
295.006	5.47
295.219	5.61
295.432	5.52
295.645	5.59
295.858	5.55
296.071	5.39
296.284	5.3
296.497	5.46
296.71	5.42
296.923	5.63
297.136	5.45
297.349	5.53
297.562	5.44
297.775	5.57
297.988	5.62
298.201	5.64
298.414	5.92
298.626	6.1
298.839	6
299.052	6.17
299.265	6.19
299.478	6.13
299.691	6.08
299.903	6.06
300.116	5.99
300.329	5.94
300.542	6.05
300.755	5.94
300.967	5.74
301.18	5.74
301.393	5.64
301.605	5.4
301.818	5.5
302.031	5.48
302.243	5.5
302.456	5.56
302.669	5.47
302.881	5.5
303.094	5.35
303.307	5.27
303.519	5.31
303.732	5.38
303.944	5.48
304.157	5.61
304.37	5.34
304.582	5.44
304.795	5.37
305.007	5.57
305.22	5.73
305.432	5.9
305.645	6.19
305.857	6.29
306.069	6.01
306.282	5.97
306.494	5.89
306.707	6.23
306.919	6.24
307.132	6.12
307.344	5.83
307.556	5.79
307.769	5.71
307.981	5.66
308.193	5.6
308.406	5.73
308.618	5.75
308.83	5.67
309.043	5.56
309.255	5.58
309.467	5.51
309.679	5.65
309.892	5.56
310.104	5.49
310.316	5.45
310.528	5.34
310.74	5.43
310.953	5.37
311.165	5.47
311.377	5.4
311.589	5.47
311.801	5.69
312.013	5.73
312.225	5.76
312.437	5.89
312.649	6.07
312.862	6.15
313.074	5.97
313.286	6
313.498	5.92
313.71	6.15
313.922	6.12
314.134	6.07
314.346	5.96
314.558	6.04
314.77	6.19
314.982	6.04
315.193	6.02
315.405	6.1
315.617	5.95
315.829	5.92
316.041	5.97
316.253	5.78
316.465	5.78
316.677	5.81
316.888	5.72
317.1	5.61
317.312	5.47
317.524	5.57
317.736	5.87
317.947	6.26
318.159	6.27
318.371	5.81
318.583	5.89
318.794	5.67
319.006	5.63
319.218	5.74
319.43	5.76
319.641	5.94
319.853	5.97
320.064	6.03
320.276	5.73
320.488	5.92
320.699	6.24
320.911	6.26
321.123	6.82
321.334	6.96
321.546	7
321.757	7.1
321.969	7.01
322.18	7
322.392	6.71
322.603	6.54
322.815	6.59
323.026	6.34
323.238	6.1
323.449	5.75
323.661	5.7
323.872	5.71
324.083	5.65
324.295	5.6
324.506	5.59
324.718	5.55
324.929	5.75
325.14	5.8
325.352	6.05
325.563	6.44
325.774	6.41
325.986	6.59
326.197	6.61
326.408	6.68
326.62	6.79
326.831	6.69
327.042	6.73
327.253	6.77
327.464	6.65
327.676	6.71
327.887	6.62
328.098	6.72
328.309	6.61
328.52	6.61
328.732	6.66
328.943	6.85
329.154	7.26
329.365	7.52
329.576	7.66
329.787	7.55
329.998	7.58
330.209	7.81
330.42	7.86
330.631	7.89
330.842	7.74
331.053	7.68
331.264	7.66
331.475	7.46
331.686	7.25
331.897	7.24
332.108	7.29
332.319	7.06
332.53	6.96
332.741	6.97
332.952	6.99
333.163	7.11
333.374	7.06
333.585	6.97
333.795	6.91
334.006	6.98
334.217	6.87
334.428	6.88
334.639	7.05
334.849	6.89
335.06	6.85
335.271	6.81
335.482	6.81
335.692	6.85
335.903	6.73
336.114	6.85
336.325	6.85
336.535	7.02
336.746	7.15
336.957	7.17
337.167	7.15
337.378	7.22
337.589	7.24
337.799	7.23
338.01	7.23
338.22	7.28
338.431	7.23
338.642	7.39
338.852	7.26
339.063	6.98
339.273	6.89
339.484	6.87
339.694	7.07
339.905	7.26
340.115	7.38
340.326	7.38
340.536	7.26
340.746	7.21
340.957	7.12
341.167	7.2
341.378	7.43
341.588	7.47
341.799	7.46
342.009	7.32
342.219	7.04
342.43	6.93
342.64	6.83
342.85	6.79
343.061	6.7
343.271	6.74
343.481	6.6
343.691	6.47
343.902	6.34
344.112	6.25
344.322	6.21
344.532	6.26
344.743	6.16
344.953	5.9
345.163	5.93
345.373	6.06
345.583	5.92
345.793	5.95
346.004	6.02
346.214	6.1
346.424	6.29
346.634	6.27
346.844	6.28
347.054	6.38
347.264	6.79
347.474	7.07
347.684	7.02
347.894	7.14
348.104	7.31
348.314	7.33
348.524	7.33
348.734	7.09
348.944	7.04
349.154	7.03
349.364	6.89
349.574	6.7
349.784	6.5
349.994	6.53
350.204	6.27
350.413	6.11
350.623	6.13
350.833	6.02
351.043	5.92
351.253	5.88
351.463	5.88
351.672	5.9
351.882	5.97
352.092	5.94
352.302	5.82
352.511	5.84
352.721	5.73
352.931	5.45
353.141	5.65
353.35	5.97
353.56	5.85
353.77	5.88
353.979	5.87
354.189	5.85
354.399	5.85
354.608	5.82
354.818	5.91
355.027	5.91
355.237	6.17
355.447	5.98
355.656	5.85
355.866	5.89
356.075	5.82
356.285	5.84
356.494	5.87
356.704	5.76
356.913	5.79
357.123	5.78
357.332	5.75
357.542	5.66
357.751	5.73
357.96	5.76
358.17	5.67
358.379	5.63
358.589	5.68
358.798	5.61
359.007	5.67
359.217	5.61
359.426	5.56
359.635	5.68
359.845	5.69
360.054	5.67
360.263	5.68
360.472	5.81
360.682	5.86
360.891	5.65
361.1	5.52
361.309	5.53
361.519	5.5
361.728	5.51
361.937	5.42
362.146	5.31
362.355	5.25
362.564	5.17
362.774	5.19
362.983	5.17
363.192	5.39
363.401	5.6
363.61	5.49
363.819	5.59
364.028	5.66
364.237	5.61
364.446	5.58
364.655	5.68
364.864	5.69
365.073	5.71
365.282	5.67
365.491	5.56
365.7	5.58
365.909	5.8
366.118	5.72
366.327	5.61
366.536	5.74
366.745	5.85
366.954	5.87
367.162	5.87
367.371	5.63
367.58	5.62
367.789	5.73
367.998	5.67
368.207	5.61
368.415	5.69
368.624	5.66
368.833	5.59
369.042	5.69
369.25	5.7
369.459	5.86
369.668	6.02
369.877	6.07
370.085	5.98
370.294	5.97
370.503	5.81
370.711	5.79
370.92	5.81
371.129	5.77
371.337	5.55
371.546	5.45
371.754	5.25
371.963	5.16
372.171	5.08
372.38	5.02
372.589	5.03
372.797	5.08
373.006	5.04
373.214	5.11
373.423	5.23
373.631	5.29
373.84	5.24
374.048	5.3
374.256	5.26
374.465	5.29
374.673	5.33
374.882	5.27
375.09	5.32
375.298	5.36
375.507	5.15
375.715	5.17
375.923	5.07
376.132	5.18
376.34	5.18
376.548	5.19
376.757	5.19
376.965	5.23
377.173	5.25
377.381	5.34
377.59	5.43
377.798	5.49
378.006	5.31
378.214	5.41
378.423	5.3
378.631	5.28
378.839	5.36
379.047	5.27
379.255	5.17
379.463	5.14
379.671	5.02
379.879	4.87
380.088	5.04
380.296	5.14
380.504	5.1
380.712	5.12
380.92	5.07
381.128	5.08
381.336	5
381.544	5.03
381.752	5.09
381.96	5.11
382.168	5.08
382.376	5.03
382.584	5.08
382.791	5.2
382.999	5.28
383.207	5.34
383.415	5.39
383.623	5.53
383.831	5.56
384.039	5.55
384.247	5.54
384.454	5.63
384.662	5.49
384.87	5.43
385.078	5.36
385.285	5.2
385.493	5.12
385.701	5.11
385.909	5.08
386.116	5.16
386.324	5.03
386.532	4.93
386.739	4.87
386.947	4.94
387.155	4.96
387.362	4.99
387.57	5.06
387.778	5.06
387.985	5.04
388.193	5.11
388.4	5.12
388.608	5.22
388.816	5.31
389.023	5.23
389.231	5.25
389.438	5.23
389.646	5.06
389.853	5.09
390.061	5.05
390.268	4.99
390.475	4.9
390.683	4.87
390.89	4.88
391.098	4.88
391.305	4.93
391.512	4.85
391.72	4.81
391.927	4.91
392.135	4.86
392.342	4.84
392.549	4.9
392.756	4.9
392.964	4.85
393.171	4.84
393.378	4.85
393.586	4.85
393.793	4.91
394	4.86
394.207	4.91
394.414	4.92
394.622	4.96
394.829	4.86
395.036	4.95
395.243	4.83
395.45	4.76
395.657	4.82
395.864	4.8
396.072	4.71
396.279	4.81
396.486	4.74
396.693	4.7
396.9	4.61
397.107	4.56
397.314	4.52
397.521	4.62
397.728	4.61
397.935	4.58
398.142	4.51
398.349	4.59
398.556	4.5
398.763	4.45
398.97	4.54
399.177	4.65
399.383	4.75
399.59	4.64
399.797	4.6
400.004	4.56
400.211	4.55
400.418	4.65
400.625	4.61
400.831	4.69
401.038	4.69
401.245	4.66
401.452	4.58
401.658	4.54
401.865	4.51
402.072	4.45
402.279	4.43
402.485	4.35
402.692	4.25
402.899	4.27
403.105	4.25
403.312	4.35
403.519	4.35
403.725	4.35
403.932	4.41
404.138	4.45
404.345	4.45
404.552	4.52
404.758	4.6
404.965	4.61
405.171	4.6
405.378	4.55
405.584	4.54
405.791	4.37
405.997	4.41
406.204	4.42
406.41	4.42
406.617	4.4
406.823	4.32
407.029	4.32
407.236	4.38
407.442	4.41
407.649	4.42
407.855	4.27
408.061	4.45
408.268	4.44
408.474	4.35
408.68	4.34
408.887	4.4
409.093	4.36
409.299	4.36
409.505	4.25
409.712	4.16
409.918	4.14
410.124	4.22
410.33	4.16
410.537	4.15
410.743	4.15
410.949	4.1
411.155	4.11
411.361	4.2
411.567	4.13
411.773	4.21
411.98	4.25
412.186	4.34
412.392	4.36
412.598	4.37
412.804	4.28
413.01	4.22
413.216	4.31
413.422	4.22
413.628	4.15
413.834	4.11
414.04	4.14
414.246	4.16
414.452	4.04
414.658	4.01
414.864	3.94
415.07	3.98
415.275	4.06
415.481	3.95
415.687	3.96
415.893	3.97
416.099	3.94
416.305	3.8
416.511	3.79
416.716	3.77
416.922	3.72
417.128	3.7
417.334	3.67
417.539	3.64
417.745	3.62
417.951	3.62
418.157	3.61
418.362	3.6
418.568	3.63
418.774	3.61
418.979	3.64
419.185	3.69
419.391	3.72
419.596	3.7
419.802	3.67
420.008	3.66
420.213	3.37
420.419	3.38
420.624	3.35
420.83	3.36
421.035	3.35
421.241	3.34
421.446	3.29
421.652	3.24
421.857	3.24
422.063	3.2
422.268	3.2
422.474	3.46
422.679	3.42
422.885	3.48
423.09	3.44
423.295	3.4
423.501	3.37
423.706	3.34
423.911	3.34
424.117	3.35
424.322	3.42
424.527	3.44
424.733	3.42
424.938	3.45
425.143	3.41
425.349	3.45
425.554	3.49
425.759	3.49
425.964	3.57
426.169	3.59
426.375	3.55
426.58	3.53
426.785	3.54
426.99	3.58
427.195	3.59
427.4	3.56
427.605	3.58
427.811	3.56
428.016	3.61
428.221	3.56
428.426	3.58
428.631	3.61
428.836	3.56
429.041	3.59
429.246	3.5
429.451	3.5
429.656	3.59
429.861	3.57
430.066	3.62
430.271	3.56
430.476	3.56
430.681	3.55
430.886	3.59
431.09	3.61
431.295	3.52
431.5	3.54
431.705	3.48
431.91	3.44
432.115	3.44
432.32	3.39
432.524	3.4
432.729	3.35
432.934	3.31
433.139	3.31
433.343	3.3
433.548	3.38
433.753	3.43
433.958	3.5
434.162	3.52
434.367	3.52
434.572	3.52
434.776	3.5
434.981	3.57
435.186	3.61
435.39	3.58
435.595	3.6
435.799	3.55
436.004	3.51
436.209	3.43
436.413	3.37
436.618	3.36
436.822	3.34
437.027	3.34
437.231	3.25
437.436	3.2
437.64	3.2
437.845	3.17
438.049	3.2
438.253	3.15
438.458	3.16
438.662	3.21
438.867	3.23
439.071	3.26
439.275	3.25
439.48	3.34
439.684	3.34
439.888	3.32
440.093	3.35
440.297	3.32
440.501	3.38
440.706	3.38
440.91	3.35
441.114	3.33
441.318	3.28
441.523	3.29
441.727	3.24
441.931	3.27
442.135	3.28
442.339	3.25
442.543	3.26
442.748	3.24
442.952	3.2
443.156	3.2
443.36	3.19
443.564	3.17
443.768	3.13
443.972	3.13
444.176	3.1
444.38	3.09
444.584	3.09
444.788	3.04
444.992	3.03
445.196	3.05
445.4	2.99
445.604	2.95
445.808	2.97
446.012	3
446.216	2.97
446.42	2.98
446.624	2.99
446.828	2.97
447.032	2.97
447.235	2.97
447.439	2.98
447.643	3.08
447.847	3.18
448.051	3.2
448.254	3.21
448.458	3.26
448.662	3.28
448.866	3.26
449.069	3.25
449.273	3.32
449.477	3.33
449.681	3.34
449.884	3.3
450.088	3.27
450.292	3.24
450.495	3.19
450.699	3.21
450.902	3.18
451.106	3.19
451.31	3.23
451.513	3.19
451.717	3.21
451.92	3.2
452.124	3.16
452.327	3.11
452.531	3.14
452.734	3.14
452.938	3.13
453.141	3.14
453.345	3.15
453.548	3.16
453.752	3.18
453.955	3.22
454.158	3.23
454.362	3.25
454.565	3.34
454.769	3.32
454.972	3.39
455.175	3.36
455.379	3.37
455.582	3.35
455.785	3.36
455.988	3.29
456.192	3.21
456.395	3.18
456.598	3.17
456.801	3.11
457.005	3.1
457.208	3.04
457.411	3.05
457.614	3
457.817	2.98
458.021	2.93
458.224	2.93
458.427	2.94
458.63	2.98
458.833	2.96
459.036	2.93
459.239	2.9
459.442	2.92
459.645	2.87
459.848	2.93
460.051	2.93
460.254	2.97
460.457	2.96
460.66	3
460.863	2.99
461.066	2.98
461.269	3.01
461.472	3.1
461.675	3.11
461.878	3.18
462.081	3.13
462.284	3.14
462.486	3.13
462.689	3.18
462.892	3.16
463.095	3.12
463.298	3.18
463.5	3.16
463.703	3.08
463.906	3.08
464.109	3.11
464.311	3.09
464.514	3.16
464.717	3.17
464.92	3.15
465.122	3.16
465.325	3.19
465.528	3.21
465.73	3.24
465.933	3.25
466.135	3.16
466.338	3.12
466.541	3.13
466.743	3.07
466.946	3.11
467.148	3.14
467.351	3.16
467.553	3.15
467.756	3.13
467.958	3.09
468.161	3.11
468.363	3.15
468.566	3.14
468.768	3.13
468.971	3.15
469.173	3.13
469.375	3.1
469.578	2.95
469.78	2.95
469.983	2.92
470.185	2.96
470.387	2.97
470.59	3.04
