Data from JASIL_2994_Reflection_01.txt Node
Date: Mon Nov 09 09:51:09 EST 2015
User: Geneva
Spectrometer: USB4E03002
Autoset integration time: false
Trigger mode: 4
Integration Time (sec): 1.000000E-1
Scans to average: 10
Electric dark correction enabled: false
Nonlinearity correction enabled: false
Boxcar width: 5
Stray light correction enabled: false
XAxis mode: Wavelengths
Stop averaging: false
Number of Pixels in Spectrum: 3648
>>>>>Begin Spectral Data<<<<<
177.575	18.48
177.794	25.59
178.014	18.71
178.233	13.98
178.452	10.44
178.672	11.63
178.891	6.87
179.11	-17.06
179.33	-55.29
179.549	-96.33
179.768	-204.6
179.987	-119.72
180.207	-96.21
180.426	-91.67
180.645	-111.3
180.864	-131.69
181.084	-121.32
181.303	-116.98
181.522	-117.33
181.741	-75.46
181.96	-51.79
182.179	-11.36
182.398	-54.95
182.618	-46.97
182.837	-44.22
183.056	-20.75
183.275	-40.88
183.494	-24.58
183.713	-22.89
183.932	-29.37
184.151	-38.21
184.37	-33.16
184.589	-74.6
184.808	-75.85
185.027	-96.31
185.246	-157.87
185.465	-100.4
185.684	-51.69
185.903	-68.74
186.122	-65.76
186.341	-93.14
186.56	-170.18
186.779	-127.68
186.998	-78.96
187.216	-69.37
187.435	-64.49
187.654	-57.66
187.873	-91.42
188.092	-202.48
188.311	-226.03
188.53	-182.66
188.748	-87.54
188.967	-110.22
189.186	-132.41
189.405	-152.37
189.623	-86.33
189.842	-81.67
190.061	-121.25
190.28	-148.36
190.498	-175.3
190.717	-220.8
190.936	-247.27
191.154	-559.02
191.373	-170.4
191.592	-258.11
191.81	-175.08
192.029	-618.62
192.248	-740.54
192.466	-310.12
192.685	-289.57
192.904	-173.68
193.122	-211.21
193.341	-339.24
193.559	-363.77
193.778	-447.02
193.996	-225.1
194.215	-203.14
194.433	-135.47
194.652	-104.09
194.87	-105.41
195.089	-185.9
195.307	-241.67
195.526	-137.63
195.744	-138.96
195.963	-128.54
196.181	-141.44
196.399	-159.22
196.618	-149.03
196.836	-152.75
197.055	-104.79
197.273	-112.43
197.491	-121.75
197.71	-89.44
197.928	-97.23
198.146	-57.82
198.365	-96.01
198.583	-45.14
198.801	-56.74
199.019	-72.59
199.238	-128.01
199.456	-146.55
199.674	-116.99
199.892	-82.66
200.111	-178.77
200.329	-226.24
200.547	-119.95
200.765	-108.93
200.983	-249.25
201.202	-610.43
201.42	-594.96
201.638	-263.68
201.856	-812.68
202.074	1918.92
202.292	1297.56
202.51	-248.28
202.728	-191.67
202.946	-398.05
203.165	-278.93
203.383	-231.18
203.601	-248.95
203.819	-472.09
204.037	-371.72
204.255	-251.2
204.473	-160.22
204.691	-203.06
204.909	-273.78
205.127	-283.27
205.345	-366.81
205.562	-893.26
205.78	-278.91
205.998	-123.48
206.216	-114.53
206.434	-102.36
206.652	-149.49
206.87	-141.35
207.088	-149.55
207.306	-135.46
207.523	-136.19
207.741	-113.5
207.959	-27.2
208.177	-100.79
208.395	-147.35
208.612	-116.24
208.83	-107.65
209.048	-61.11
209.266	-103.91
209.483	-55.07
209.701	-46.05
209.919	-51.72
210.136	-149.83
210.354	-159.37
210.572	-133.51
210.79	-172.67
211.007	-106.41
211.225	-95.63
211.442	-96.18
211.66	-81.23
211.878	-107.24
212.095	-37.86
212.313	-34.6
212.53	-6.87
212.748	-0.56
212.966	5.06
213.183	6.88
213.401	-4.1
213.618	-2.07
213.836	0.76
214.053	-0.67
214.271	-1.77
214.488	-1.42
214.705	5.49
214.923	-3.59
215.14	-1.3
215.358	-10.04
215.575	-5.54
215.793	15.38
216.01	20.16
216.227	29.11
216.445	25.99
216.662	6.93
216.879	14.65
217.097	-19.95
217.314	-15.17
217.531	-84.3
217.749	-102.83
217.966	-86.03
218.183	-116.08
218.4	-293.02
218.618	-207
218.835	-138.3
219.052	-523.57
219.269	-1185.96
219.487	-359.65
219.704	-1015.87
219.921	1043.86
220.138	1153.85
220.355	780.82
220.572	0
220.79	-1800
221.007	-434.09
221.224	-393.38
221.441	-105.57
221.658	-150
221.875	-233.33
222.092	-130.43
222.309	-70.21
222.526	-64.86
222.743	-54.44
222.96	-34.61
223.177	-28.85
223.394	-61.99
223.611	-116.74
223.828	-219.68
224.045	-148.77
224.262	-64.55
224.479	-80.45
224.696	-99.68
224.913	-110.83
225.13	-157.42
225.347	-149.92
225.564	-134.25
225.781	-112.55
225.997	-86.01
226.214	-66.96
226.431	-63.08
226.648	-77.39
226.865	-58.28
227.082	-56.64
227.298	-58.33
227.515	-46.37
227.732	-48.13
227.949	-49.15
228.165	-36.99
228.382	-29.14
228.599	-23.74
228.816	-24.87
229.032	-32.25
229.249	-34.19
229.466	-31.12
229.682	-27.45
229.899	-27.11
230.116	-32.4
230.332	-38.01
230.549	-53.23
230.765	-101.54
230.982	-126.47
231.199	-114.06
231.415	-70.93
231.632	-80.16
231.848	-94.61
232.065	-87.66
232.281	-100.74
232.498	-87.57
232.714	-53.83
232.931	-47.1
233.147	-29.79
233.364	-18.46
233.58	-17.76
233.797	-30.2
234.013	-30.86
234.23	-39.67
234.446	-35.32
234.662	-19.08
234.879	-21.19
235.095	-29.8
235.312	-45.57
235.528	-54.54
235.744	-53.12
235.961	-48.85
236.177	-43.37
236.393	-39.12
236.61	-35.94
236.826	-40.22
237.042	-36.2
237.258	-27.24
237.475	-28.47
237.691	-20.02
237.907	-20.54
238.123	-30.51
238.339	-52.78
238.556	-55.67
238.772	-76.52
238.988	-53.83
239.204	-47.27
239.42	-47.62
239.636	-34.86
239.853	-29.73
240.069	-33.8
240.285	-28.85
240.501	-19.92
240.717	-13.24
240.933	-12.34
241.149	-4.29
241.365	-2.17
241.581	-5.76
241.797	-9.63
242.013	-14.8
242.229	-19.84
242.445	-12.71
242.661	-10.9
242.877	-14.64
243.093	-23.21
243.309	-24.94
243.525	-38.15
243.741	-37.12
243.957	-30.26
244.173	-23.08
244.388	-22.57
244.604	-14.21
244.82	-16.42
245.036	-10.01
245.252	-7.05
245.468	-0.66
245.683	-2.51
245.899	1.38
246.115	-0.68
246.331	-3.97
246.547	-5.79
246.762	-5.27
246.978	-7.29
247.194	-8.3
247.409	-13.89
247.625	-15.6
247.841	-18.12
248.057	-14.59
248.272	-13.75
248.488	-14.56
248.703	-8.57
248.919	-10.04
249.135	-14.64
249.35	-18.53
249.566	-16.55
249.782	-14.93
249.997	-14.29
250.213	-18.45
250.428	-16.97
250.644	-20.2
250.859	-21.79
251.075	-19.08
251.29	-18.74
251.506	-14.47
251.721	-12.86
251.937	-13.53
252.152	-15.96
252.368	-18.89
252.583	-18.58
252.798	-18.61
253.014	-10.05
253.229	-5.64
253.445	-16.34
253.66	-16.03
253.875	-25.5
254.091	-24.44
254.306	-26.22
254.521	-16.64
254.737	-10.75
254.952	-9.83
255.167	-19.05
255.383	-25.23
255.598	-31.64
255.813	-24.25
256.028	-26.35
256.244	-22.63
256.459	-21.76
256.674	-12.36
256.889	-11.18
257.104	-12.15
257.32	-9.61
257.535	-6.18
257.75	-4.6
257.965	-1.86
258.18	-0.23
258.395	1.92
258.61	3.96
258.826	3.35
259.041	2.32
259.256	-2.44
259.471	-2.03
259.686	-1.04
259.901	-0.68
260.116	-2.47
260.331	-6.47
260.546	-8.15
260.761	-10.38
260.976	-17.77
261.191	-17.62
261.406	-20.9
261.621	-10.97
261.836	-11.39
262.05	-16.3
262.265	-17.37
262.48	-18.7
262.695	-13.52
262.91	-14.52
263.125	-14.41
263.34	-15.03
263.555	-10.05
263.769	-10.33
263.984	-10.16
264.199	-13.45
264.414	-10.64
264.629	-6.23
264.843	-5.44
265.058	-6.46
265.273	-5.81
265.488	-4.5
265.702	-4.66
265.917	-5.6
266.132	-8.24
266.346	-12.62
266.561	-8.46
266.776	-9.89
266.99	-13.02
267.205	-6.32
267.42	-6.16
267.634	-8.15
267.849	-11.98
268.063	-6.6
268.278	-9.5
268.492	-6.55
268.707	-3.36
268.922	-3.84
269.136	-9.6
269.351	-8.85
269.565	-11.16
269.78	-9.89
269.994	-6.1
270.209	-2.1
270.423	-2.31
270.637	-2.54
270.852	-3.83
271.066	-3.02
271.281	-1.06
271.495	4.45
271.709	4.33
271.924	4.16
272.138	5.52
272.353	3.66
272.567	1.03
272.781	1.46
272.996	3.24
273.21	3.51
273.424	-1.49
273.638	-6.59
273.853	-9.67
274.067	-6.16
274.281	-7.5
274.495	-10.75
274.71	-7.68
274.924	-6.83
275.138	-7.09
275.352	-3.43
275.566	-0.78
275.781	2.61
275.995	4.51
276.209	6.64
276.423	3.01
276.637	4.33
276.851	5.75
277.065	3.33
277.279	5.2
277.493	2.08
277.707	-1.53
277.921	-7.17
278.135	-8.98
278.349	-13.13
278.563	-16.9
278.777	-14.7
278.991	-17.63
279.205	-20.43
279.419	-22.1
279.633	-23.43
279.847	-19.75
280.061	-21.72
280.275	-13.84
280.489	-11.31
280.703	-10.42
280.917	-9.57
281.131	-8.92
281.344	-4.6
281.558	-4.2
281.772	-3.53
281.986	-3.41
282.2	-5.38
282.414	-3.95
282.627	-4.68
282.841	-3.77
283.055	-4.68
283.269	-0.63
283.482	-0.98
283.696	-2.71
283.91	-2.32
284.123	-3.63
284.337	-2.44
284.551	0.7
284.764	1.74
284.978	1.25
285.192	-0.82
285.405	1.98
285.619	-1.53
285.833	-1.5
286.046	-3.15
286.26	-5.44
286.473	-2.82
286.687	-3.69
286.9	-3.95
287.114	-6.32
287.327	-6.47
287.541	-4.9
287.754	-7.39
287.968	-3.53
288.181	-7.09
288.395	-6.06
288.608	-5.54
288.822	-5.7
289.035	-5.31
289.248	-6.25
289.462	-4.08
289.675	-3.16
289.889	-4.67
290.102	0.11
290.315	-2.42
290.529	-0.56
290.742	-0.35
290.955	1.48
291.169	1.17
291.382	0.64
291.595	-3.76
291.808	-4.52
292.022	-5.04
292.235	-4.04
292.448	-7.25
292.661	-6.62
292.875	-6.12
293.088	-5.88
293.301	-3.75
293.514	-5.7
293.727	-6.02
293.94	-4.7
294.153	-5.16
294.367	-6.4
294.58	-6.86
294.793	-6.73
295.006	-9.17
295.219	-7.01
295.432	-7.69
295.645	-7.09
295.858	-5.71
296.071	-4.82
296.284	-2.86
296.497	-5.39
296.71	-5.32
296.923	-3.05
297.136	-2.74
297.349	0.16
297.562	-2.06
297.775	-1.54
297.988	-1.96
298.201	-0.65
298.414	0.79
298.626	0.61
298.839	2.73
299.052	5.02
299.265	5.11
299.478	4.94
299.691	3.07
299.903	6.35
300.116	4.23
300.329	1.56
300.542	1.12
300.755	-3.4
300.967	-2.58
301.18	-1.11
301.393	-2.72
301.605	-2.98
301.818	-3.55
302.031	-2.4
302.243	-6.65
302.456	-6.17
302.669	-2.98
302.881	-4.89
303.094	-3
303.307	-2.81
303.519	-6.35
303.732	-7.35
303.944	-11
304.157	-10.95
304.37	-9.89
304.582	-7.72
304.795	-3.85
305.007	-5.04
305.22	-6.2
305.432	-7.24
305.645	-7.3
305.857	-6.04
306.069	-4
306.282	-4.3
306.494	-3.93
306.707	-8.91
306.919	-11.43
307.132	-14.02
307.344	-17.69
307.556	-14.99
307.769	-13.09
307.981	-12.55
308.193	-12.45
308.406	-12.38
308.618	-7.79
308.83	-6.51
309.043	0.16
309.255	2.33
309.467	1.01
309.679	4.54
309.892	5.48
310.104	5.65
310.316	4.94
310.528	7.33
310.74	6.51
310.953	3.87
311.165	3.81
311.377	0.06
311.589	-1.61
311.801	0.63
312.013	-1.71
312.225	-1.94
312.437	-0.63
312.649	-0.05
312.862	-1.42
313.074	-2.86
313.286	1.8
313.498	1.64
313.71	0.42
313.922	0.86
314.134	-0.43
314.346	0.81
314.558	-2.17
314.77	-3.62
314.982	-1.27
315.193	-1.05
315.405	1.61
315.617	-1.95
315.829	-1.95
316.041	-1.13
316.253	0.43
316.465	2.58
316.677	1.5
316.888	5.28
317.1	2.89
317.312	1.16
317.524	4.07
317.736	2.99
317.947	1.82
318.159	0.13
318.371	1.27
318.583	-2.93
318.794	-4.66
319.006	-3.54
319.218	-8.31
319.43	-7.06
319.641	-7.59
319.853	-14.41
320.064	-14.87
320.276	-17.06
320.488	-15.97
320.699	-18.13
320.911	-11.71
321.123	-7.72
321.334	-12.13
321.546	-11.18
321.757	-11.12
321.969	-12.15
322.18	-7.07
322.392	-4.66
322.603	-2.63
322.815	-0.99
323.026	4.76
323.238	3.86
323.449	0.89
323.661	1.97
323.872	1.42
324.083	1.31
324.295	1.96
324.506	0.26
324.718	-2.12
324.929	-0.75
325.14	-2.32
325.352	-5.58
325.563	-3.49
325.774	-2.94
325.986	-1.88
326.197	0.48
326.408	-1.18
326.62	-3.81
326.831	-0.73
327.042	-2.67
327.253	-3.01
327.464	-1.49
327.676	-2.01
327.887	-4
328.098	-7.29
328.309	-4.15
328.52	-7.06
328.732	-5.76
328.943	-3.33
329.154	-9.37
329.365	-4.45
329.576	-3.14
329.787	-3.86
329.998	-2.23
330.209	-5.45
330.42	0.04
330.631	-3.2
330.842	-1.17
331.053	2.78
331.264	0.49
331.475	2.91
331.686	1.02
331.897	2.84
332.108	2.48
332.319	4.27
332.53	5.19
332.741	5.06
332.952	6.68
333.163	7.62
333.374	7.41
333.585	8.2
333.795	7.38
334.006	8.38
334.217	7.21
334.428	8.9
334.639	5.83
334.849	5.62
335.06	3.14
335.271	1.34
335.482	-0.42
335.692	-3.49
335.903	-1.86
336.114	-0.85
336.325	-0.65
336.535	-3.87
336.746	-4.69
336.957	-3.81
337.167	-3.81
337.378	-2.27
337.589	1.61
337.799	-0.33
338.01	1.79
338.22	2.25
338.431	-1
338.642	-3.43
338.852	-2.8
339.063	-3.83
339.273	-1.01
339.484	-0.29
339.694	-0.9
339.905	-6.86
340.115	-1.24
340.326	-2.35
340.536	-2.13
340.746	1.77
340.957	2.08
341.167	3.55
341.378	3.36
341.588	-0.91
341.799	-0.8
342.009	0.17
342.219	2.16
342.43	-1.45
342.64	-0.41
342.85	1.48
343.061	0.93
343.271	2.12
343.481	1.68
343.691	2.14
343.902	5.16
344.112	4.33
344.322	2.35
344.532	2.79
344.743	2.72
344.953	1.23
345.163	0.27
345.373	-0.83
345.583	-1.66
345.793	-1.75
346.004	-1.29
346.214	-2.79
346.424	-3.27
346.634	-2.27
346.844	-2.43
347.054	-1.19
347.264	-3.92
347.474	-7.41
347.684	-4.69
347.894	-4.41
348.104	-4.03
348.314	-3.87
348.524	-3.6
348.734	-1.48
348.944	-2.17
349.154	-1.2
349.364	-1.83
349.574	0.67
349.784	3.3
349.994	4.16
350.204	3.94
350.413	3.2
350.623	3.76
350.833	3.36
351.043	1.27
351.253	3.88
351.463	5.12
351.672	7.05
351.882	8.26
352.092	7.98
352.302	5.59
352.511	6.1
352.721	5.34
352.931	6.08
353.141	4.18
353.35	7.51
353.56	6.02
353.77	0.67
353.979	0.42
354.189	0.72
354.399	-0.2
354.608	2.35
354.818	2.34
355.027	2.96
355.237	2.11
355.447	4.94
355.656	2.17
355.866	3.04
356.075	6.78
356.285	5.57
356.494	3.8
356.704	3.76
356.913	1.53
357.123	1.06
357.332	0.5
357.542	0.06
357.751	-0.47
357.96	-1.36
358.17	-1.24
358.379	-2.03
358.589	-0.7
358.798	-0.93
359.007	-1.16
359.217	-1.73
359.426	-2.14
359.635	-2.53
359.845	-3.57
360.054	-4.93
360.263	-2.86
360.472	-3.11
360.682	-3.1
360.891	-3.92
361.1	-2.94
361.309	-3.1
361.519	-2.65
361.728	-2.38
361.937	-1.66
362.146	-0.65
362.355	0.83
362.564	-0.9
362.774	-1.49
362.983	-0.46
363.192	0.14
363.401	0.2
363.61	1.21
363.819	1.95
364.028	0.34
364.237	0.9
364.446	0.65
364.655	-0.14
364.864	2.21
365.073	1.16
365.282	0.03
365.491	0.56
365.7	1.62
365.909	1.06
366.118	1.27
366.327	1.66
366.536	2.18
366.745	3.11
366.954	3.46
367.162	2.52
367.371	2.45
367.58	3.31
367.789	4.06
367.998	3.39
368.207	4.3
368.415	2.59
368.624	3.73
368.833	3.52
369.042	2.48
369.25	2.99
369.459	2.53
369.668	2.96
369.877	2.31
370.085	1.2
370.294	1.74
370.503	-0.05
370.711	1.31
370.92	1.55
371.129	1.63
371.337	0.68
371.546	0.12
371.754	-0.31
371.963	0.04
372.171	-1.56
372.38	-1.56
372.589	-3.69
372.797	-4.02
373.006	-5.31
373.214	-7.59
373.423	-6.06
373.631	-4.17
373.84	-4.56
374.048	-4.04
374.256	-2.6
374.465	-0.62
374.673	-1.39
374.882	-0.03
375.09	0.42
375.298	1.68
375.507	4.55
375.715	3.26
375.923	1.53
376.132	1.34
376.34	0.85
376.548	0.74
376.757	-0.18
376.965	0.49
377.173	-0.04
377.381	0.12
377.59	-0.75
377.798	-1.25
378.006	-2.6
378.214	-2.83
378.423	-1.16
378.631	-0.1
378.839	-1.48
379.047	-0.58
379.255	-0.49
379.463	0.66
379.671	1.38
379.879	0.55
380.088	0.66
380.296	0.21
380.504	1.39
380.712	0.61
380.92	1.07
381.128	2.48
381.336	2.9
381.544	3.19
381.752	2.64
381.96	2.77
382.168	2.21
382.376	1.73
382.584	2.76
382.791	2.49
382.999	2.64
383.207	1.17
383.415	-0.36
383.623	-0.94
383.831	-0.84
384.039	-1.94
384.247	-2.71
384.454	-0.75
384.662	0.11
384.87	-0.47
385.078	-0.32
385.285	-0.5
385.493	0.91
385.701	1.39
385.909	0.84
386.116	0.14
386.324	1.26
386.532	1.98
386.739	1.35
386.947	1.23
387.155	2.18
387.362	2.49
387.57	1.21
387.778	1.6
387.985	1.07
388.193	0.73
388.4	1.25
388.608	1.24
388.816	0.61
389.023	0.55
389.231	-0.08
389.438	0.04
389.646	1.16
389.853	2.56
390.061	1.07
390.268	1.85
390.475	3.12
390.683	1.29
390.89	0.33
391.098	0.18
391.305	1.64
391.512	2.67
391.72	2.86
391.927	0.41
392.135	0.92
392.342	2.25
392.549	2.75
392.756	2.19
392.964	3.97
393.171	4.24
393.378	4.17
393.586	3.24
393.793	2.1
394	2.17
394.207	4.5
394.414	3.36
394.622	2.12
394.829	2.02
395.036	2.21
395.243	1.11
395.45	2.22
395.657	1.78
395.864	0.63
396.072	1.23
396.279	1.49
396.486	-0.24
396.693	0.59
396.9	2.03
397.107	1.78
397.314	0.96
397.521	1.37
397.728	1.16
397.935	1.34
398.142	2.24
398.349	1.1
398.556	0.42
398.763	0.44
398.97	-0.1
399.177	-0.03
399.383	-0.8
399.59	-1.6
399.797	-1.18
400.004	-2.41
400.211	-2.27
400.418	-1.75
400.625	-0.24
400.831	-0.33
401.038	0.47
401.245	-0.96
401.452	-1.8
401.658	-0.92
401.865	0.78
402.072	0.82
402.279	0.94
402.485	1.74
402.692	1.6
402.899	1.87
403.105	1.92
403.312	1.28
403.519	2.63
403.725	2.96
403.932	2.53
404.138	2.11
404.345	1.21
404.552	1
404.758	-0.06
404.965	0.86
405.171	0.78
405.378	1
405.584	1.75
405.791	2.23
405.997	1.34
406.204	0.3
406.41	0.47
406.617	1.51
406.823	0.9
407.029	1.71
407.236	0.77
407.442	0.67
407.649	-0.17
407.855	-0.74
408.061	-1.62
408.268	-0.78
408.474	-0.28
408.68	1.4
408.887	1.14
409.093	2.72
409.299	2.93
409.505	3.44
409.712	2.92
409.918	2.69
410.124	2.13
410.33	2.2
410.537	2.6
410.743	2.86
410.949	0.38
411.155	0.94
411.361	0.84
411.567	0.81
411.773	-0.24
411.98	-0.24
412.186	1.58
412.392	2.05
412.598	2.51
412.804	1.18
413.01	0.74
413.216	0.92
413.422	0.27
413.628	-0.45
413.834	-0.16
414.04	-0.15
414.246	0.13
414.452	-1.43
414.658	-1.16
414.864	-2.07
415.07	-2.08
415.275	-1.55
415.481	0.29
415.687	0.4
415.893	0.78
416.099	-0.36
416.305	0.28
416.511	0.29
416.716	0.46
416.922	1.31
417.128	1.8
417.334	2.42
417.539	2.61
417.745	2.32
417.951	1.99
418.157	1.76
418.362	2.82
418.568	2.54
418.774	2.13
418.979	2.46
419.185	2.86
419.391	2.88
419.596	2.66
419.802	2.82
420.008	2.53
420.213	2.98
420.419	3.41
420.624	2.79
420.83	2.93
421.035	3.49
421.241	3.03
421.446	2.18
421.652	2.17
421.857	2.11
422.063	1.92
422.268	1.9
422.474	1.45
422.679	1.5
422.885	1.33
423.09	1.44
423.295	1.08
423.501	1.45
423.706	1.57
423.911	1.46
424.117	1.63
424.322	2.2
424.527	2.08
424.733	2.32
424.938	1.66
425.143	1.79
425.349	1.69
425.554	2.41
425.759	2.4
425.964	2.45
426.169	2.87
426.375	2.5
426.58	2.09
426.785	1.89
426.99	1.47
427.195	2.23
427.4	2.82
427.605	2.3
427.811	1.21
428.016	1.31
428.221	2.04
428.426	1.65
428.631	1.93
428.836	1.37
429.041	1.67
429.246	2.2
429.451	2.11
429.656	2.18
429.861	2.84
430.066	3.39
430.271	4.27
430.476	3.05
430.681	2.62
430.886	2.86
431.09	3.74
431.295	3.88
431.5	4.01
431.705	3.42
431.91	3.9
432.115	3.26
432.32	3.48
432.524	2.51
432.729	2
432.934	2.45
433.139	2.55
433.343	2
433.548	2.46
433.753	1.85
433.958	2.62
434.162	1.87
434.367	2.1
434.572	1.34
434.776	1.72
434.981	2.04
435.186	1.93
435.39	2.03
435.595	1.94
435.799	0.83
436.004	1.16
436.209	1.37
436.413	1.25
436.618	1.17
436.822	1.89
437.027	1.87
437.231	2.16
437.436	2.51
437.64	1.87
437.845	1.82
438.049	2.45
438.253	2.34
438.458	1.29
438.662	1.5
438.867	1.76
439.071	1.34
439.275	1.01
439.48	1.29
439.684	1.19
439.888	1.41
440.093	1.31
440.297	1.24
440.501	1.75
440.706	2.44
440.91	2.06
441.114	1.86
441.318	1.88
441.523	2.41
441.727	2.03
441.931	1.9
442.135	2.12
442.339	1.94
442.543	2.22
442.748	1.82
442.952	1.61
443.156	1.78
443.36	2.25
443.564	1.68
443.768	1.47
443.972	1.58
444.176	1.42
444.38	0.76
444.584	1.35
444.788	0.51
444.992	0.97
445.196	0.62
445.4	1.29
445.604	1.29
445.808	1.27
446.012	1.2
446.216	1.53
446.42	2.02
446.624	2.22
446.828	2.39
447.032	2.76
447.235	2.31
447.439	2.71
447.643	2.47
447.847	2.15
448.051	1.99
448.254	2.01
448.458	1.73
448.662	1.63
448.866	1.37
449.069	1.06
449.273	0.77
449.477	0.97
449.681	1.18
449.884	0.86
450.088	0.26
450.292	0.94
450.495	0.92
450.699	1.24
450.902	0.69
451.106	1.56
451.31	1.36
451.513	2.05
451.717	1.92
451.92	1.83
452.124	1.83
452.327	2.17
452.531	2.26
452.734	2.27
452.938	2.1
453.141	2
453.345	1.58
453.548	1.62
453.752	1.92
453.955	2.49
454.158	2.1
454.362	2.69
454.565	3.35
454.769	3.96
454.972	3.97
455.175	3.21
455.379	2.52
455.582	2.75
455.785	2.83
455.988	1.48
456.192	0.3
456.395	0.85
456.598	-0.24
456.801	-0.97
457.005	-1
457.208	-1.53
457.411	-0.91
457.614	-0.75
