Data from JASIL_2907_Reflection_1.txt Node
Date: Sat Nov 07 20:22:21 EST 2015
User: Geneva
Spectrometer: USB4E03002
Autoset integration time: false
Trigger mode: 4
Integration Time (sec): 1.000000E-1
Scans to average: 10
Electric dark correction enabled: true
Nonlinearity correction enabled: false
Boxcar width: 5
Stray light correction enabled: false
XAxis mode: Wavelengths
Stop averaging: false
Number of Pixels in Spectrum: 3648
>>>>>Begin Spectral Data<<<<<
177.575	123.55
177.794	166.98
178.014	129.54
178.233	122.34
178.452	115.26
178.672	213.75
178.891	431.4
179.11	212.52
179.33	157.97
179.549	155.3
179.768	127.25
179.987	98.52
180.207	124.04
180.426	114.21
180.645	113.37
180.864	108.42
181.084	126.39
181.303	124.63
181.522	118.09
181.741	115.46
181.96	112.84
182.179	116.27
182.398	136.66
182.618	111.37
182.837	104.77
183.056	80.53
183.275	81.3
183.494	71.26
183.713	70.27
183.932	64.64
184.151	65.12
184.37	61
184.589	73.47
184.808	69.99
185.027	73.72
185.246	76.37
185.465	89.12
185.684	89.86
185.903	101.04
186.122	115.75
186.341	116.99
186.56	125.97
186.779	144.04
186.998	136.13
187.216	129.35
187.435	126.4
187.654	118.23
187.873	126.22
188.092	139.07
188.311	117.1
188.53	104.3
188.748	93.48
188.967	95.77
189.186	91.23
189.405	92.86
189.623	99.27
189.842	104.78
190.061	115.48
190.28	104.14
190.498	90.17
190.717	93.65
190.936	100.76
191.154	109.58
191.373	108.54
191.592	101.21
191.81	107.17
192.029	92.84
192.248	85.49
192.466	84.13
192.685	88.19
192.904	92.09
193.122	89.86
193.341	82.43
193.559	79.7
193.778	83.15
193.996	83.75
194.215	85.41
194.433	97.41
194.652	95.56
194.87	94.03
195.089	92.26
195.307	100.62
195.526	105.07
195.744	102.5
195.963	103.58
196.181	96.74
196.399	91.83
196.618	91.44
196.836	95.14
197.055	97.47
197.273	99.6
197.491	102.11
197.71	98.73
197.928	92.16
198.146	92.99
198.365	87.43
198.583	76.24
198.801	85.28
199.019	73.95
199.238	69.93
199.456	66.77
199.674	66.35
199.892	63.5
200.111	65.32
200.329	73.73
200.547	69.17
200.765	67.26
200.983	82.26
201.202	82.09
201.42	98.92
201.638	90.22
201.856	91.39
202.074	85.54
202.292	82.84
202.51	78.21
202.728	88.41
202.946	94.19
203.165	100.94
203.383	96.98
203.601	92.46
203.819	80.75
204.037	85.8
204.255	84.46
204.473	80.72
204.691	78.82
204.909	80.01
205.127	68.81
205.345	70.4
205.562	73.92
205.78	75
205.998	76.55
206.216	83.43
206.434	80.62
206.652	87.3
206.87	95.33
207.088	87.58
207.306	89.06
207.523	91.7
207.741	89.24
207.959	84.46
208.177	85.28
208.395	83.28
208.612	81.23
208.83	82.99
209.048	79.03
209.266	73.59
209.483	80.41
209.701	75.79
209.919	76.38
210.136	71.9
210.354	74.05
210.572	70.99
210.79	74.37
211.007	77.23
211.225	78.2
211.442	72.97
211.66	74.46
211.878	74.55
212.095	67.54
212.313	64.61
212.53	63.9
212.748	57.78
212.966	67.02
213.183	63.69
213.401	61.62
213.618	56.13
213.836	58.14
214.053	58.2
214.271	62.92
214.488	69.4
214.705	62.29
214.923	64.15
215.14	60.79
215.358	51.91
215.575	50.53
215.793	48.52
216.01	56.14
216.227	59.1
216.445	62.39
216.662	56.75
216.879	58.16
217.097	63.33
217.314	60.51
217.531	66.64
217.749	71.34
217.966	71.54
218.183	71.8
218.4	58.05
218.618	58.59
218.835	54.2
219.052	55.98
219.269	59.1
219.487	56.98
219.704	56.52
219.921	52.4
220.138	51.89
220.355	47.9
220.572	48.83
220.79	53.12
221.007	49.46
221.224	49.92
221.441	48.07
221.658	47.4
221.875	46.31
222.092	46.5
222.309	47.61
222.526	44.27
222.743	49.36
222.96	47.43
223.177	43.92
223.394	42.62
223.611	43.94
223.828	44.32
224.045	40.92
224.262	39.77
224.479	38.43
224.696	37.31
224.913	38.22
225.13	32.2
225.347	31.59
225.564	31.89
225.781	30.33
225.997	26.78
226.214	24.42
226.431	22.68
226.648	21.14
226.865	20.55
227.082	19.61
227.298	17.38
227.515	18.5
227.732	18.19
227.949	18.12
228.165	17.95
228.382	17.88
228.599	17.97
228.816	18.26
229.032	18.63
229.249	18.9
229.466	19.53
229.682	20.55
229.899	20.35
230.116	20.16
230.332	19.22
230.549	19.94
230.765	20.82
230.982	20.12
231.199	20.39
231.415	20.25
231.632	19.22
231.848	18.57
232.065	18.32
232.281	18.82
232.498	19.25
232.714	19.9
232.931	20.54
233.147	20.86
233.364	21.79
233.58	20.86
233.797	22.04
234.013	23.53
234.23	23.24
234.446	22.46
234.662	21.57
234.879	20.85
235.095	20.78
235.312	19.6
235.528	19.52
235.744	19.01
235.961	20.28
236.177	19.26
236.393	18.68
236.61	20.48
236.826	21.45
237.042	21.49
237.258	21.74
237.475	21.8
237.691	22.26
237.907	21.56
238.123	21.63
238.339	21.12
238.556	20.24
238.772	20.05
238.988	19.28
239.204	19.11
239.42	19.35
239.636	19.4
239.853	18.81
240.069	18.35
240.285	17.99
240.501	17.44
240.717	17.31
240.933	17.13
241.149	16.61
241.365	15.94
241.581	15.97
241.797	15.67
242.013	15.24
242.229	15.39
242.445	15.06
242.661	14.75
242.877	15.03
243.093	14.92
243.309	14.91
243.525	15.12
243.741	15.58
243.957	14.91
244.173	14.93
244.388	15.12
244.604	14.48
244.82	13.81
245.036	13.79
245.252	13.53
245.468	13.24
245.683	13.22
245.899	12.91
246.115	12.79
246.331	12.82
246.547	12.58
246.762	12.65
246.978	12.82
247.194	13.16
247.409	13.23
247.625	13.29
247.841	13.23
248.057	13.43
248.272	13.57
248.488	13.54
248.703	13.68
248.919	14.36
249.135	13.96
249.35	13.4
249.566	13.49
249.782	13.21
249.997	12.99
250.213	13.15
250.428	12.57
250.644	12.72
250.859	12.59
251.075	12.67
251.29	11.8
251.506	12.32
251.721	12.4
251.937	12.29
252.152	12.51
252.368	12.78
252.583	12.78
252.798	13.15
253.014	12.92
253.229	12.77
253.445	12.59
253.66	13.45
253.875	12.83
254.091	13.12
254.306	13.11
254.521	12.97
254.737	12.98
254.952	12.34
255.167	11.9
255.383	11.84
255.598	11.8
255.813	11.42
256.028	11.24
256.244	11.02
256.459	11.01
256.674	10.5
256.889	10.04
257.104	9.66
257.32	10.23
257.535	10.28
257.75	10
257.965	10.22
258.18	10.24
258.395	9.95
258.61	9.97
258.826	9.71
259.041	9.86
259.256	9.88
259.471	9.75
259.686	9.66
259.901	9.68
260.116	9.91
260.331	9.66
260.546	9.81
260.761	10.02
260.976	10.04
261.191	10.18
261.406	10.22
261.621	10.37
261.836	10.72
262.05	10.18
262.265	9.94
262.48	9.57
262.695	9.78
262.91	9.68
263.125	9.7
263.34	10.15
263.555	10.47
263.769	10.6
263.984	10.88
264.199	11.08
264.414	11.47
264.629	11.73
264.843	11.95
265.058	11.75
265.273	11.3
265.488	11.12
265.702	10.87
265.917	10.94
266.132	10.6
266.346	10.49
266.561	10.38
266.776	10.45
266.99	10.11
267.205	10.23
267.42	10.49
267.634	10.64
267.849	10.81
268.063	10.82
268.278	10.95
268.492	11.2
268.707	10.83
268.922	10.7
269.136	10.55
269.351	10.42
269.565	10.31
269.78	10.09
269.994	10.01
270.209	9.8
270.423	9.67
270.637	9.26
270.852	9.01
271.066	9.25
271.281	9.28
271.495	9.38
271.709	9.63
271.924	9.36
272.138	9.46
272.353	9.69
272.567	9.56
272.781	9.4
272.996	9.48
273.21	9.7
273.424	9.45
273.638	9.29
273.853	9.13
274.067	9.01
274.281	9.23
274.495	9.12
274.71	8.94
274.924	8.95
275.138	9.18
275.352	9.23
275.566	9.12
275.781	9.35
275.995	9.49
276.209	9.73
276.423	9.73
276.637	9.82
276.851	9.71
277.065	9.5
277.279	9.5
277.493	9.64
277.707	9.7
277.921	9.78
278.135	9.41
278.349	9.28
278.563	9.12
278.777	9.1
278.991	9.02
279.205	9.02
279.419	9.18
279.633	9.43
279.847	9.5
280.061	9.4
280.275	9.06
280.489	9.51
280.703	9.51
280.917	9.43
281.131	9.43
281.344	9.3
281.558	9.16
281.772	9.13
281.986	8.77
282.2	8.63
282.414	8.46
282.627	8.56
282.841	8.39
283.055	8.53
283.269	8.52
283.482	8.4
283.696	8.39
283.91	8.4
284.123	8.23
284.337	8.36
284.551	8.04
284.764	8.25
284.978	8.21
285.192	8.06
285.405	7.94
285.619	7.97
285.833	8.12
286.046	8.03
286.26	8.14
286.473	8.16
286.687	8.07
286.9	8.42
287.114	8.39
287.327	8.42
287.541	8.46
287.754	8.48
287.968	8.48
288.181	8.4
288.395	8.56
288.608	8.68
288.822	8.69
289.035	8.79
289.248	8.65
289.462	8.85
289.675	8.76
289.889	8.83
290.102	8.7
290.315	8.72
290.529	8.76
290.742	8.82
290.955	8.76
291.169	8.73
291.382	8.83
291.595	8.91
291.808	8.59
292.022	8.54
292.235	8.8
292.448	8.87
292.661	8.74
292.875	8.6
293.088	8.48
293.301	8.38
293.514	8.29
293.727	8.27
293.94	8.22
294.153	8.06
294.367	8.19
294.58	7.75
294.793	7.85
295.006	8.02
295.219	8.3
295.432	8.23
295.645	8.26
295.858	8.38
296.071	8.23
296.284	8.17
296.497	8.37
296.71	8.33
296.923	8.63
297.136	8.5
297.349	8.61
297.562	8.47
297.775	8.63
297.988	8.67
298.201	8.75
298.414	8.93
298.626	8.89
298.839	8.7
299.052	8.87
299.265	8.86
299.478	8.83
299.691	8.77
299.903	8.6
300.116	8.56
300.329	8.56
300.542	8.53
300.755	8.63
300.967	8.82
301.18	8.88
301.393	8.82
301.605	8.73
301.818	9.03
302.031	9.01
302.243	9.13
302.456	9.21
302.669	9.3
302.881	9.51
303.094	9.41
303.307	9.37
303.519	9.46
303.732	9.56
303.944	9.5
304.157	9.64
304.37	9.68
304.582	9.74
304.795	9.75
305.007	9.78
305.22	9.74
305.432	9.68
305.645	9.71
305.857	9.85
306.069	9.61
306.282	9.74
306.494	9.68
306.707	9.63
306.919	9.67
307.132	9.59
307.344	9.54
307.556	9.61
307.769	9.77
307.981	9.73
308.193	9.65
308.406	9.94
308.618	9.74
308.83	9.49
309.043	9.38
309.255	9.37
309.467	9.36
309.679	9.35
309.892	9.13
310.104	9.05
310.316	9.04
310.528	9.13
310.74	9.04
310.953	9.07
311.165	9.29
311.377	9.3
311.589	9.31
311.801	9.37
312.013	9.33
312.225	9.45
312.437	9.74
312.649	9.93
312.862	9.68
313.074	9.41
313.286	9.61
313.498	9.4
313.71	9.63
313.922	9.74
314.134	9.76
314.346	9.82
314.558	9.99
314.77	9.71
314.982	9.61
315.193	9.64
315.405	9.93
315.617	9.75
315.829	9.78
316.041	9.94
316.253	9.89
316.465	9.88
316.677	9.88
316.888	9.76
317.1	10.15
317.312	10.28
317.524	10.53
317.736	10.66
317.947	10.74
318.159	10.85
318.371	10.48
318.583	10.28
318.794	10.07
319.006	10.17
319.218	10.4
319.43	9.99
319.641	9.94
319.853	10.12
320.064	10.15
320.276	10.23
320.488	10.08
320.699	10.16
320.911	10.43
321.123	11.07
321.334	11.09
321.546	10.99
321.757	11.14
321.969	11.4
322.18	11.23
322.392	11.04
322.603	11.1
322.815	11.27
323.026	11.27
323.238	11.15
323.449	10.72
323.661	10.69
323.872	10.82
324.083	10.8
324.295	10.74
324.506	10.94
324.718	11.12
324.929	11.23
325.14	11.44
325.352	11.65
325.563	12.03
325.774	12.33
325.986	12.53
326.197	12.59
326.408	12.87
326.62	12.77
326.831	12.76
327.042	12.84
327.253	12.97
327.464	13.23
327.676	13.49
327.887	13.48
328.098	13.63
328.309	13.76
328.52	13.98
328.732	13.89
328.943	14.39
329.154	14.61
329.365	14.95
329.576	15.19
329.787	15.06
329.998	15.06
330.209	15
330.42	15.23
330.631	15.37
330.842	15.28
331.053	15.54
331.264	15.53
331.475	15.64
331.686	15.56
331.897	15.73
332.108	15.81
332.319	15.74
332.53	16.05
332.741	15.87
332.952	16.15
333.163	16.22
333.374	16.4
333.585	16.38
333.795	16.47
334.006	16.53
334.217	16.34
334.428	16.46
334.639	16.74
334.849	16.54
335.06	16.71
335.271	16.54
335.482	16.68
335.692	16.54
335.903	16.6
336.114	16.66
336.325	16.67
336.535	16.91
336.746	16.97
336.957	16.94
337.167	17.04
337.378	17.12
337.589	17.22
337.799	17.23
338.01	17.17
338.22	17.12
338.431	16.92
338.642	16.96
338.852	16.69
339.063	16.43
339.273	16.27
339.484	16.2
339.694	16.1
339.905	16.03
340.115	16
340.326	16.04
340.536	15.9
340.746	15.95
340.957	15.93
341.167	16.24
341.378	16.47
341.588	16.56
341.799	16.58
342.009	16.59
342.219	16.42
342.43	16.43
342.64	16.28
342.85	16.31
343.061	16.14
343.271	16.28
343.481	16.06
343.691	15.82
343.902	15.73
344.112	15.75
344.322	15.66
344.532	15.73
344.743	15.55
344.953	15.51
345.163	15.4
345.373	15.61
345.583	15.53
345.793	15.43
346.004	15.55
346.214	15.6
346.424	15.66
346.634	15.65
346.844	15.73
347.054	15.86
347.264	15.98
347.474	16.2
347.684	16.05
347.894	16.01
348.104	16.08
348.314	16.08
348.524	15.95
348.734	15.8
348.944	15.83
349.154	15.79
349.364	15.67
349.574	15.51
349.784	15.46
349.994	15.43
350.204	15.27
350.413	15.15
350.623	14.92
350.833	15.01
351.043	14.85
351.253	14.71
351.463	14.62
351.672	14.69
351.882	14.79
352.092	14.66
352.302	14.6
352.511	14.76
352.721	14.75
352.931	14.8
353.141	14.76
353.35	15.07
353.56	15.11
353.77	15.09
353.979	15.11
354.189	15.06
354.399	15.06
354.608	15.01
354.818	14.82
355.027	14.88
355.237	14.89
355.447	14.8
355.656	14.58
355.866	14.46
356.075	14.41
356.285	14.31
356.494	14.35
356.704	14.3
356.913	14.38
357.123	14.36
357.332	14.22
357.542	14.3
357.751	14.26
357.96	14.29
358.17	14.25
358.379	14.17
358.589	14.18
358.798	14.05
359.007	14.07
359.217	14.02
359.426	14.05
359.635	14.1
359.845	14.07
360.054	14.05
360.263	13.94
360.472	14.08
360.682	14.06
360.891	13.88
361.1	13.84
361.309	13.79
361.519	13.73
361.728	13.72
361.937	13.68
362.146	13.63
362.355	13.59
362.564	13.56
362.774	13.49
362.983	13.42
363.192	13.57
363.401	13.7
363.61	13.67
363.819	13.71
364.028	13.64
364.237	13.55
364.446	13.48
364.655	13.5
364.864	13.6
365.073	13.67
365.282	13.81
365.491	13.66
365.7	13.62
365.909	13.66
366.118	13.67
366.327	13.64
366.536	13.75
366.745	13.78
366.954	13.9
367.162	13.94
367.371	13.76
367.58	13.64
367.789	13.72
367.998	13.77
368.207	13.74
368.415	13.81
368.624	13.78
368.833	13.74
369.042	13.76
369.25	13.63
369.459	13.58
369.668	13.62
369.877	13.58
370.085	13.49
370.294	13.35
370.503	13.27
370.711	13.2
370.92	13.22
371.129	13.19
371.337	13.05
371.546	13
371.754	12.92
371.963	12.84
372.171	12.88
372.38	12.91
372.589	12.93
372.797	13.02
373.006	13.02
373.214	13.01
373.423	12.96
373.631	12.97
373.84	12.92
374.048	12.83
374.256	12.79
374.465	12.77
374.673	12.76
374.882	12.76
375.09	12.69
375.298	12.55
375.507	12.39
375.715	12.36
375.923	12.28
376.132	12.34
376.34	12.35
376.548	12.35
376.757	12.29
376.965	12.27
377.173	12.21
377.381	12.27
377.59	12.34
377.798	12.35
378.006	12.33
378.214	12.35
378.423	12.18
378.631	12.1
378.839	12.12
379.047	12.14
379.255	12.06
379.463	12.13
379.671	12.03
379.879	12
380.088	12.05
380.296	12
380.504	11.98
380.712	12.1
380.92	12.17
381.128	12.13
381.336	11.94
381.544	11.89
381.752	11.76
381.96	11.71
382.168	11.58
382.376	11.53
382.584	11.61
382.791	11.65
382.999	11.65
383.207	11.55
383.415	11.6
383.623	11.67
383.831	11.68
384.039	11.66
384.247	11.65
384.454	11.68
384.662	11.55
384.87	11.56
385.078	11.49
385.285	11.26
385.493	11.26
385.701	11.1
385.909	11.08
386.116	11.07
386.324	11
386.532	10.92
386.739	10.83
386.947	10.87
387.155	10.8
387.362	10.8
387.57	10.96
387.778	10.94
387.985	10.96
388.193	10.92
388.4	10.99
388.608	11.07
388.816	11.08
389.023	11.1
389.231	11.13
389.438	11.1
389.646	11.02
389.853	10.92
390.061	10.91
390.268	10.85
390.475	10.85
390.683	10.8
390.89	10.71
391.098	10.65
391.305	10.71
391.512	10.62
391.72	10.54
391.927	10.5
392.135	10.51
392.342	10.45
392.549	10.58
392.756	10.52
392.964	10.41
393.171	10.36
393.378	10.38
393.586	10.26
393.793	10.32
394	10.38
394.207	10.38
394.414	10.39
394.622	10.45
394.829	10.34
395.036	10.39
395.243	10.38
395.45	10.39
395.657	10.42
395.864	10.47
396.072	10.44
396.279	10.38
396.486	10.33
396.693	10.25
396.9	10.15
397.107	10.09
397.314	10.08
397.521	10.09
397.728	10.06
397.935	10.09
398.142	9.98
398.349	9.9
398.556	9.86
398.763	9.85
398.97	9.89
399.177	9.93
399.383	10
399.59	9.94
399.797	9.97
400.004	9.92
400.211	9.84
400.418	9.87
400.625	9.92
400.831	9.94
401.038	9.95
401.245	9.93
401.452	9.95
401.658	9.88
401.865	9.84
402.072	9.82
402.279	9.93
402.485	9.85
402.692	9.77
402.899	9.76
403.105	9.75
403.312	9.78
403.519	9.78
403.725	9.71
403.932	9.76
404.138	9.75
404.345	9.7
404.552	9.64
404.758	9.72
404.965	9.75
405.171	9.68
405.378	9.61
405.584	9.63
405.791	9.52
405.997	9.59
406.204	9.62
406.41	9.63
406.617	9.64
406.823	9.55
407.029	9.49
407.236	9.54
407.442	9.58
407.649	9.7
407.855	9.64
408.061	9.77
408.268	9.74
408.474	9.58
408.68	9.54
408.887	9.53
409.093	9.61
409.299	9.64
409.505	9.62
409.712	9.6
409.918	9.54
410.124	9.5
410.33	9.47
410.537	9.39
410.743	9.42
410.949	9.4
411.155	9.5
411.361	9.52
411.567	9.55
411.773	9.52
411.98	9.53
412.186	9.61
412.392	9.67
412.598	9.6
412.804	9.57
413.01	9.61
413.216	9.66
413.422	9.61
413.628	9.5
413.834	9.37
414.04	9.42
414.246	9.4
414.452	9.31
414.658	9.33
414.864	9.3
415.07	9.26
415.275	9.23
415.481	9.2
415.687	9.14
415.893	9.2
416.099	9.23
416.305	9.12
416.511	9.13
416.716	9.03
416.922	8.93
417.128	8.96
417.334	8.99
417.539	8.94
417.745	8.88
417.951	8.85
418.157	8.81
418.362	8.75
418.568	8.78
418.774	8.75
418.979	8.8
419.185	8.83
419.391	8.8
419.596	8.8
419.802	8.82
420.008	8.79
420.213	8.57
420.419	8.58
420.624	8.6
420.83	8.59
421.035	8.6
421.241	8.58
421.446	8.56
421.652	8.56
421.857	8.55
422.063	8.51
422.268	8.57
422.474	8.78
422.679	8.75
422.885	8.75
423.09	8.71
423.295	8.67
423.501	8.67
423.706	8.7
423.911	8.66
424.117	8.64
424.322	8.68
424.527	8.66
424.733	8.63
424.938	8.65
425.143	8.64
425.349	8.63
425.554	8.67
425.759	8.65
425.964	8.63
426.169	8.66
426.375	8.66
426.58	8.66
426.785	8.67
426.99	8.71
427.195	8.77
427.4	8.75
427.605	8.87
427.811	8.85
428.016	8.93
428.221	8.96
428.426	8.93
428.631	8.92
428.836	8.91
429.041	8.9
429.246	8.93
429.451	8.87
429.656	8.94
429.861	8.87
430.066	8.87
430.271	8.82
430.476	8.79
430.681	8.81
430.886	8.82
431.09	8.83
431.295	8.78
431.5	8.75
431.705	8.69
431.91	8.67
432.115	8.65
432.32	8.64
432.524	8.65
432.729	8.64
432.934	8.63
433.139	8.66
433.343	8.66
433.548	8.77
433.753	8.79
433.958	8.86
434.162	8.86
434.367	8.83
434.572	8.85
434.776	8.85
434.981	8.86
435.186	8.89
435.39	8.85
435.595	8.85
435.799	8.78
436.004	8.74
436.209	8.68
436.413	8.63
436.618	8.63
436.822	8.6
437.027	8.55
437.231	8.58
437.436	8.56
437.64	8.51
437.845	8.5
438.049	8.52
438.253	8.5
438.458	8.53
438.662	8.57
438.867	8.62
439.071	8.63
439.275	8.66
439.48	8.62
439.684	8.6
439.888	8.63
440.093	8.63
440.297	8.6
440.501	8.62
440.706	8.58
440.91	8.58
441.114	8.56
441.318	8.53
441.523	8.55
441.727	8.55
441.931	8.56
442.135	8.56
442.339	8.55
442.543	8.6
442.748	8.58
442.952	8.57
443.156	8.57
443.36	8.59
443.564	8.6
443.768	8.55
443.972	8.55
444.176	8.53
444.38	8.55
444.584	8.53
444.788	8.46
444.992	8.44
445.196	8.46
445.4	8.42
445.604	8.39
445.808	8.39
446.012	8.39
446.216	8.37
446.42	8.4
446.624	8.38
446.828	8.37
447.032	8.4
447.235	8.42
447.439	8.44
447.643	8.48
447.847	8.51
448.051	8.51
448.254	8.53
448.458	8.54
448.662	8.55
448.866	8.56
449.069	8.56
449.273	8.59
449.477	8.61
449.681	8.61
449.884	8.59
450.088	8.58
450.292	8.54
450.495	8.52
450.699	8.61
450.902	8.58
451.106	8.61
451.31	8.66
451.513	8.61
451.717	8.57
451.92	8.55
452.124	8.56
452.327	8.54
452.531	8.58
452.734	8.57
452.938	8.51
453.141	8.54
453.345	8.51
453.548	8.49
453.752	8.5
453.955	8.52
454.158	8.54
454.362	8.54
454.565	8.61
454.769	8.62
454.972	8.71
455.175	8.73
455.379	8.7
455.582	8.66
455.785	8.62
455.988	8.61
456.192	8.59
456.395	8.53
456.598	8.56
456.801	8.51
457.005	8.47
457.208	8.4
457.411	8.39
457.614	8.38
457.817	8.39
458.021	8.4
458.224	8.39
458.427	8.43
458.63	8.46
458.833	8.41
459.036	8.39
459.239	8.4
459.442	8.38
459.645	8.36
459.848	8.36
460.051	8.38
460.254	8.43
460.457	8.43
460.66	8.41
460.863	8.43
461.066	8.45
461.269	8.46
461.472	8.51
461.675	8.51
461.878	8.52
462.081	8.51
462.284	8.47
462.486	8.39
462.689	8.47
462.892	8.44
463.095	8.41
463.298	8.45
463.5	8.49
463.703	8.44
463.906	8.45
464.109	8.53
