Data from JASIL_2936_Reflection_2.txt Node
Date: Sat Nov 07 21:02:54 EST 2015
User: Geneva
Spectrometer: USB4E03002
Autoset integration time: false
Trigger mode: 4
Integration Time (sec): 1.000000E-1
Scans to average: 10
Electric dark correction enabled: true
Nonlinearity correction enabled: false
Boxcar width: 5
Stray light correction enabled: false
XAxis mode: Wavelengths
Stop averaging: false
Number of Pixels in Spectrum: 3648
>>>>>Begin Spectral Data<<<<<
177.575	1000.48
177.794	523.85
178.014	501.83
178.233	217.02
178.452	186.49
178.672	158.83
178.891	50.52
179.11	0
179.33	-146.77
179.549	591.28
179.768	-304.98
179.987	274.15
180.207	202.55
180.426	106.67
180.645	89.91
180.864	64.36
181.084	52.82
181.303	36.55
181.522	40.71
181.741	52.15
181.96	55.39
182.179	58.82
182.398	57.2
182.618	46.52
182.837	42.94
183.056	43.09
183.275	62.76
183.494	70.15
183.713	71.1
183.932	51.59
184.151	60.74
184.37	54.16
184.589	53.21
184.808	47.3
185.027	57.26
185.246	59.82
185.465	56.07
185.684	45.81
185.903	56.42
186.122	62.5
186.341	72.93
186.56	76.74
186.779	96.01
186.998	91.91
187.216	94.21
187.435	89.62
187.654	81.1
187.873	101.86
188.092	133.91
188.311	112.19
188.53	98.39
188.748	94.01
188.967	75.85
189.186	59.73
189.405	74.31
189.623	82.59
189.842	81.5
190.061	87.59
190.28	55.49
190.498	54.44
190.717	41.17
190.936	29.55
191.154	0.83
191.373	-2.24
191.592	-5.13
191.81	-32.24
192.029	-12.75
192.248	-32.62
192.466	-1.88
192.685	21.64
192.904	15.38
193.122	17.83
193.341	12.84
193.559	28.47
193.778	31.41
193.996	33.3
194.215	44.22
194.433	42.64
194.652	42.75
194.87	37.1
195.089	50.87
195.307	64.59
195.526	77.64
195.744	84.2
195.963	89.46
196.181	97.75
196.399	105.38
196.618	108.95
196.836	96.72
197.055	84.09
197.273	89.81
197.491	102.53
197.71	79.45
197.928	65.97
198.146	54.2
198.365	65.08
198.583	56.33
198.801	56.71
199.019	50.43
199.238	48.78
199.456	53.99
199.674	43.98
199.892	16.57
200.111	-0.76
200.329	21.74
200.547	5.9
200.765	-0.72
200.983	-8.18
201.202	22.38
201.42	29.21
201.638	13.42
201.856	15.94
202.074	37.03
202.292	44.21
202.51	52.94
202.728	36.91
202.946	32.55
203.165	27.61
203.383	37.43
203.601	29.15
203.819	47.48
204.037	50.52
204.255	45.36
204.473	40.84
204.691	22.12
204.909	19.14
205.127	34.38
205.345	50.08
205.562	46.17
205.78	42.47
205.998	28.03
206.216	22.27
206.434	16.72
206.652	18.32
206.87	23.7
207.088	43.27
207.306	46.46
207.523	41.11
207.741	32.29
207.959	46.26
208.177	38.64
208.395	50.51
208.612	33.99
208.83	51.42
209.048	36.58
209.266	32.4
209.483	15.56
209.701	7.33
209.919	5.31
210.136	12.94
210.354	30.79
210.572	50.47
210.79	50.89
211.007	50.83
211.225	43.36
211.442	47.09
211.66	49.08
211.878	47.83
212.095	105.12
212.313	107.09
212.53	106.29
212.748	102.37
212.966	100.29
213.183	98.38
213.401	101.25
213.618	107.54
213.836	117.32
214.053	112.38
214.271	113.68
214.488	52.27
214.705	41.38
214.923	37.19
215.14	27.93
215.358	21.33
215.575	17.54
215.793	21.34
216.01	7.43
216.227	-0.83
216.445	-0.16
216.662	-1.83
216.879	0.08
217.097	1.17
217.314	-0.19
217.531	5.75
217.749	5.35
217.966	11
218.183	2.38
218.4	7.34
218.618	8.01
218.835	11.14
219.052	15.41
219.269	17.84
219.487	18.33
219.704	16.29
219.921	13.99
220.138	19.13
220.355	17.93
220.572	20.12
220.79	19.32
221.007	26.6
221.224	30.85
221.441	26.8
221.658	25.21
221.875	25.66
222.092	28.24
222.309	27.28
222.526	24.41
222.743	21.45
222.96	19.82
223.177	18.91
223.394	15.23
223.611	12.27
223.828	9.6
224.045	5.13
224.262	5.79
224.479	3.91
224.696	7.33
224.913	8.92
225.13	10.53
225.347	11.5
225.564	10.51
225.781	11.1
225.997	11.46
226.214	10.75
226.431	12.05
226.648	11.73
226.865	12.2
227.082	11.44
227.298	10.77
227.515	10.22
227.732	9.72
227.949	9.44
228.165	9.32
228.382	8.81
228.599	9.21
228.816	9.01
229.032	8.62
229.249	8.95
229.466	8.81
229.682	8.59
229.899	8.89
230.116	9.48
230.332	10.96
230.549	11
230.765	12.21
230.982	13.55
231.199	13.52
231.415	14.33
231.632	13.08
231.848	13.22
232.065	13.94
232.281	13.62
232.498	13.27
232.714	12.05
232.931	11.14
233.147	10.81
233.364	10.02
233.58	11.89
233.797	11.47
234.013	11.61
234.23	11.16
234.446	11.59
234.662	12.07
234.879	12.47
235.095	13.04
235.312	14.75
235.528	14.07
235.744	13.68
235.961	12.23
236.177	12.43
236.393	12.73
236.61	13.67
236.826	12.19
237.042	12.44
237.258	12.52
237.475	12.26
237.691	10.41
237.907	10.5
238.123	9.38
238.339	8.95
238.556	8.52
238.772	8.05
238.988	8.63
239.204	8.45
239.42	7.72
239.636	7.43
239.853	7.31
240.069	7.35
240.285	7.67
240.501	7.79
240.717	7.9
240.933	8.21
241.149	8.3
241.365	8.21
241.581	8.13
241.797	8.3
242.013	8.26
242.229	8.37
242.445	8.48
242.661	8.15
242.877	8.55
243.093	8.99
243.309	8.93
243.525	8.72
243.741	8.3
243.957	8.9
244.173	9
244.388	8.88
244.604	8.63
244.82	8.86
245.036	8.64
245.252	8.34
245.468	7.73
245.683	7.65
245.899	7.96
246.115	7.79
246.331	7.65
246.547	7.5
246.762	7.47
246.978	7.48
247.194	7.1
247.409	7.4
247.625	7.27
247.841	7.19
248.057	7.01
248.272	6.56
248.488	6.72
248.703	6.6
248.919	6.9
249.135	6.65
249.35	6.67
249.566	6.91
249.782	6.39
249.997	6.96
250.213	7.37
250.428	7.61
250.644	7.88
250.859	7.34
251.075	7.26
251.29	6.94
251.506	7.02
251.721	6.94
251.937	7.06
252.152	7.33
252.368	7.1
252.583	7.22
252.798	7.35
253.014	7.49
253.229	7.89
253.445	8.15
253.66	8.11
253.875	8.36
254.091	7.73
254.306	8.03
254.521	7.63
254.737	8.16
254.952	7.26
255.167	6.7
255.383	6.63
255.598	6.87
255.813	6.71
256.028	6.49
256.244	6.45
256.459	6.72
256.674	6.68
256.889	6.3
257.104	5.99
257.32	6.33
257.535	6.03
257.75	5.91
257.965	5.74
258.18	5.62
258.395	5.63
258.61	5.44
258.826	5.37
259.041	5.06
259.256	5.2
259.471	5.16
259.686	5.13
259.901	5.44
260.116	5.44
260.331	5.58
260.546	5.61
260.761	5.55
260.976	5.73
261.191	5.64
261.406	5.72
261.621	5.76
261.836	5.45
262.05	5.44
262.265	4.89
262.48	4.88
262.695	4.64
262.91	4.64
263.125	4.55
263.34	4.59
263.555	5.37
263.769	5.51
263.984	5.42
264.199	5.9
264.414	5.8
264.629	6.15
264.843	5.94
265.058	5.82
265.273	5.95
265.488	6.03
265.702	5.82
265.917	5.72
266.132	5.64
266.346	5.48
266.561	5.21
266.776	5.15
266.99	4.97
267.205	5.08
267.42	5.05
267.634	4.87
267.849	4.9
268.063	4.95
268.278	4.51
268.492	4.65
268.707	4.74
268.922	4.68
269.136	4.85
269.351	5.09
269.565	5.04
269.78	5.04
269.994	5
270.209	5.01
270.423	5.19
270.637	5.24
270.852	5.19
271.066	5.2
271.281	5.36
271.495	5.34
271.709	5.16
271.924	5.03
272.138	4.96
272.353	5.02
272.567	4.84
272.781	4.66
272.996	4.83
273.21	4.75
273.424	4.76
273.638	4.61
273.853	4.54
274.067	4.36
274.281	4.67
274.495	4.68
274.71	4.62
274.924	4.68
275.138	4.8
275.352	4.64
275.566	4.97
275.781	5.1
275.995	5.34
276.209	5.45
276.423	5.46
276.637	5.14
276.851	5.1
277.065	5.32
277.279	5.29
277.493	5.4
277.707	5.39
277.921	5.32
278.135	5.21
278.349	4.93
278.563	4.83
278.777	4.69
278.991	5.05
279.205	5.26
279.419	5.17
279.633	5.17
279.847	4.88
280.061	5.01
280.275	4.92
280.489	5.03
280.703	5.11
280.917	4.97
281.131	5.24
281.344	4.93
281.558	4.64
281.772	4.6
281.986	4.64
282.2	4.64
282.414	4.59
282.627	4.61
282.841	4.53
283.055	4.59
283.269	4.72
283.482	4.55
283.696	4.56
283.91	4.84
284.123	4.87
284.337	4.79
284.551	4.85
284.764	4.83
284.978	4.86
285.192	4.73
285.405	4.79
285.619	4.79
285.833	4.57
286.046	4.66
286.26	4.52
286.473	4.38
286.687	4.47
286.9	4.54
287.114	4.51
287.327	4.53
287.541	4.75
287.754	4.62
287.968	4.52
288.181	4.9
288.395	4.82
288.608	4.73
288.822	4.83
289.035	5.08
289.248	5.03
289.462	5.14
289.675	5.05
289.889	4.84
290.102	4.92
290.315	5.05
290.529	4.9
290.742	4.93
290.955	5.06
291.169	5.19
291.382	4.82
291.595	4.74
291.808	4.65
292.022	4.74
292.235	4.92
292.448	4.94
292.661	4.79
292.875	5.24
293.088	5.18
293.301	5.08
293.514	4.9
293.727	4.98
293.94	5.16
294.153	5
294.367	4.82
294.58	4.5
294.793	4.25
295.006	4.18
295.219	4
295.432	3.98
295.645	4.23
295.858	4.06
296.071	4.04
296.284	3.94
296.497	4.03
296.71	4.1
296.923	4.35
297.136	4.46
297.349	4.74
297.562	4.66
297.775	4.72
297.988	4.56
298.201	4.82
298.414	4.86
298.626	4.72
298.839	4.74
299.052	4.82
299.265	4.58
299.478	4.55
299.691	4.19
299.903	4.32
300.116	4.35
300.329	4.55
300.542	4.49
300.755	4.52
300.967	4.67
301.18	4.79
301.393	4.85
301.605	4.91
301.818	4.97
302.031	5.23
302.243	5.11
302.456	5.28
302.669	5.03
302.881	5.08
303.094	5.08
303.307	5.16
303.519	5.17
303.732	5.25
303.944	5.4
304.157	5.25
304.37	5.28
304.582	5.35
304.795	5.24
305.007	5.34
305.22	5.39
305.432	5.4
305.645	5.26
305.857	5.36
306.069	5.17
306.282	4.92
306.494	5.18
306.707	5.11
306.919	5.2
307.132	5.09
307.344	5.06
307.556	5
307.769	4.95
307.981	4.93
308.193	4.86
308.406	4.74
308.618	4.93
308.83	4.78
309.043	4.82
309.255	4.88
309.467	4.97
309.679	4.96
309.892	4.91
310.104	4.89
310.316	4.88
310.528	4.83
310.74	4.98
310.953	5.1
311.165	5.13
311.377	4.99
311.589	4.86
311.801	4.92
312.013	5.12
312.225	5.25
312.437	5.49
312.649	5.71
312.862	5.74
313.074	5.72
313.286	5.5
313.498	5.45
313.71	5.77
313.922	5.86
314.134	5.73
314.346	5.52
314.558	5.56
314.77	5.51
314.982	5.05
315.193	5.14
315.405	4.83
315.617	4.87
315.829	4.89
316.041	4.66
316.253	4.53
316.465	4.65
316.677	4.65
316.888	4.72
317.1	4.48
317.312	5.07
317.524	5.1
317.736	5.5
317.947	5.7
318.159	6.06
318.371	6.01
318.583	6.33
318.794	6.32
319.006	6.52
319.218	6.43
319.43	6.4
319.641	6.11
319.853	6.14
320.064	6.14
320.276	6.4
320.488	6.01
320.699	6.11
320.911	6.05
321.123	6.3
321.334	6.03
321.546	6.01
321.757	6.44
321.969	6.74
322.18	6.56
322.392	6.45
322.603	6.21
322.815	6.43
323.026	6.57
323.238	6.41
323.449	6.31
323.661	6.42
323.872	6.43
324.083	6.32
324.295	6.12
324.506	6.23
324.718	6.38
324.929	6.44
325.14	6.45
325.352	6.45
325.563	6.66
325.774	6.67
325.986	6.74
326.197	6.73
326.408	6.7
326.62	7.01
326.831	7.07
327.042	6.97
327.253	6.99
327.464	7.1
327.676	7.01
327.887	6.93
328.098	6.8
328.309	7.01
328.52	7.39
328.732	7.58
328.943	7.57
329.154	7.79
329.365	7.77
329.576	7.99
329.787	8.08
329.998	8.25
330.209	8.5
330.42	8.74
330.631	8.7
330.842	8.6
331.053	8.55
331.264	8.44
331.475	8.35
331.686	8.71
331.897	8.65
332.108	8.62
332.319	8.61
332.53	8.58
332.741	8.73
332.952	8.73
333.163	8.85
333.374	9.26
333.585	9.36
333.795	9.36
334.006	9.36
334.217	9.46
334.428	9.56
334.639	9.68
334.849	9.59
335.06	9.49
335.271	9.49
335.482	9.36
335.692	9.29
335.903	9.31
336.114	9.35
336.325	9.34
336.535	9.35
336.746	9.28
336.957	9.19
337.167	9.29
337.378	9.32
337.589	9.32
337.799	9.41
338.01	9.23
338.22	9.26
338.431	9.32
338.642	9.24
338.852	8.88
339.063	8.96
339.273	8.97
339.484	9.01
339.694	8.91
339.905	8.86
340.115	8.75
340.326	8.62
340.536	8.68
340.746	8.82
340.957	8.81
341.167	8.94
341.378	8.87
341.588	9.05
341.799	8.95
342.009	9.01
342.219	8.87
342.43	8.9
342.64	8.97
342.85	8.81
343.061	8.67
343.271	8.66
343.481	8.88
343.691	8.87
343.902	8.6
344.112	8.69
344.322	8.64
344.532	8.84
344.743	8.91
344.953	8.81
345.163	8.84
345.373	8.76
345.583	8.77
345.793	8.51
346.004	8.54
346.214	8.69
346.424	8.54
346.634	8.65
346.844	8.6
347.054	8.58
347.264	8.88
347.474	8.89
347.684	8.88
347.894	8.89
348.104	8.99
348.314	9.05
348.524	9.09
348.734	9.13
348.944	8.94
349.154	8.99
349.364	8.88
349.574	8.65
349.784	8.56
349.994	8.55
350.204	8.48
350.413	8.35
350.623	8.32
350.833	8.1
351.043	8.08
351.253	8.39
351.463	8.21
351.672	8.14
351.882	8.15
352.092	8.14
352.302	8.19
352.511	8.18
352.721	8.32
352.931	8.26
353.141	8.31
353.35	8.36
353.56	8.12
353.77	8.31
353.979	8.44
354.189	8.37
354.399	8.56
354.608	8.48
354.818	8.5
355.027	8.51
355.237	8.53
355.447	8.5
355.656	8.47
355.866	8.57
356.075	8.47
356.285	8.32
356.494	8.26
356.704	8.19
356.913	8.22
357.123	8.15
357.332	8.07
357.542	8.19
357.751	8.28
357.96	8.12
358.17	8.02
358.379	8.12
358.589	8.15
358.798	8.28
359.007	8.18
359.217	8.12
359.426	8.15
359.635	8.16
359.845	8.05
360.054	7.85
360.263	7.98
360.472	7.93
360.682	7.87
360.891	7.87
361.1	7.8
361.309	7.77
361.519	7.86
361.728	7.93
361.937	7.92
362.146	7.9
362.355	8.01
362.564	8.06
362.774	8.07
362.983	8.01
363.192	7.98
363.401	7.99
363.61	8.06
363.819	8.02
364.028	7.96
364.237	7.99
364.446	8
364.655	7.97
364.864	7.87
365.073	7.95
365.282	8
365.491	8.08
365.7	8.17
365.909	8.13
366.118	8.2
366.327	8.15
366.536	8.14
366.745	8.11
366.954	8.16
367.162	8.19
367.371	8.08
367.58	7.95
367.789	7.81
367.998	7.75
368.207	7.84
368.415	7.79
368.624	7.75
368.833	7.77
369.042	7.86
369.25	7.9
369.459	7.95
369.668	7.94
369.877	8.08
370.085	8.23
370.294	8.11
370.503	8.06
370.711	8.01
370.92	7.97
371.129	7.93
371.337	7.81
371.546	7.67
371.754	7.59
371.963	7.74
372.171	7.74
372.38	7.63
372.589	7.81
372.797	7.77
373.006	7.71
373.214	7.69
373.423	7.59
373.631	7.64
373.84	7.76
374.048	7.79
374.256	7.74
374.465	7.63
374.673	7.65
374.882	7.51
375.09	7.54
375.298	7.57
375.507	7.62
375.715	7.71
375.923	7.59
376.132	7.56
376.34	7.49
376.548	7.42
376.757	7.5
376.965	7.62
377.173	7.78
377.381	7.79
377.59	7.78
377.798	7.88
378.006	7.89
378.214	8.08
378.423	8.04
378.631	8.13
378.839	8.14
379.047	8.16
379.255	8.05
379.463	8
379.671	7.99
379.879	8.05
380.088	8.01
380.296	8.06
380.504	8.07
380.712	8.22
380.92	8.31
381.128	8.33
381.336	8.28
381.544	8.29
381.752	8.23
381.96	8.2
382.168	8.31
382.376	8.31
382.584	8.33
382.791	8.35
382.999	8.23
383.207	8.16
383.415	8.17
383.623	8.28
383.831	8.32
384.039	8.42
384.247	8.55
384.454	8.47
384.662	8.53
384.87	8.5
385.078	8.43
385.285	8.62
385.493	8.65
385.701	8.67
385.909	8.62
386.116	8.64
386.324	8.65
386.532	8.61
386.739	8.57
386.947	8.52
387.155	8.52
387.362	8.62
387.57	8.55
387.778	8.6
387.985	8.72
388.193	8.74
388.4	8.82
388.608	8.68
388.816	8.7
389.023	8.74
389.231	8.79
389.438	8.76
389.646	8.65
389.853	8.65
390.061	8.56
390.268	8.47
390.475	8.56
390.683	8.48
390.89	8.55
391.098	8.56
391.305	8.56
391.512	8.46
391.72	8.5
391.927	8.57
392.135	8.65
392.342	8.69
392.549	8.71
392.756	8.62
392.964	8.64
393.171	8.7
393.378	8.68
393.586	8.71
393.793	8.83
394	8.81
394.207	8.8
394.414	8.77
394.622	8.91
394.829	8.97
395.036	8.99
395.243	9.05
395.45	9.01
395.657	9.05
395.864	9.02
396.072	9.03
396.279	9.08
396.486	9.07
396.693	9.1
396.9	9.04
397.107	8.95
397.314	8.99
397.521	8.94
397.728	8.97
397.935	8.93
398.142	8.96
398.349	9
398.556	9.06
398.763	9.1
398.97	9.05
399.177	9.06
399.383	9.16
399.59	9.21
399.797	9.27
400.004	9.34
400.211	9.35
400.418	9.37
400.625	9.35
400.831	9.33
401.038	9.34
401.245	9.33
401.452	9.26
401.658	9.29
401.865	9.3
402.072	9.33
402.279	9.3
402.485	9.42
402.692	9.49
402.899	9.49
403.105	9.55
403.312	9.56
403.519	9.56
403.725	9.68
403.932	9.76
404.138	9.77
404.345	9.74
404.552	9.77
404.758	9.8
404.965	9.78
405.171	9.79
405.378	9.75
405.584	9.8
405.791	9.9
405.997	9.87
406.204	9.8
406.41	9.87
406.617	9.95
406.823	9.98
407.029	9.98
407.236	10.05
407.442	10.11
407.649	10.26
407.855	10.37
408.061	10.45
408.268	10.47
408.474	10.49
408.68	10.47
408.887	10.45
409.093	10.48
409.299	10.45
409.505	10.41
409.712	10.45
409.918	10.38
410.124	10.36
410.33	10.33
410.537	10.41
410.743	10.42
410.949	10.48
411.155	10.63
411.361	10.65
411.567	10.66
411.773	10.69
411.98	10.71
412.186	10.75
412.392	10.68
412.598	10.71
412.804	10.69
413.01	10.73
413.216	10.77
413.422	10.76
413.628	10.8
413.834	10.84
414.04	10.88
414.246	10.88
414.452	10.85
414.658	10.96
414.864	10.92
415.07	10.88
415.275	10.92
415.481	10.89
415.687	10.82
415.893	10.77
416.099	10.8
416.305	10.89
416.511	10.95
416.716	10.89
416.922	10.87
417.128	10.91
417.334	10.97
417.539	10.96
417.745	10.99
417.951	10.96
418.157	11.04
418.362	11.09
418.568	11.03
418.774	10.9
418.979	10.95
419.185	10.92
419.391	10.92
419.596	10.88
419.802	10.87
420.008	10.85
420.213	10.9
420.419	10.85
420.624	10.78
420.83	10.78
421.035	10.88
421.241	10.92
421.446	10.96
421.652	10.97
421.857	10.99
422.063	10.98
422.268	11.02
422.474	11.07
422.679	11.13
422.885	11.12
423.09	11.14
423.295	11.14
423.501	11.14
423.706	11.13
423.911	11.15
424.117	11.19
424.322	11.27
424.527	11.29
424.733	11.23
424.938	11.23
425.143	11.32
425.349	11.33
425.554	11.35
425.759	11.39
425.964	11.43
426.169	11.45
426.375	11.5
426.58	11.48
426.785	11.46
426.99	11.51
427.195	11.49
427.4	11.54
427.605	11.6
427.811	11.65
428.016	11.71
428.221	11.71
428.426	11.7
428.631	11.64
428.836	11.63
429.041	11.66
429.246	11.71
429.451	11.8
429.656	11.76
429.861	11.79
430.066	11.85
430.271	11.82
430.476	11.83
430.681	11.84
430.886	11.89
431.09	11.95
431.295	11.96
431.5	11.92
431.705	11.87
431.91	11.84
432.115	11.86
432.32	11.84
432.524	11.86
432.729	11.88
432.934	11.95
433.139	11.91
433.343	11.97
433.548	12
433.753	12.05
433.958	12.1
434.162	12.16
434.367	12.18
434.572	12.14
434.776	12.15
434.981	12.18
435.186	12.09
435.39	12.18
435.595	12.18
435.799	12.19
436.004	12.2
436.209	12.24
436.413	12.23
436.618	12.21
436.822	12.25
437.027	12.19
437.231	12.2
437.436	12.23
437.64	12.14
437.845	12.11
438.049	12.11
438.253	12.11
438.458	12.1
438.662	12.13
438.867	12.12
439.071	12.14
439.275	12.21
439.48	12.2
439.684	12.21
439.888	12.22
440.093	12.2
440.297	12.22
440.501	12.22
440.706	12.22
440.91	12.26
441.114	12.24
441.318	12.26
441.523	12.26
441.727	12.31
441.931	12.38
442.135	12.42
442.339	12.47
442.543	12.47
442.748	12.44
442.952	12.4
443.156	12.34
443.36	12.34
443.564	12.31
443.768	12.27
443.972	12.25
444.176	12.19
444.38	12.2
444.584	12.14
444.788	12.1
444.992	12.1
445.196	12.1
445.4	12.1
445.604	12.12
445.808	12.12
446.012	12.1
446.216	12.07
446.42	12.07
446.624	12.08
446.828	12.06
447.032	12.08
447.235	12.08
447.439	12.1
447.643	12.13
447.847	12.13
448.051	12.11
448.254	12.14
448.458	12.19
448.662	12.25
448.866	12.25
449.069	12.28
449.273	12.33
449.477	12.36
449.681	12.35
449.884	12.38
450.088	12.36
450.292	12.42
450.495	12.4
450.699	12.4
450.902	12.36
451.106	12.36
451.31	12.36
451.513	12.35
451.717	12.27
451.92	12.29
452.124	12.23
452.327	12.26
452.531	12.22
452.734	12.24
452.938	12.18
453.141	12.19
453.345	12.17
453.548	12.22
453.752	12.2
453.955	12.27
454.158	12.3
454.362	12.28
454.565	12.27
454.769	12.28
454.972	12.26
455.175	12.22
455.379	12.23
455.582	12.21
455.785	12.17
455.988	12.14
456.192	12.09
456.395	12
456.598	12.03
456.801	12.03
457.005	12.03
457.208	12.04
457.411	12.05
457.614	12.03
457.817	12.04
458.021	12.04
458.224	12.04
458.427	12.05
458.63	12.09
458.833	12.05
459.036	12.05
459.239	12.04
459.442	12.05
459.645	12.07
459.848	12.1
460.051	12.1
460.254	12.12
460.457	12.14
460.66	12.18
460.863	12.19
461.066	12.22
461.269	12.27
461.472	12.27
461.675	12.3
461.878	12.36
462.081	12.32
462.284	12.38
462.486	12.35
462.689	12.35
462.892	12.37
463.095	12.38
463.298	12.4
463.5	12.4
463.703	12.42
463.906	12.42
464.109	12.36
464.311	12.41
464.514	12.39
464.717	12.44
464.92	12.46
465.122	12.46
465.325	12.49
465.528	12.47
465.73	12.43
465.933	12.43
466.135	12.47
466.338	12.51
466.541	12.46
466.743	12.46
466.946	12.46
467.148	12.46
467.351	12.41
467.553	12.42
467.756	12.51
467.958	12.56
