Data from JASIL_3078_Reflection_02.txt Node
Date: Mon Nov 09 11:50:25 EST 2015
User: Geneva
Spectrometer: USB4E03002
Autoset integration time: false
Trigger mode: 4
Integration Time (sec): 1.000000E-1
Scans to average: 10
Electric dark correction enabled: false
Nonlinearity correction enabled: false
Boxcar width: 5
Stray light correction enabled: false
XAxis mode: Wavelengths
Stop averaging: false
Number of Pixels in Spectrum: 3648
>>>>>Begin Spectral Data<<<<<
177.575	-248.82
177.794	2268.42
178.014	-865.31
178.233	-209.25
178.452	-293.48
178.672	-202.67
178.891	-80.31
179.11	-97.92
179.33	-24.02
179.549	24.7
179.768	36.98
179.987	53.19
180.207	53.09
180.426	59.17
180.645	74.93
180.864	50.87
181.084	69.59
181.303	15.17
181.522	-61.63
181.741	-2690.91
181.96	199.34
182.179	560
182.398	191.27
182.618	134.42
182.837	167.65
183.056	228.04
183.275	750
183.494	-161.59
183.713	-5850
183.932	-2600
184.151	-218.3
184.37	-84.32
184.589	-35
184.808	-12.65
185.027	14.03
185.246	9.19
185.465	21.6
185.684	16.42
185.903	-182.98
186.122	-666.04
186.341	-139.53
186.56	-165.79
186.779	101.41
186.998	166.29
187.216	1208
187.435	307.25
187.654	-7371.43
187.873	-1060.78
188.092	-511
188.311	-99.17
188.53	-51.3
188.748	-20.74
188.967	21.37
189.186	24.13
189.405	18.66
189.623	42.46
189.842	43.7
190.061	74.32
190.28	64.06
190.498	12.12
190.717	-77.44
190.936	17.5
191.154	-10.24
191.373	-93.91
191.592	-46.85
191.81	-143.68
192.029	-8.45
192.248	19.95
192.466	18.8
192.685	18.64
192.904	31.4
193.122	55.65
193.341	75.3
193.559	77.36
193.778	88.74
193.996	106.56
194.215	183.76
194.433	240.25
194.652	171.04
194.87	197.13
195.089	247.01
195.307	519.59
195.526	662.96
195.744	568.57
195.963	141.96
196.181	119.35
196.399	88.39
196.618	63.53
196.836	57.85
197.055	59.04
197.273	47.59
197.491	64.25
197.71	70.77
197.928	63.37
198.146	61.17
198.365	60.97
198.583	72.28
198.801	32.51
199.019	34.57
199.238	36.11
199.456	133.94
199.674	381.25
199.892	-1790.91
200.111	-111.69
200.329	7200
200.547	77.27
200.765	74.71
200.983	73.76
201.202	151.43
201.42	123.81
201.638	101.4
201.856	89.66
202.074	54.41
202.292	51.19
202.51	45.09
202.728	27.18
202.946	39.95
203.165	33.79
203.383	25.04
203.601	-3.97
203.819	-14.54
204.037	-56.68
204.255	-122.19
204.473	-91.51
204.691	-42.79
204.909	-50.72
205.127	-0.59
205.345	15.35
205.562	-8.48
205.78	25.29
205.998	33.45
206.216	69.09
206.434	82.73
206.652	64.22
206.87	77.87
207.088	74.51
207.306	80.7
207.523	109.75
207.741	125.06
207.959	1051.52
208.177	-159.38
208.395	378.13
208.612	-22.22
208.83	-12.2
209.048	152.43
209.266	-400
209.483	181.82
209.701	75.2
209.919	84.97
210.136	173.85
210.354	-191.94
210.572	-29.41
210.79	131.3
211.007	251.56
211.225	103.85
211.442	84.06
211.66	171.32
211.878	150.18
212.095	614.52
212.313	-438.46
212.53	-966.67
212.748	511.11
212.966	1037.14
213.183	-1708.33
213.401	209.79
213.618	204.07
213.836	473.83
214.053	316.54
214.271	501.92
214.488	161.21
214.705	146.39
214.923	173.7
215.14	241.3
215.358	198.49
215.575	201.55
215.793	214.34
216.01	183.21
216.227	136.59
216.445	92.62
216.662	165.7
216.879	154.49
217.097	175.84
217.314	179.46
217.531	-60.23
217.749	-365.62
217.966	2000
218.183	-10000
218.4	309.26
218.618	-82.35
218.835	482.35
219.052	101.97
219.269	194.47
219.487	163.07
219.704	480
219.921	92.42
220.138	25.44
220.355	58.06
220.572	81.69
220.79	116.54
221.007	110.84
221.224	120.9
221.441	102.49
221.658	89.23
221.875	78.3
222.092	67.59
222.309	69.14
222.526	74.95
222.743	56.99
222.96	32.7
223.177	5.64
223.394	-2.38
223.611	-12.42
223.828	-5.44
224.045	6.47
224.262	15.82
224.479	12.14
224.696	-3.01
224.913	-14.31
225.13	-35.23
225.347	-16.62
225.564	-10.33
225.781	-7.87
225.997	0.2
226.214	5.66
226.431	-2.39
226.648	-8.63
226.865	-5.99
227.082	-1.59
227.298	-2.65
227.515	-1.5
227.732	-9.01
227.949	-9.17
228.165	-3.71
228.382	0.15
228.599	-0.42
228.816	1.14
229.032	-1.07
229.249	-9.49
229.466	-9.48
229.682	-2.74
229.899	-2.2
230.116	3.87
230.332	2.71
230.549	-1.36
230.765	-5.17
230.982	-9.63
231.199	-26.16
231.415	-21.17
231.632	-6.09
231.848	-16.34
232.065	-11.5
232.281	-12.22
232.498	-17.1
232.714	-27.56
232.931	-26.89
233.147	-32.05
233.364	-28.51
233.58	2.1
233.797	-10.3
234.013	-14.42
234.23	-9.27
234.446	-20.82
234.662	-5.34
234.879	-13.37
235.095	-4.57
235.312	-4.9
235.528	-2.28
235.744	-9.75
235.961	-21.97
236.177	-0.9
236.393	-3.69
236.61	-6.34
236.826	-2.65
237.042	-22.68
237.258	-3.82
237.475	-1.17
237.691	7.52
237.907	8.47
238.123	14.9
238.339	12.78
238.556	5.06
238.772	6.25
238.988	6.36
239.204	3.56
239.42	4.97
239.636	5.08
239.853	2.45
240.069	2.54
240.285	4.8
240.501	5.73
240.717	8.74
240.933	9.37
241.149	9.99
241.365	10.18
241.581	13.56
241.797	16.29
242.013	12.28
242.229	14.42
242.445	8.44
242.661	7.89
242.877	6.41
243.093	1.34
243.309	-0.97
243.525	-5.59
243.741	-2.36
243.957	-7.07
244.173	-12.47
244.388	-3.62
244.604	-4.95
244.82	-0.65
245.036	1.01
245.252	1.86
245.468	1.12
245.683	0.52
245.899	4.45
246.115	4.83
246.331	3.8
246.547	2.97
246.762	-0.93
246.978	-1.04
247.194	-4.11
247.409	-8.94
247.625	-8.9
247.841	-10.49
248.057	-9.12
248.272	-12.14
248.488	-19.09
248.703	-25.17
248.919	-16.35
249.135	-9.71
249.35	-10.21
249.566	0.44
249.782	0.72
249.997	0.16
250.213	1.97
250.428	1.28
250.644	0.63
250.859	1.23
251.075	4.37
251.29	1.48
251.506	-1.11
251.721	-2.3
251.937	-3.23
252.152	1.93
252.368	-3.8
252.583	-0.34
252.798	1.72
253.014	-4.82
253.229	-6.96
253.445	-4.64
253.66	-6.4
253.875	-6.96
254.091	-9.99
254.306	-8.36
254.521	-11.99
254.737	-10.65
254.952	-20.18
255.167	-16.01
255.383	-12.88
255.598	-8.46
255.813	-6.07
256.028	-5.85
256.244	-5.01
256.459	-2.21
256.674	-8.13
256.889	-7.1
257.104	-2.59
257.32	1.81
257.535	-1.94
257.75	-3.46
257.965	-3.41
258.18	-5.92
258.395	-6.55
258.61	-6.05
258.826	-6.77
259.041	-5.18
259.256	-5.82
259.471	-4.87
259.686	-6.51
259.901	-5.06
260.116	-3.09
260.331	-2.77
260.546	-2.29
260.761	2.4
260.976	-0.46
261.191	1.14
261.406	1.74
261.621	5.09
261.836	5.31
262.05	3.78
262.265	5.56
262.48	7.26
262.695	5.17
262.91	9.36
263.125	7.45
263.34	7.41
263.555	5.16
263.769	2.31
263.984	-0.48
264.199	-1.83
264.414	6.25
264.629	2.82
264.843	3.51
265.058	3.94
265.273	2.56
265.488	-2.71
265.702	-1.14
265.917	3.52
266.132	7.1
266.346	8.87
266.561	9.88
266.776	9.51
266.99	6.74
267.205	2.52
267.42	1.76
267.634	1.96
267.849	4.13
268.063	0.98
268.278	-0.81
268.492	-4.64
268.707	-3.44
268.922	-8.2
269.136	-17.27
269.351	-12
269.565	-4.58
269.78	-4.27
269.994	-3.89
270.209	-2.96
270.423	2.15
270.637	2.25
270.852	2.64
271.066	0.2
271.281	0.85
271.495	3.49
271.709	1.98
271.924	-4.78
272.138	-2.59
272.353	-1.33
272.567	-0.3
272.781	-1.67
272.996	-3.01
273.21	-0.52
273.424	-0.58
273.638	0.48
273.853	1.64
274.067	0.2
274.281	1.4
274.495	-0.16
274.71	-0.58
274.924	-3.5
275.138	-2.93
275.352	-7.41
275.566	-14.91
275.781	-15.74
275.995	-12.09
276.209	-13.64
276.423	-10.75
276.637	-6.94
276.851	-9.99
277.065	-12.16
277.279	-11.22
277.493	-8.96
277.707	-4.96
277.921	-1.17
278.135	-0.63
278.349	-5.88
278.563	-3.68
278.777	-1.55
278.991	-4.87
279.205	-2.07
279.419	-6.44
279.633	-5.97
279.847	-9.29
280.061	-7.27
280.275	-7.41
280.489	-4.63
280.703	-4.89
280.917	-3.68
281.131	-5.83
281.344	-5.54
281.558	-8.46
281.772	-5.9
281.986	-8.63
282.2	-8.63
282.414	-10.79
282.627	-10.03
282.841	-12.69
283.055	-15.53
283.269	-18.46
283.482	-14.67
283.696	-12.55
283.91	-7.56
284.123	-7.12
284.337	-4.51
284.551	-4.08
284.764	-2.59
284.978	-2.94
285.192	-3.18
285.405	0.39
285.619	1.69
285.833	0.46
286.046	1.39
286.26	-3.56
286.473	-4.26
286.687	-3.05
286.9	-0.78
287.114	-1.82
287.327	-2.69
287.541	-1.81
287.754	-1.98
287.968	-0.83
288.181	-2.31
288.395	-2.25
288.608	0.05
288.822	0.78
289.035	-0.49
289.248	-2.09
289.462	-2.19
289.675	-1.64
289.889	-2.27
290.102	-3.05
290.315	-1.27
290.529	-3.07
290.742	-3.96
290.955	-4.36
291.169	-0.71
291.382	-0.62
291.595	-0.93
291.808	-2.56
292.022	-1.82
292.235	-0.23
292.448	1.13
292.661	-3.33
292.875	-1.79
293.088	0.21
293.301	2.24
293.514	0.19
293.727	0.93
293.94	2.95
294.153	5.97
294.367	5.08
294.58	4.18
294.793	3.35
295.006	3.82
295.219	5.08
295.432	3.44
295.645	2.33
295.858	0.47
296.071	1.48
296.284	0.44
296.497	-0.05
296.71	2.5
296.923	3
297.136	3.9
297.349	5.15
297.562	4.58
297.775	3.38
297.988	5.4
298.201	7.36
298.414	4.98
298.626	4.04
298.839	4.87
299.052	2.88
299.265	2
299.478	2.39
299.691	1.13
299.903	-0.31
300.116	2.13
300.329	0.11
300.542	-1.13
300.755	-2.01
300.967	-1.79
301.18	-3.89
301.393	-3.08
301.605	-0.74
301.818	-1.85
302.031	-1.59
302.243	0.69
302.456	-1.17
302.669	0.16
302.881	2.32
303.094	2.13
303.307	4.5
303.519	5.03
303.732	2.09
303.944	1.64
304.157	2.73
304.37	2.58
304.582	0.02
304.795	2.01
305.007	0.76
305.22	1.06
305.432	5.6
305.645	4.55
305.857	3.84
306.069	5.11
306.282	5.2
306.494	3.5
306.707	2.41
306.919	6.31
307.132	5.38
307.344	6.81
307.556	5.69
307.769	1.36
307.981	-0.39
308.193	2.44
308.406	1.94
308.618	1.11
308.83	2.44
309.043	3.51
309.255	1.05
309.467	1.25
309.679	-0.66
309.892	-2.46
310.104	1.89
310.316	2.03
310.528	-0.74
310.74	-1.35
310.953	-1.85
311.165	-2.4
311.377	-3.02
311.589	-2
311.801	-2.08
312.013	-1.45
312.225	0.96
312.437	-4.71
312.649	-2.17
312.862	-2.07
313.074	-2.42
313.286	-1.95
313.498	-1.69
313.71	0.89
313.922	0.27
314.134	0.86
314.346	2.78
314.558	3.1
314.77	7.79
314.982	6.4
315.193	6.56
315.405	8.16
315.617	6.93
315.829	7.65
316.041	6.69
316.253	7.47
316.465	6.93
316.677	7.16
316.888	4.42
317.1	3.54
317.312	3.98
317.524	6.2
317.736	7.31
317.947	9.9
318.159	9.83
318.371	10.58
318.583	12.11
318.794	12.75
319.006	14.64
319.218	17.9
319.43	17.07
319.641	17.02
319.853	13.95
320.064	14.52
320.276	12.14
320.488	10.09
320.699	8.78
320.911	5.08
321.123	4.29
321.334	1.86
321.546	1.88
321.757	0.59
321.969	-0.14
322.18	1.39
322.392	3.35
322.603	5.41
322.815	6.1
323.026	6.92
323.238	9.25
323.449	9.02
323.661	9.05
323.872	7.07
324.083	6.54
324.295	2.68
324.506	2.48
324.718	1.13
324.929	2.61
325.14	1.08
325.352	-1.56
325.563	-2.66
325.774	-1.73
325.986	-2.49
326.197	-2.19
326.408	0.11
326.62	3.03
326.831	4.45
327.042	5.57
327.253	5.36
327.464	7.78
327.676	11.5
327.887	11.59
328.098	11.55
328.309	11.31
328.52	13.24
328.732	9.81
328.943	14.12
329.154	12.74
329.365	8.08
329.576	5.21
329.787	1.19
329.998	-0.83
330.209	-1.16
330.42	-2.07
330.631	-0.41
330.842	-1.66
331.053	0.43
331.264	-3.36
331.475	-3
331.686	-0.18
331.897	2.9
332.108	2.48
332.319	3.09
332.53	4.45
332.741	4.93
332.952	3.13
333.163	4.13
333.374	5.63
333.585	5.74
333.795	6.86
334.006	4.15
334.217	2.85
334.428	5.88
334.639	5.86
334.849	6.84
335.06	5.68
335.271	6.4
335.482	3.96
335.692	1.99
335.903	1.52
336.114	2.04
336.325	3.26
336.535	0.68
336.746	2.36
336.957	0.68
337.167	-1.04
337.378	1.33
337.589	3.06
337.799	5.11
338.01	3.88
338.22	4.26
338.431	2.78
338.642	2.13
338.852	4.05
339.063	4.24
339.273	4.93
339.484	7.61
339.694	7.75
339.905	6.78
340.115	8.71
340.326	9.79
340.536	8.93
340.746	7.92
340.957	8.95
341.167	8.7
341.378	6.62
341.588	8.24
341.799	5.42
342.009	5.03
342.219	3.97
342.43	2.14
342.64	3.75
342.85	4.25
343.061	4.42
343.271	6.16
343.481	7.31
343.691	8.1
343.902	7.44
344.112	6.46
344.322	7.5
344.532	7.88
344.743	6.97
344.953	4.56
345.163	7.47
345.373	8.59
345.583	7.58
345.793	6.56
346.004	6.28
346.214	7.58
346.424	6.21
346.634	7.53
346.844	8.24
347.054	11.31
347.264	12.47
347.474	9.92
347.684	8.44
347.894	7.37
348.104	7.58
348.314	6.13
348.524	2.9
348.734	6.09
348.944	3.43
349.154	3.35
349.364	0.72
349.574	0.68
349.784	-0.94
349.994	0.45
350.204	0.97
350.413	0.38
350.623	0.35
350.833	2.5
351.043	1
351.253	2.25
351.463	2.07
351.672	2.18
351.882	4.11
352.092	6.23
352.302	5.16
352.511	5.8
352.721	5.68
352.931	6.54
353.141	5.7
353.35	3.96
353.56	3.41
353.77	2.75
353.979	2.82
354.189	1.31
354.399	1.67
354.608	1.46
354.818	1.88
355.027	3.9
355.237	3.61
355.447	4.93
355.656	7.1
355.866	7.17
356.075	7.25
356.285	8.2
356.494	8.37
356.704	9.13
356.913	8.97
357.123	8.23
357.332	6.67
357.542	6.77
357.751	4.58
357.96	4.28
358.17	3.79
358.379	4.17
358.589	5.07
358.798	6.51
359.007	5.05
359.217	6.34
359.426	5.73
359.635	6.81
359.845	8.59
360.054	8.62
360.263	8.96
360.472	8.01
360.682	7.61
360.891	6.29
361.1	5.19
361.309	4.98
361.519	6
361.728	6.26
361.937	5.74
362.146	4.65
362.355	5.4
362.564	4.95
362.774	5.93
362.983	7.96
363.192	9.36
363.401	9.23
363.61	10.17
363.819	9.24
364.028	9.8
364.237	9.07
364.446	8.13
364.655	8.36
364.864	8.74
365.073	9.78
365.282	8.27
365.491	6.37
365.7	5.83
365.909	5.05
366.118	3.75
366.327	4.25
366.536	5.16
366.745	5.58
366.954	5.17
367.162	5.32
367.371	3.17
367.58	2.43
367.789	3.4
367.998	3.73
368.207	4.21
368.415	3.9
368.624	2.29
368.833	2.05
369.042	0.59
369.25	0.85
369.459	0.38
369.668	1.72
369.877	1.09
370.085	-0.98
370.294	-1.7
370.503	-0.99
370.711	0.23
370.92	1.3
371.129	2.45
371.337	2.89
371.546	3.1
371.754	4.17
371.963	4.04
372.171	6.68
372.38	7.82
372.589	8.87
372.797	6.57
373.006	6.71
373.214	7.34
373.423	6.65
373.631	7.34
373.84	5.89
374.048	4.72
374.256	5.1
374.465	2.97
374.673	4.2
374.882	4.71
375.09	6.1
375.298	5.2
375.507	3.57
375.715	4.31
375.923	5.05
376.132	5.25
376.34	5.77
376.548	5.85
376.757	6.16
376.965	5.91
377.173	4.9
377.381	5.4
377.59	6.12
377.798	6.57
378.006	4.64
378.214	4.35
378.423	5.14
378.631	5.02
378.839	4.82
379.047	4.96
379.255	4.76
379.463	6.19
379.671	6.73
379.879	5.86
380.088	5.55
380.296	5.25
380.504	6.09
380.712	6.47
380.92	4.96
381.128	4.09
381.336	5.36
381.544	5.18
381.752	3.74
381.96	3.9
382.168	5.2
382.376	5.82
382.584	6.36
382.791	5.3
382.999	3.07
383.207	4.46
383.415	4.08
383.623	2.4
383.831	3.08
384.039	3.61
384.247	3.41
384.454	1.48
384.662	1.59
384.87	1.45
385.078	1.93
385.285	2.51
385.493	2.66
385.701	2.66
385.909	2.93
386.116	1.58
386.324	2.79
386.532	1.58
386.739	3.2
386.947	2.82
387.155	3.29
387.362	3.59
387.57	3.73
387.778	2.82
387.985	3.56
388.193	4.39
388.4	4.67
388.608	3.59
388.816	2.82
389.023	3.86
389.231	3.3
389.438	4.36
389.646	4.3
389.853	5
390.061	6.06
390.268	6.84
390.475	5.86
390.683	6.15
390.89	5.77
391.098	6.39
391.305	5.12
391.512	6.28
391.72	5.36
391.927	4.9
392.135	4.97
392.342	5.01
392.549	3.8
392.756	3.77
392.964	3.79
393.171	3.66
393.378	3.91
393.586	5.44
393.793	4.55
394	4.56
394.207	4.51
394.414	6.08
394.622	4.74
394.829	5
395.036	5.59
395.243	5.24
395.45	4.46
395.657	5.27
395.864	4.36
396.072	4.44
396.279	3.85
396.486	4.55
396.693	2.52
396.9	4.57
397.107	5.86
397.314	6.21
397.521	5.66
397.728	5.82
397.935	5.31
398.142	4.52
398.349	5.76
398.556	7.13
398.763	6.29
398.97	6.56
399.177	4.98
399.383	4.15
399.59	3.13
399.797	3.93
400.004	5.09
400.211	4.95
400.418	5.21
400.625	4.86
400.831	4.56
401.038	5.56
401.245	6.57
401.452	6.7
401.658	8.11
401.865	9.51
402.072	9.63
402.279	9.53
402.485	10.1
402.692	10.15
402.899	10.05
403.105	9.13
403.312	9.84
403.519	9.55
403.725	9.98
403.932	9.2
404.138	8.87
404.345	8.02
404.552	8.03
404.758	6.94
404.965	7.25
405.171	7.18
405.378	8.39
405.584	7.62
405.791	7.09
405.997	7.65
406.204	8.25
406.41	7.38
406.617	8.08
406.823	7.97
407.029	8.34
407.236	7.22
407.442	8.15
407.649	6.51
407.855	5.64
408.061	5.79
408.268	5.03
408.474	4.68
408.68	6.23
408.887	6.66
409.093	5.9
409.299	5.9
409.505	7.35
409.712	6.75
409.918	6.88
410.124	8.26
410.33	8.58
410.537	9.01
410.743	8.65
410.949	8.74
411.155	7.28
411.361	7.6
411.567	7.76
411.773	7.13
411.98	7.43
412.186	8.46
412.392	6.71
412.598	6.98
412.804	5.69
413.01	5.3
413.216	3.67
413.422	4.62
413.628	5.71
413.834	6.1
414.04	5.68
414.246	5.57
414.452	5.69
414.658	5.83
414.864	5.42
415.07	6.5
415.275	7.19
415.481	8.45
415.687	9.21
415.893	8.8
416.099	9.4
416.305	9.71
416.511	9.23
416.716	9.91
416.922	10.39
417.128	11.33
417.334	11.44
417.539	11.59
417.745	11.51
417.951	11.14
418.157	11.32
418.362	10.65
418.568	10.65
418.774	10.27
418.979	9.9
419.185	9.76
419.391	8.89
419.596	9.15
419.802	8.97
420.008	8.99
420.213	4.5
420.419	4.41
420.624	4.79
420.83	4.65
421.035	5.26
421.241	5.14
421.446	5.11
421.652	5.27
421.857	4.97
422.063	4.56
422.268	4.34
422.474	8.97
422.679	9.34
422.885	9.21
423.09	9.26
423.295	9.11
423.501	8.85
423.706	9.31
423.911	9
424.117	9.07
424.322	9.06
424.527	9.14
424.733	9.22
424.938	8.5
425.143	8.64
425.349	8.97
425.554	8.96
425.759	9.57
425.964	9.33
426.169	10.19
426.375	9.97
426.58	10.25
426.785	10.32
426.99	10.08
427.195	10.04
427.4	9.47
427.605	9.41
427.811	9.71
428.016	9.73
428.221	9.73
428.426	9.54
428.631	9.56
428.836	10.16
429.041	10.15
429.246	10.81
429.451	11.27
429.656	11.37
429.861	12.28
430.066	12.03
430.271	11.17
430.476	11.19
430.681	10.65
430.886	10.54
431.09	10.63
431.295	10.85
431.5	10.23
431.705	10.68
431.91	10.93
432.115	10.15
432.32	10.09
432.524	10.18
432.729	10.54
432.934	10.93
433.139	11.09
433.343	10.35
433.548	9.79
433.753	10.22
433.958	10.2
434.162	9.89
434.367	9.38
434.572	9.63
434.776	9.79
434.981	9.04
435.186	9.01
435.39	9.21
435.595	9.93
435.799	10.23
436.004	9.96
436.209	9.42
436.413	9.89
436.618	10.19
436.822	9.76
437.027	10.53
437.231	10.96
437.436	10.91
437.64	10.42
437.845	10.4
438.049	10.65
438.253	10.52
438.458	10.58
438.662	10.6
438.867	10.33
439.071	10.14
439.275	9.66
439.48	9.31
439.684	9.52
439.888	9.97
440.093	10.01
440.297	9.88
440.501	10.2
440.706	9.78
440.91	9.82
441.114	10.15
441.318	10.93
441.523	10.89
441.727	11.04
441.931	10.89
442.135	10.8
442.339	10.85
442.543	10.31
442.748	9.62
442.952	9.74
443.156	9.69
443.36	9.71
443.564	9.02
443.768	9.15
443.972	9.04
444.176	9.58
444.38	9.78
444.584	9.14
444.788	9.75
444.992	10.21
445.196	10.54
445.4	10.51
445.604	10.83
445.808	11.39
446.012	11.34
446.216	11.83
446.42	11.43
446.624	11.28
446.828	11.79
447.032	11.55
447.235	11.77
447.439	12.08
447.643	12.35
447.847	11.88
448.051	11.38
448.254	11.44
448.458	11.07
448.662	11.21
448.866	11.15
449.069	10.85
449.273	11.36
449.477	11.36
449.681	11.13
449.884	11.4
450.088	11.6
450.292	12.37
450.495	12.88
450.699	12.84
450.902	11.51
451.106	11.36
451.31	12.07
451.513	12.15
451.717	11.66
451.92	11.17
452.124	10.54
452.327	10.21
452.531	10.01
452.734	9.23
452.938	9.34
453.141	10.28
453.345	11
453.548	10.75
453.752	10.08
453.955	10.24
454.158	11.3
454.362	10.98
454.565	10.9
454.769	10.25
454.972	10.43
455.175	10.22
455.379	10.39
455.582	9.87
455.785	10.09
455.988	9.62
456.192	9.69
456.395	8.91
456.598	8.99
456.801	9.52
457.005	9.95
457.208	10.54
457.411	10.88
457.614	10.37
457.817	10.18
458.021	9.97
458.224	10.5
458.427	10.6
458.63	10.83
458.833	11.13
459.036	10.91
459.239	11.48
459.442	11.12
459.645	10.76
459.848	11.22
460.051	11.49
460.254	11.81
460.457	11.06
460.66	10.75
460.863	10.51
461.066	10.34
461.269	10.65
461.472	10.47
461.675	10.59
461.878	11.34
462.081	11.67
462.284	11.88
462.486	11.11
462.689	11.28
462.892	12.62
463.095	13.24
463.298	13.24
463.5	13.37
463.703	12.54
463.906	12.53
