Data from JASIL_3138_Reflection_1.txt Node
Date: Thu Nov 12 20:50:06 EST 2015
User: Geneva
Spectrometer: USB4E03002
Autoset integration time: false
Trigger mode: 4
Integration Time (sec): 1.000000E-1
Scans to average: 10
Electric dark correction enabled: true
Nonlinearity correction enabled: false
Boxcar width: 5
Stray light correction enabled: false
XAxis mode: Wavelengths
Stop averaging: false
Number of Pixels in Spectrum: 3648
>>>>>Begin Spectral Data<<<<<
177.575	156.25
177.794	204.92
178.014	202.33
178.233	33.33
178.452	29.81
178.672	1355.56
178.891	-254.29
179.11	64.08
179.33	77.63
179.549	116.33
179.768	500
179.987	114.94
180.207	-1600
180.426	128.46
180.645	182.32
180.864	146.69
181.084	63.86
181.303	29.52
181.522	69.6
181.741	75.78
181.96	8.37
182.179	-40.46
182.398	-44.87
182.618	36.36
182.837	58.15
183.056	90.63
183.275	-90
183.494	322.58
183.713	170.3
183.932	315.24
184.151	318.84
184.37	294.44
184.589	304.8
184.808	618.9
185.027	846.88
185.246	609.24
185.465	-880
185.684	577.94
185.903	-325.3
186.122	-272.88
186.341	-340.4
186.56	-273.95
186.779	-124.26
186.998	-55.61
187.216	-81.61
187.435	-93.35
187.654	-128.38
187.873	-26150
188.092	-430.84
188.311	539.02
188.53	-815.15
188.748	-85.25
188.967	22.27
189.186	38.58
189.405	67.9
189.623	141.49
189.842	58.27
190.061	111.99
190.28	79.07
190.498	100.22
190.717	41.1
190.936	42.39
191.154	16.18
191.373	4.89
191.592	52.94
191.81	16.17
192.029	-33.16
192.248	-342.15
192.466	1671.05
192.685	14100
192.904	3600
193.122	347.52
193.341	333.6
193.559	213.32
193.778	226.4
193.996	323.28
194.215	353.25
194.433	352.16
194.652	297.92
194.87	282.47
195.089	371.75
195.307	257.68
195.526	343.53
195.744	394.34
195.963	-2735.29
196.181	635.44
196.399	334.75
196.618	193.33
196.836	154.27
197.055	130.47
197.273	107.84
197.491	56.57
197.71	36.91
197.928	30.13
198.146	45.71
198.365	55.32
198.583	72.44
198.801	77.66
199.019	92.5
199.238	99.7
199.456	110.86
199.674	128.13
199.892	156.83
200.111	170.1
200.329	204.21
200.547	203.92
200.765	241.88
200.983	214.91
201.202	202.22
201.42	161.73
201.638	153.15
201.856	136.47
202.074	177.86
202.292	1135.29
202.51	-57.56
202.728	-14.6
202.946	-4
203.165	-66.22
203.383	-6.26
203.601	10.45
203.819	24.42
204.037	-22.97
204.255	-84.27
204.473	-172.15
204.691	-403.45
204.909	260.42
205.127	151.07
205.345	179.32
205.562	221.08
205.78	1338.46
205.998	-2543.75
206.216	1238.1
206.434	-500
206.652	-104.8
206.87	-92.08
207.088	-95.65
207.306	-48.23
207.523	-318.37
207.741	628.57
207.959	-111.63
208.177	9900
208.395	82.07
208.612	13.41
208.83	85.52
209.048	77.78
209.266	98.04
209.483	82.77
209.701	115.07
209.919	110.47
210.136	118.48
210.354	121.31
210.572	126.25
210.79	169.05
211.007	195.79
211.225	168.84
211.442	261.85
211.66	706.25
211.878	-1940
212.095	-210.66
212.313	-162.39
212.53	-221.28
212.748	-493.28
212.966	-438.52
213.183	-220.73
213.401	-91.99
213.618	-107.41
213.836	-125.08
214.053	-186.57
214.271	-86.67
214.488	-200
214.705	-283.84
214.923	-2891.67
215.14	226.45
215.358	90.32
215.575	125.69
215.793	153.18
216.01	192.21
216.227	386.08
216.445	174.74
216.662	167.02
216.879	220.74
217.097	-436.23
217.314	-870.83
217.531	-144.94
217.749	-22.94
217.966	-6.67
218.183	-115.6
218.4	-1150
218.618	162.79
218.835	109.42
219.052	102.61
219.269	97.19
219.487	79.33
219.704	120
219.921	122.49
220.138	106.98
220.355	99.5
220.572	90.87
220.79	88.93
221.007	112.14
221.224	110.27
221.441	120.17
221.658	140
221.875	141.94
222.092	136.17
222.309	155.78
222.526	212.82
222.743	215.42
222.96	202.59
223.177	214.47
223.394	266.67
223.611	396.74
223.828	68900
224.045	303.92
224.262	-2330.77
224.479	596.15
224.696	4453.85
224.913	-254.76
225.13	-149.66
225.347	-106.25
225.564	-353.15
225.781	-259.05
225.997	-189.89
226.214	-180.57
226.431	-52.2
226.648	-68.43
226.865	-59.17
227.082	-42.74
227.298	-52.39
227.515	-46.3
227.732	-43.93
227.949	-15.1
228.165	-12.33
228.382	-23.81
228.599	-16.27
228.816	-14.29
229.032	-23.68
229.249	-20.92
229.466	-29.79
229.682	-35.78
229.899	-54.39
230.116	-50.07
230.332	-51.39
230.549	-72.59
230.765	-62.05
230.982	-69.56
231.199	-111.2
231.415	-92.54
231.632	-75.44
231.848	-55.07
232.065	-60.56
232.281	-42.76
232.498	-42.67
232.714	-47.14
232.931	-37.81
233.147	-43.65
233.364	-40.3
233.58	-24.82
233.797	-15.67
234.013	-10.97
234.23	-25.34
234.446	-23.31
234.662	-28.57
234.879	-49.88
235.095	-44.87
235.312	-36.85
235.528	-43.95
235.744	-29.8
235.961	-15.07
236.177	-52.03
236.393	-97.84
236.61	-75.46
236.826	-92.08
237.042	-59.36
237.258	-34.33
237.475	-46.44
237.691	-59.97
237.907	-25.39
238.123	-42.63
238.339	-35.84
238.556	-11.62
238.772	-1.71
238.988	-2.08
239.204	9.46
239.42	11.71
239.636	0.68
239.853	4.87
240.069	12.04
240.285	13.71
240.501	13.12
240.717	-3.29
240.933	-9.39
241.149	-9.99
241.365	-4.15
241.581	-4.73
241.797	-5.06
242.013	1.7
242.229	-1.59
242.445	-2.74
242.661	-8.22
242.877	-2.3
243.093	3.44
243.309	5.19
243.525	11.1
243.741	9.84
243.957	6.44
244.173	1.3
244.388	0.45
244.604	3.23
244.82	3.21
245.036	2.81
245.252	-3.38
245.468	-6.63
245.683	-6.94
245.899	-13.23
246.115	-13.07
246.331	-6.85
246.547	-5.9
246.762	-10.01
246.978	-11.37
247.194	-17.36
247.409	-16.18
247.625	-13.99
247.841	-11.97
248.057	-10.33
248.272	-6.15
248.488	-6.12
248.703	-7.81
248.919	-12.34
249.135	-11.14
249.35	-5.56
249.566	2.35
249.782	4.8
249.997	5.13
250.213	10.57
250.428	8.45
250.644	8.11
250.859	8.83
251.075	8.26
251.29	5.76
251.506	6.38
251.721	4.59
251.937	2.95
252.152	0.34
252.368	2.14
252.583	0.63
252.798	5.44
253.014	0.04
253.229	-4.97
253.445	-5.05
253.66	1.59
253.875	3.24
254.091	-1.27
254.306	2.25
254.521	1.01
254.737	-3.53
254.952	-5.68
255.167	-9.31
255.383	-6.73
255.598	-3.69
255.813	-3.12
256.028	-7.39
256.244	-13.46
256.459	-10.39
256.674	-17.56
256.889	-18.75
257.104	-18.98
257.32	-19.75
257.535	-17.38
257.75	-11.71
257.965	-8.52
258.18	-6.21
258.395	-2.58
258.61	0.29
258.826	-1.44
259.041	0.44
259.256	0.6
259.471	1.39
259.686	1.68
259.901	-0.45
260.116	-0.59
260.331	-0.72
260.546	-3.91
260.761	-4.59
260.976	-8.85
261.191	-6
261.406	-9.61
261.621	-10.88
261.836	-9.88
262.05	-12.5
262.265	-10.78
262.48	-9.89
262.695	-21.54
262.91	-17.44
263.125	-22.23
263.34	-18.69
263.555	-18.9
263.769	-12.98
263.984	-11.31
264.199	-15.89
264.414	-11.94
264.629	-10.41
264.843	-14.82
265.058	-3.72
265.273	-3.57
265.488	0.24
265.702	1.7
265.917	2.27
266.132	-1.75
266.346	-3.97
266.561	-4.1
266.776	-4.34
266.99	-0.28
267.205	1.8
267.42	-0.8
267.634	-0.42
267.849	-2.19
268.063	-0.05
268.278	-2.22
268.492	2.69
268.707	3.78
268.922	6.66
269.136	4.79
269.351	-2.57
269.565	-5.69
269.78	-3.69
269.994	-3.94
270.209	-3.93
270.423	-7.51
270.637	-3.53
270.852	-8.28
271.066	-6.5
271.281	-3.32
271.495	-1.1
271.709	1.5
271.924	5.5
272.138	4.67
272.353	1.81
272.567	-0.67
272.781	-0.46
272.996	-3.54
273.21	0.32
273.424	-0.24
273.638	-2.08
273.853	-0.11
274.067	-0.96
274.281	-3.35
274.495	-5
274.71	-4.65
274.924	-0.94
275.138	0.62
275.352	-2.21
275.566	-0.58
275.781	0.55
275.995	0.02
276.209	-5.84
276.423	-4.76
276.637	-4.95
276.851	-3.2
277.065	0.21
277.279	-0.25
277.493	2.73
277.707	5.6
277.921	-0.63
278.135	-3.12
278.349	-4.28
278.563	-2.06
278.777	-2.87
278.991	-3.18
279.205	-5.09
279.419	-3.33
279.633	-2.23
279.847	-5.37
280.061	-7.09
280.275	-6.13
280.489	-1.16
280.703	1.52
280.917	-1.95
281.131	0.04
281.344	4.32
281.558	4.07
281.772	0.73
281.986	-0.87
282.2	-3.94
282.414	-3.2
282.627	-1.52
282.841	-4.95
283.055	-8.77
283.269	-5.6
283.482	-9.14
283.696	-13.19
283.91	-12.47
284.123	-12.26
284.337	-14.48
284.551	-12.31
284.764	-10.96
284.978	-8.89
285.192	-8.88
285.405	-6.88
285.619	-7.08
285.833	-4
286.046	-1.25
286.26	0.98
286.473	1.58
286.687	2.96
286.9	4.02
287.114	3.92
287.327	3.29
287.541	4.2
287.754	2.03
287.968	2.97
288.181	2.38
288.395	1.48
288.608	-2.14
288.822	-2.38
289.035	-1.02
289.248	-0.09
289.462	-1.06
289.675	-2.98
289.889	-3.35
290.102	-1.15
290.315	-0.97
290.529	-0.94
290.742	-1.24
290.955	-3.1
291.169	-2.9
291.382	-2.78
291.595	-6.26
291.808	-6.05
292.022	-1.58
292.235	2.11
292.448	1.09
292.661	-0.06
292.875	-0.88
293.088	-4.04
293.301	-0.65
293.514	-2.5
293.727	-0.79
293.94	1.52
294.153	2.89
294.367	-0.97
294.58	-3.2
294.793	-1.85
295.006	-0.58
295.219	-0.48
295.432	0.79
295.645	0.57
295.858	2.33
296.071	1.94
296.284	1.7
296.497	-0.3
296.71	0.89
296.923	2.01
297.136	0.69
297.349	1.35
297.562	2.15
297.775	3.02
297.988	4.46
298.201	3.45
298.414	1.16
298.626	1.13
298.839	4.22
299.052	4.71
299.265	4.52
299.478	2.67
299.691	0.77
299.903	0.06
300.116	-1.26
300.329	-0.82
300.542	0.95
300.755	3.07
300.967	3.35
301.18	1.89
301.393	-0.29
301.605	-0.44
301.818	2.23
302.031	2.02
302.243	2.05
302.456	0.67
302.669	1.64
302.881	2.02
303.094	2.96
303.307	1.89
303.519	4.41
303.732	3.83
303.944	1.86
304.157	1.32
304.37	1.55
304.582	0.34
304.795	2.6
305.007	2.45
305.22	-0.44
305.432	-2.29
305.645	-2.49
305.857	-7.11
306.069	-4.54
306.282	-6.59
306.494	-6.15
306.707	-3.08
306.919	-2.79
307.132	-2.31
307.344	-6.21
307.556	-6.2
307.769	-5.89
307.981	-4.49
308.193	-2.82
308.406	-0.5
308.618	2.23
308.83	4.52
309.043	3.22
309.255	5.47
309.467	5.81
309.679	8.33
309.892	7.15
310.104	9.62
310.316	10.86
310.528	11.69
310.74	9.84
310.953	9.98
311.165	8.54
311.377	9.53
311.589	10.57
311.801	12.94
312.013	13.06
312.225	13.33
312.437	11.09
312.649	11.75
312.862	12.56
313.074	14.07
313.286	16.37
313.498	15.89
313.71	14.57
313.922	13.86
314.134	11.13
314.346	10.67
314.558	12.65
314.77	11.83
314.982	8.03
315.193	5.37
315.405	4.68
315.617	3.02
315.829	5.86
316.041	7.47
316.253	4.11
316.465	0.93
316.677	0.47
316.888	-0.72
317.1	0.83
317.312	2.81
317.524	1.61
317.736	3.99
317.947	5.02
318.159	2.44
318.371	1.06
318.583	1.12
318.794	3.67
319.006	4.52
319.218	6.9
319.43	6.15
319.641	5.21
319.853	8.14
320.064	5.92
320.276	1.13
320.488	2.56
320.699	4.3
320.911	4.45
321.123	8.63
321.334	5.13
321.546	5.82
321.757	4.56
321.969	4.54
322.18	1.21
322.392	0.84
322.603	3.62
322.815	2.77
323.026	1.71
323.238	2.81
323.449	-0.49
323.661	2.37
323.872	1.28
324.083	2.81
324.295	6.12
324.506	8.55
324.718	7.33
324.929	4.93
325.14	4.69
325.352	6.03
325.563	5.68
325.774	8.38
325.986	8.88
326.197	9.19
326.408	10.35
326.62	7.98
326.831	5.27
327.042	5.59
327.253	8.08
327.464	8.01
327.676	6.5
327.887	7.14
328.098	7.71
328.309	5.47
328.52	6.13
328.732	3.84
328.943	3.04
329.154	3.9
329.365	6.01
329.576	6.2
329.787	8.14
329.998	8.37
330.209	9.76
330.42	8.32
330.631	9.55
330.842	10.12
331.053	9.86
331.264	10.61
331.475	11.7
331.686	10.04
331.897	11.76
332.108	9.97
332.319	8.74
332.53	8.99
332.741	10.1
332.952	11.01
333.163	8.6
333.374	10.18
333.585	11.31
333.795	10.57
334.006	11.74
334.217	11.04
334.428	12.78
334.639	15.52
334.849	13.21
335.06	9.21
335.271	8.26
335.482	10.17
335.692	9.05
335.903	8.57
336.114	8.85
336.325	6.91
336.535	7.19
336.746	4.91
336.957	2.88
337.167	3.53
337.378	5.46
337.589	3.43
337.799	1.91
338.01	1.51
338.22	0.57
338.431	2.37
338.642	3.37
338.852	-0.65
339.063	2.19
339.273	3.69
339.484	5.94
339.694	5.85
339.905	6.97
340.115	8.42
340.326	9.3
340.536	9.86
340.746	8.71
340.957	8.21
341.167	10.44
341.378	9.07
341.588	7.4
341.799	7.33
342.009	7.18
342.219	7.59
342.43	5.6
342.64	5.63
342.85	3.78
343.061	4.63
343.271	3.01
343.481	3.19
343.691	2.88
343.902	2.26
344.112	0.87
344.322	0.58
344.532	2.33
344.743	3.18
344.953	3.97
345.163	5.53
345.373	4.45
345.583	7.37
345.793	6.86
346.004	5.5
346.214	7.04
346.424	7.3
346.634	7.81
346.844	6.78
347.054	6.62
347.264	6.15
347.474	3.94
347.684	6.08
347.894	7.54
348.104	5.29
348.314	7.58
348.524	7.13
348.734	4.58
348.944	4.3
349.154	3.7
349.364	4.94
349.574	4.48
349.784	5.96
349.994	4.97
350.204	3.07
350.413	3.43
350.623	5.51
350.833	5.91
351.043	7.85
351.253	8.13
351.463	8.54
351.672	8.34
351.882	8.81
352.092	8.19
352.302	8.43
352.511	7.94
352.721	9.42
352.931	6.68
353.141	5.69
353.35	6.65
353.56	5.69
353.77	6.82
353.979	6.54
354.189	6.46
354.399	8.03
354.608	6.73
354.818	7.22
355.027	7.43
355.237	6.14
355.447	7.34
355.656	6.26
355.866	8.35
356.075	7.88
356.285	7.96
356.494	7.62
356.704	8.76
356.913	7.85
357.123	8.84
357.332	9.08
357.542	11.12
357.751	10.71
357.96	11
358.17	9.22
358.379	7.66
358.589	8.19
358.798	7.72
359.007	6.73
359.217	7.96
359.426	7.08
359.635	7.71
359.845	6.33
360.054	6.67
360.263	5.94
360.472	6.28
360.682	6.49
360.891	5.15
361.1	5.32
361.309	5.09
361.519	4.95
361.728	3.78
361.937	2.36
362.146	2.58
362.355	1.46
362.564	2.29
362.774	1.27
362.983	2.06
363.192	3.36
363.401	3.76
363.61	3.72
363.819	5.4
364.028	7.21
364.237	8.29
364.446	7.36
364.655	7.42
364.864	8.08
365.073	8.85
365.282	8.37
365.491	7.63
365.7	8.48
365.909	9.16
366.118	6.81
366.327	5.78
366.536	4.73
366.745	4.76
366.954	5.78
367.162	3.51
367.371	4.53
367.58	4.91
367.789	3.81
367.998	3.54
368.207	2.98
368.415	4.32
368.624	4.34
368.833	5.38
369.042	6.03
369.25	5.3
369.459	6.08
369.668	6.95
369.877	6.25
370.085	6
370.294	5.48
370.503	5.37
370.711	5.54
370.92	5.4
371.129	6.13
371.337	7.07
371.546	7.21
371.754	8.48
371.963	6.47
372.171	6.78
372.38	5.89
372.589	6.44
372.797	6.54
373.006	5.83
373.214	6.27
373.423	5.02
373.631	5.1
373.84	4.91
374.048	5.71
374.256	6.73
374.465	7.33
374.673	9.43
374.882	8.33
375.09	8.43
375.298	8.86
375.507	9.17
375.715	9.79
375.923	8.2
376.132	8.13
376.34	6.01
376.548	5.74
376.757	5.31
376.965	3.26
377.173	2.86
377.381	2.23
377.59	1.15
377.798	0.76
378.006	-0.09
378.214	1.75
378.423	2.69
378.631	3.24
378.839	3.47
379.047	2.87
379.255	4.41
379.463	5.43
379.671	4.75
379.879	4.31
380.088	4.03
380.296	3.92
380.504	2.95
380.712	1.51
380.92	1.39
381.128	2.05
381.336	2.56
381.544	2.33
381.752	1.92
381.96	2.64
382.168	3.65
382.376	4.91
382.584	5
382.791	4.8
382.999	5.51
383.207	6.46
383.415	5.33
383.623	5.12
383.831	5.39
384.039	4.97
384.247	3.55
384.454	2.05
384.662	1.24
384.87	2.22
385.078	1.59
385.285	0.87
385.493	-0.56
385.701	-2.15
385.909	-2.19
386.116	-0.82
386.324	0.31
386.532	2.16
386.739	3.8
386.947	2.46
387.155	2.88
387.362	4.25
387.57	4.5
387.778	5.4
387.985	5.3
388.193	6.22
388.4	4.27
388.608	3.39
388.816	2.78
389.023	1.77
389.231	2.72
389.438	1.46
389.646	1.91
389.853	1.26
390.061	1.19
390.268	2.78
390.475	3.35
390.683	5.13
390.89	6.23
391.098	6.4
391.305	7.03
391.512	7.55
391.72	6.62
391.927	6.41
392.135	7.17
392.342	6.16
392.549	6.51
392.756	5.46
392.964	5
393.171	5
393.378	5.75
393.586	6.44
393.793	5.85
394	6.67
394.207	6.7
394.414	6.57
394.622	7.58
394.829	7.69
395.036	6.54
395.243	6.11
395.45	5.11
395.657	4.93
395.864	4.23
396.072	3.52
396.279	4.39
396.486	3.3
396.693	3.1
396.9	2.79
397.107	2.03
397.314	2.74
397.521	2.24
397.728	2.64
397.935	0.57
398.142	-0.36
398.349	0.54
398.556	-0.79
398.763	-0.88
398.97	-0.91
399.177	0.08
399.383	0.03
399.59	-0.05
399.797	0.07
400.004	0.37
400.211	2.03
400.418	2.37
400.625	2.18
400.831	2.74
401.038	4.01
401.245	4.59
401.452	3.29
401.658	2.65
401.865	3.94
402.072	5.34
402.279	5.54
402.485	5.15
402.692	5.74
402.899	5.59
403.105	5.66
403.312	4.96
403.519	5.08
403.725	4.34
403.932	5.25
404.138	5.63
404.345	4.89
404.552	4.8
404.758	5.42
404.965	5.28
405.171	5.3
405.378	3.82
405.584	3.76
405.791	3.26
405.997	4.88
406.204	5.24
406.41	4.75
406.617	4.75
406.823	3.93
407.029	2.74
407.236	3
407.442	2.5
407.649	4.09
407.855	4.14
408.061	4.34
408.268	3.37
408.474	2.85
408.68	2.17
408.887	1.2
409.093	1.2
409.299	1.59
409.505	0.3
409.712	0.94
409.918	0.82
410.124	0.97
410.33	1.34
410.537	2.84
410.743	2.44
410.949	2.53
411.155	2.74
411.361	1.87
411.567	2.9
411.773	4.17
411.98	4.06
412.186	4.15
412.392	4.51
412.598	4.45
412.804	3.43
413.01	3.47
413.216	3.15
413.422	4.45
413.628	5.4
413.834	4.04
414.04	4.28
414.246	5.17
414.452	5.72
414.658	4.51
414.864	4.21
415.07	4.79
415.275	5.23
415.481	4.97
415.687	4.49
415.893	4.89
416.099	5.86
416.305	5.21
416.511	4.41
416.716	4.49
416.922	5.71
417.128	6.19
417.334	6.02
417.539	5.51
417.745	5.61
417.951	5.42
418.157	5.72
418.362	5.43
418.568	5.23
418.774	5.69
418.979	5.36
419.185	4.82
419.391	4.43
419.596	4.38
419.802	4.34
420.008	4.6
420.213	5.04
420.419	4.66
420.624	4.61
420.83	4.78
421.035	4.6
421.241	4.45
421.446	4.52
421.652	4.51
421.857	4.1
422.063	4.23
422.268	4.24
422.474	3.93
422.679	4.12
422.885	3.97
423.09	4.21
423.295	4.34
423.501	4.53
423.706	4.43
423.911	4.38
424.117	5.24
424.322	5.19
424.527	5.31
424.733	5.41
424.938	5.37
425.143	5.71
425.349	5.35
425.554	5.48
425.759	5.24
425.964	5.66
426.169	6.33
426.375	5.7
426.58	6.01
426.785	5.64
426.99	5.77
427.195	5.19
427.4	4.88
427.605	5.91
427.811	5
428.016	5.04
428.221	5.31
428.426	4.55
428.631	5.16
428.836	5.01
429.041	5.18
429.246	4.97
429.451	5.35
429.656	5.48
429.861	5.06
430.066	5.38
430.271	4.99
430.476	3.54
430.681	3.38
430.886	2.62
431.09	2.83
431.295	2.53
431.5	2.81
431.705	2.85
431.91	2.92
432.115	3.16
432.32	3.41
432.524	3.99
432.729	4.69
432.934	4.8
433.139	4.92
433.343	4.87
433.548	5.17
433.753	4.69
433.958	4.98
434.162	5.49
434.367	5.45
434.572	5.33
434.776	5.33
434.981	5.16
435.186	5.36
435.39	5.69
435.595	5.36
435.799	4.92
436.004	5.29
436.209	5.16
436.413	3.75
436.618	3.4
436.822	3.59
437.027	3.74
437.231	3.36
437.436	3.19
437.64	3.24
437.845	3.5
438.049	4.08
438.253	4.47
438.458	4.82
438.662	5.47
438.867	5.52
439.071	5.49
439.275	5.38
439.48	5.54
439.684	5.7
439.888	5.08
440.093	4.89
440.297	4.96
440.501	4.43
440.706	4.07
440.91	4.08
441.114	4.33
441.318	4.48
441.523	4.79
441.727	4.95
441.931	4.62
442.135	4.88
442.339	5.02
442.543	5.12
442.748	5.3
442.952	4.85
443.156	5.16
443.36	4.62
443.564	4.74
443.768	4.14
443.972	4.4
444.176	4.9
444.38	5.31
444.584	5.69
444.788	4.78
444.992	4.97
445.196	5.46
445.4	5.45
445.604	5.65
445.808	5.08
446.012	5.05
446.216	5.2
446.42	4.93
446.624	4.95
446.828	4.57
447.032	4.99
447.235	4.87
447.439	4.66
447.643	4.23
447.847	3.79
448.051	3.96
448.254	4.39
448.458	3.88
448.662	4.05
448.866	3.61
449.069	4.12
449.273	3.68
449.477	3.1
449.681	3.04
449.884	3.51
450.088	3.84
450.292	3.31
450.495	2.84
450.699	2.88
450.902	2.96
451.106	2.73
451.31	2.45
451.513	3.17
451.717	3.57
451.92	3.64
452.124	3.01
452.327	3.74
452.531	4.29
452.734	4.4
452.938	4.25
453.141	4.32
453.345	4.27
453.548	3.97
453.752	4.22
453.955	4.36
454.158	4.39
454.362	4.13
454.565	3.88
454.769	3.67
454.972	4.01
455.175	4.28
455.379	4.2
455.582	5.14
455.785	4.99
455.988	4.34
456.192	4.13
456.395	4.02
456.598	4.28
456.801	3.26
457.005	3.15
457.208	3.36
457.411	3.15
457.614	2.91
457.817	2.11
458.021	2.4
458.224	2.59
458.427	2.81
458.63	3.13
458.833	3.45
459.036	3.43
459.239	4.08
459.442	3.67
459.645	4.19
459.848	4.45
460.051	4.7
460.254	4.93
460.457	4.86
460.66	4.45
460.863	4.41
461.066	4.64
461.269	5.41
461.472	5.05
461.675	5.05
461.878	5.14
462.081	4.87
462.284	5.43
462.486	5.32
462.689	5.46
462.892	5.8
463.095	5.51
463.298	4.88
463.5	4.89
463.703	5.41
463.906	4.99
