Data from JASIL_3186_Reflection_01.txt Node
Date: Fri Nov 13 14:04:20 EST 2015
User: Geneva
Spectrometer: USB4E03002
Autoset integration time: false
Trigger mode: 4
Integration Time (sec): 1.000000E-1
Scans to average: 10
Electric dark correction enabled: false
Nonlinearity correction enabled: false
Boxcar width: 5
Stray light correction enabled: false
XAxis mode: Wavelengths
Stop averaging: false
Number of Pixels in Spectrum: 3648
>>>>>Begin Spectral Data<<<<<
177.575	-19.51
177.794	6.05
178.014	30.37
178.233	46.25
178.452	71.11
178.672	62.09
178.891	84.29
179.11	99.42
179.33	123.82
179.549	140.44
179.768	192.83
179.987	168.17
180.207	209.94
180.426	195.19
180.645	167.06
180.864	162.72
181.084	171.37
181.303	158.22
181.522	149.93
181.741	143.4
181.96	140.28
182.179	106.46
182.398	84.35
182.618	76.98
182.837	85.26
183.056	89.24
183.275	72.29
183.494	72.78
183.713	80.19
183.932	98.59
184.151	80.21
184.37	63.29
184.589	60.39
184.808	69.89
185.027	73.94
185.246	71.64
185.465	72.26
185.684	81.04
185.903	79.6
186.122	67.47
186.341	69.24
186.56	89.46
186.779	106.54
186.998	108.06
187.216	116.44
187.435	104.16
187.654	102.43
187.873	91
188.092	92.08
188.311	86.63
188.53	103.64
188.748	101.51
188.967	94.04
189.186	79.69
189.405	82.65
189.623	78.13
189.842	76.02
190.061	79.89
190.28	82.29
190.498	80.92
190.717	86.87
190.936	88.99
191.154	86.37
191.373	104.7
191.592	125.79
191.81	144.43
192.029	151.63
192.248	257.21
192.466	206.52
192.685	197.97
192.904	237.56
193.122	250.38
193.341	215.21
193.559	207.88
193.778	148.71
193.996	130.65
194.215	122.18
194.433	105.26
194.652	76
194.87	81.78
195.089	92.62
195.307	86.62
195.526	85.82
195.744	66.22
195.963	77.63
196.181	82.42
196.399	88.58
196.618	76.39
196.836	80.27
197.055	92.26
197.273	88.79
197.491	93.51
197.71	117.29
197.928	121.39
198.146	156.02
198.365	130.9
198.583	131.07
198.801	145.41
199.019	132.01
199.238	152.39
199.456	133.2
199.674	116.28
199.892	100.41
200.111	96.8
200.329	74.62
200.547	66.38
200.765	50.99
200.983	41.75
201.202	50
201.42	41.3
201.638	43.27
201.856	62.64
202.074	68.58
202.292	90.92
202.51	85.91
202.728	108.19
202.946	107.42
203.165	107.29
203.383	117.52
203.601	113.07
203.819	112.13
204.037	134.59
204.255	154.39
204.473	178.4
204.691	217.44
204.909	230.61
205.127	297.73
205.345	347.77
205.562	521.26
205.78	339.68
205.998	490.7
206.216	684.56
206.434	362.21
206.652	314.95
206.87	322.22
207.088	134.15
207.306	131.68
207.523	83.07
207.741	92.05
207.959	86.53
208.177	69.33
208.395	53.35
208.612	62.71
208.83	73.24
209.048	61.17
209.266	61.23
209.483	95.99
209.701	91.87
209.919	117.06
210.136	121.69
210.354	104.65
210.572	102.72
210.79	122.87
211.007	119.55
211.225	121.53
211.442	139.53
211.66	199.46
211.878	152.12
212.095	113.24
212.313	103.41
212.53	103.36
212.748	106.98
212.966	107.94
213.183	104.94
213.401	106.06
213.618	100.38
213.836	102.55
214.053	91.15
214.271	89.97
214.488	76.86
214.705	77.68
214.923	79.47
215.14	80.68
215.358	70.47
215.575	79.02
215.793	73.89
216.01	67.21
216.227	55.18
216.445	60.08
216.662	49.34
216.879	62.8
217.097	70.27
217.314	64.28
217.531	54.15
217.749	85.25
217.966	78.29
218.183	66.17
218.4	72.07
218.618	80.69
218.835	77.98
219.052	74.25
219.269	55.25
219.487	42.77
219.704	41.5
219.921	38.66
220.138	40.33
220.355	36.87
220.572	50.4
220.79	52.5
221.007	58.68
221.224	59.15
221.441	69.37
221.658	63.79
221.875	74.9
222.092	79.57
222.309	82.37
222.526	66.34
222.743	67.38
222.96	57.63
223.177	54.83
223.394	38.81
223.611	33.04
223.828	31.18
224.045	36.17
224.262	46.38
224.479	41.19
224.696	49.03
224.913	49.9
225.13	45.75
225.347	56.85
225.564	63.12
225.781	66.03
225.997	71.09
226.214	69.7
226.431	70.32
226.648	65.78
226.865	68.91
227.082	69.84
227.298	65.51
227.515	58.46
227.732	45.7
227.949	42.14
228.165	40.44
228.382	37.44
228.599	44.02
228.816	39.07
229.032	36.42
229.249	35.5
229.466	32.63
229.682	33.01
229.899	42.59
230.116	32.91
230.332	32.73
230.549	37.31
230.765	38.82
230.982	47.9
231.199	61.77
231.415	70.86
231.632	64.26
231.848	72.93
232.065	76.89
232.281	77.62
232.498	88.57
232.714	82.48
232.931	85.73
233.147	93.84
233.364	76.84
233.58	75.77
233.797	79.03
234.013	70.51
234.23	57.72
234.446	40.51
234.662	39.09
234.879	49.08
235.095	43.78
235.312	49.55
235.528	48.7
235.744	52.54
235.961	45.55
236.177	43.15
236.393	53.19
236.61	54.86
236.826	59.13
237.042	59.39
237.258	55.64
237.475	73.63
237.691	66.79
237.907	68.25
238.123	64.76
238.339	75.07
238.556	63.69
238.772	63.72
238.988	63.28
239.204	66.76
239.42	60.95
239.636	57.99
239.853	45.14
240.069	45.15
240.285	37.68
240.501	44.32
240.717	36.38
240.933	38.4
241.149	35.8
241.365	30.44
241.581	26.46
241.797	26.53
242.013	29.15
242.229	31.43
242.445	35.32
242.661	39.1
242.877	36.8
243.093	37.8
243.309	43.61
243.525	41.53
243.741	48.13
243.957	57.82
244.173	58.46
244.388	45.06
244.604	36.4
244.82	31.27
245.036	26.74
245.252	29
245.468	23.89
245.683	17.65
245.899	16.86
246.115	16
246.331	11.82
246.547	9.01
246.762	15.57
246.978	20.37
247.194	21.77
247.409	25.67
247.625	23.96
247.841	21.51
248.057	27.07
248.272	30.2
248.488	29.91
248.703	33.28
248.919	39.78
249.135	36.56
249.35	35.76
249.566	32.36
249.782	29.01
249.997	23.52
250.213	31.3
250.428	33.23
250.644	34.12
250.859	36.17
251.075	30.64
251.29	26.46
251.506	29.15
251.721	30.92
251.937	29.17
252.152	30.59
252.368	37.65
252.583	36.65
252.798	40.4
253.014	41.38
253.229	37.19
253.445	43.51
253.66	53.86
253.875	52.09
254.091	51.78
254.306	54.66
254.521	57.55
254.737	53.94
254.952	59.13
255.167	49.59
255.383	47.14
255.598	47.26
255.813	45.95
256.028	38.37
256.244	41.66
256.459	40.41
256.674	39.77
256.889	35.6
257.104	29.85
257.32	27.95
257.535	23.1
257.75	21.47
257.965	22.19
258.18	22.98
258.395	25.03
258.61	20.23
258.826	20.92
259.041	20.8
259.256	17.24
259.471	18.1
259.686	18.85
259.901	21.07
260.116	20.91
260.331	19.95
260.546	18.27
260.761	15.86
260.976	19.88
261.191	18.38
261.406	20.11
261.621	25.96
261.836	27.11
262.05	21.41
262.265	21.24
262.48	24.02
262.695	27.44
262.91	32.66
263.125	34.15
263.34	33.9
263.555	31.84
263.769	30.07
263.984	26.87
264.199	26.99
264.414	30.29
264.629	32.9
264.843	27.46
265.058	24.65
265.273	19.85
265.488	16.22
265.702	15.97
265.917	17.96
266.132	19.65
266.346	17.34
266.561	17.69
266.776	17.68
266.99	18.6
267.205	20.03
267.42	20.91
267.634	18.47
267.849	19.13
268.063	18.39
268.278	19.17
268.492	14.18
268.707	16.38
268.922	19.65
269.136	22.17
269.351	19.38
269.565	19.67
269.78	16.53
269.994	16.67
270.209	18.14
270.423	19.07
270.637	18.14
270.852	18.32
271.066	20.13
271.281	17.53
271.495	15.16
271.709	16.02
271.924	15.08
272.138	17.4
272.353	18.67
272.567	18.39
272.781	18.8
272.996	20.94
273.21	19.97
273.424	18.5
273.638	22.6
273.853	21.53
274.067	20.51
274.281	20.92
274.495	21.98
274.71	22.92
274.924	23.66
275.138	22.53
275.352	23.94
275.566	27.07
275.781	28.05
275.995	23.27
276.209	28.66
276.423	25.46
276.637	29.34
276.851	29.23
277.065	32.01
277.279	29.33
277.493	26.54
277.707	24
277.921	22
278.135	23.24
278.349	23.14
278.563	20.3
278.777	20.96
278.991	16.58
279.205	18.72
279.419	15.7
279.633	14.8
279.847	18.4
280.061	19.1
280.275	20.05
280.489	18.52
280.703	17.25
280.917	14.3
281.131	11.9
281.344	11.9
281.558	9.96
281.772	9.77
281.986	13.25
282.2	14.42
282.414	11.42
282.627	11.4
282.841	12.08
283.055	12.93
283.269	14.07
283.482	16.26
283.696	14.91
283.91	14.29
284.123	13.17
284.337	12.65
284.551	9.7
284.764	11.51
284.978	9.78
285.192	9.25
285.405	9.38
285.619	10.03
285.833	12.52
286.046	13.37
286.26	13.24
286.473	13.34
286.687	13.38
286.9	16.42
287.114	14.96
287.327	17.22
287.541	19.2
287.754	19.65
287.968	24.33
288.181	21.83
288.395	19.55
288.608	19.99
288.822	18.91
289.035	18.05
289.248	13.92
289.462	14.26
289.675	14.01
289.889	13.52
290.102	16.1
290.315	9.86
290.529	9.72
290.742	12.94
290.955	15.21
291.169	18.4
291.382	18.45
291.595	21.28
291.808	22.16
292.022	22.42
292.235	23.98
292.448	19.93
292.661	20.55
292.875	22.09
293.088	21.32
293.301	16.86
293.514	15.64
293.727	17.2
293.94	14.96
294.153	15.36
294.367	15.08
294.58	14.81
294.793	14.74
295.006	16.31
295.219	13.66
295.432	12.14
295.645	14.2
295.858	12.49
296.071	12.53
296.284	12.57
296.497	12.79
296.71	10.57
296.923	9.18
297.136	9.54
297.349	9.67
297.562	10.97
297.775	10.89
297.988	9.94
298.201	8.51
298.414	6.98
298.626	10.34
298.839	9.11
299.052	10.55
299.265	11.38
299.478	12.48
299.691	9.38
299.903	10.25
300.116	12.35
300.329	12.71
300.542	16.29
300.755	17.21
300.967	15.41
301.18	17.87
301.393	20.13
301.605	18.82
301.818	20.23
302.031	22.79
302.243	22.41
302.456	22.58
302.669	26.14
302.881	28.93
303.094	29.23
303.307	29.5
303.519	31.15
303.732	29.98
303.944	32.2
304.157	32.61
304.37	32.14
304.582	34.36
304.795	32.5
305.007	27.38
305.22	24.78
305.432	23.68
305.645	22.61
305.857	18.33
306.069	17.28
306.282	16.37
306.494	15.29
306.707	16.21
306.919	13.32
307.132	14.18
307.344	14.34
307.556	13.61
307.769	13.51
307.981	13.92
308.193	12.65
308.406	13.28
308.618	12.41
308.83	11.14
309.043	12.3
309.255	12.58
309.467	13.28
309.679	13.85
309.892	14.28
310.104	14.78
310.316	14.51
310.528	16.07
310.74	15.89
310.953	17.54
311.165	19.73
311.377	18.33
311.589	16.86
311.801	15.72
312.013	21.1
312.225	18.69
312.437	19.54
312.649	20.81
312.862	21.18
313.074	22.61
313.286	18.95
313.498	17.94
313.71	20.37
313.922	22.54
314.134	24.25
314.346	21.21
314.558	26.91
314.77	27.13
314.982	26.26
315.193	27.47
315.405	25.83
315.617	28.19
315.829	27.24
316.041	24.52
316.253	25.57
316.465	25.52
316.677	23.84
316.888	22.44
317.1	20.5
317.312	18.99
317.524	17.18
317.736	17.4
317.947	18.81
318.159	20.97
318.371	21.32
318.583	21.84
318.794	20.93
319.006	21.37
319.218	20.09
319.43	21.81
319.641	22.83
319.853	25.03
320.064	24.84
320.276	22.85
320.488	23.71
320.699	20.75
320.911	19.88
321.123	22.88
321.334	22.54
321.546	23.75
321.757	23.22
321.969	23.37
322.18	23.26
322.392	25.34
322.603	26.49
322.815	23.92
323.026	27.91
323.238	26.33
323.449	23.05
323.661	19.85
323.872	20.28
324.083	18.46
324.295	17.76
324.506	16.1
324.718	15.85
324.929	12.6
325.14	13.94
325.352	12.56
325.563	13.57
325.774	17.63
325.986	21.77
326.197	21.52
326.408	23.66
326.62	25.41
326.831	27.61
327.042	28.67
327.253	30.42
327.464	30.53
327.676	29.47
327.887	30.23
328.098	26.8
328.309	24.46
328.52	25.04
328.732	24.94
328.943	26.4
329.154	24.62
329.365	23.99
329.576	23.77
329.787	22.4
329.998	26.17
330.209	27.38
330.42	28.1
330.631	29.64
330.842	27.57
331.053	27.29
331.264	22.92
331.475	23.62
331.686	21.18
331.897	22.86
332.108	23.2
332.319	21.14
332.53	19.6
332.741	19.8
332.952	22.44
333.163	21.36
333.374	18.88
333.585	20.34
333.795	19.83
334.006	20.82
334.217	20.4
334.428	19.68
334.639	19.97
334.849	19.72
335.06	20.29
335.271	16.73
335.482	18.27
335.692	21.09
335.903	21.11
336.114	21.62
336.325	24.99
336.535	25.4
336.746	27.63
336.957	28.92
337.167	29.39
337.378	27.89
337.589	30.38
337.799	30.2
338.01	30.6
338.22	32.07
338.431	32.09
338.642	29.68
338.852	28.94
339.063	28.61
339.273	29.95
339.484	29.44
339.694	31.04
339.905	26.24
340.115	27.49
340.326	27.53
340.536	25.99
340.746	22.98
340.957	23.63
341.167	24.09
341.378	22.08
341.588	19.65
341.799	19.35
342.009	19.75
342.219	22.08
342.43	22.42
342.64	21.59
342.85	24.7
343.061	25.32
343.271	25.39
343.481	24.93
343.691	25.1
343.902	23
344.112	22.49
344.322	21.76
344.532	21.8
344.743	21.41
344.953	20.45
345.163	17.88
345.373	18.63
345.583	19.38
345.793	17.58
346.004	18.31
346.214	20.07
346.424	20.86
346.634	21.49
346.844	22.19
347.054	20.98
347.264	22.99
347.474	21.84
347.684	23.25
347.894	21.55
348.104	23.32
348.314	21.58
348.524	19.59
348.734	20.23
348.944	19.21
349.154	18.78
349.364	20.75
349.574	17.69
349.784	20.5
349.994	21.59
350.204	22.63
350.413	22.9
350.623	22.52
350.833	23.53
351.043	22.29
351.253	22.12
351.463	23.71
351.672	22.39
351.882	25.91
352.092	24.32
352.302	23.82
352.511	24.12
352.721	23.67
352.931	24.21
353.141	23.23
353.35	22.6
353.56	21.25
353.77	19.21
353.979	19.35
354.189	17.03
354.399	17.9
354.608	18.92
354.818	18.26
355.027	19.71
355.237	20.44
355.447	19.99
355.656	20.13
355.866	20.54
356.075	20.72
356.285	21.03
356.494	22.83
356.704	23.43
356.913	21.65
357.123	21.67
357.332	19.4
357.542	19.76
357.751	21.01
357.96	21.54
358.17	21.95
358.379	22.43
358.589	21.91
358.798	19.24
359.007	18.16
359.217	18.59
359.426	18.33
359.635	18.64
359.845	17.91
360.054	17.11
360.263	16.56
360.472	17.44
360.682	17.64
360.891	16.9
361.1	18.3
361.309	18.73
361.519	18.22
361.728	18.7
361.937	19.73
362.146	20.32
362.355	21.52
362.564	22.88
362.774	22.06
362.983	20.33
363.192	21.26
363.401	20.87
363.61	19.72
363.819	19.41
364.028	17.88
364.237	17.72
364.446	17.98
364.655	17.27
364.864	17.9
365.073	19.05
365.282	20.34
365.491	20.25
365.7	20.38
365.909	21.2
366.118	20.84
366.327	21.32
366.536	21.75
366.745	21.5
366.954	22.65
367.162	21.53
367.371	20.54
367.58	21.88
367.789	22.82
367.998	23.1
368.207	23.03
368.415	22.39
368.624	22.93
368.833	21.34
369.042	20.78
369.25	19.67
369.459	19.84
369.668	19.72
369.877	19.53
370.085	18.39
370.294	16.54
370.503	15.91
370.711	16.77
370.92	15.78
371.129	18.4
371.337	18.08
371.546	17.6
371.754	17.05
371.963	16.14
372.171	15.23
372.38	14.96
372.589	15.34
372.797	15.05
373.006	15.58
373.214	16.14
373.423	14.31
373.631	15.83
373.84	15.49
374.048	16.3
374.256	17.29
374.465	17.61
374.673	18.06
374.882	19.27
375.09	18.8
375.298	19.5
375.507	19.94
375.715	19.63
375.923	18.05
376.132	19.46
376.34	19.1
376.548	19.76
376.757	19.05
376.965	18.68
377.173	18.4
377.381	19.18
377.59	18.96
377.798	18.81
378.006	18.89
378.214	20.42
378.423	20.2
378.631	18.81
378.839	19.15
379.047	20.09
379.255	19.25
379.463	18.3
379.671	19.15
379.879	18.13
380.088	17.9
380.296	18.21
380.504	20.04
380.712	18.93
380.92	19.71
381.128	18.75
381.336	17.95
381.544	19.24
381.752	20.01
381.96	18.96
382.168	20.8
382.376	20.54
382.584	19.98
382.791	17.47
382.999	17.78
383.207	17.19
383.415	18.49
383.623	19.08
383.831	19.35
384.039	19.43
384.247	20.15
384.454	19.84
384.662	20.42
384.87	20.56
385.078	20.71
385.285	20.92
385.493	21.72
385.701	20.25
385.909	19.17
386.116	18.99
386.324	18.28
386.532	17.72
386.739	16.63
386.947	17.24
387.155	17.24
387.362	17.18
387.57	17.28
387.778	16.92
387.985	16.42
388.193	18.47
388.4	17.06
388.608	17.48
388.816	17.74
389.023	17.81
389.231	17.25
389.438	17.2
389.646	17.93
389.853	18.18
390.061	17.48
390.268	17.35
390.475	16.1
390.683	16.78
390.89	16.67
391.098	16.61
391.305	17.21
391.512	17.73
391.72	17.81
391.927	17.68
392.135	17.21
392.342	17.14
392.549	18.42
392.756	17.73
392.964	17.88
393.171	18.06
393.378	17.91
393.586	17.75
393.793	16.63
394	16.75
394.207	16.66
394.414	16.76
394.622	18.1
394.829	17.39
395.036	17.95
395.243	18.15
395.45	18.51
395.657	18.39
395.864	18.63
396.072	19.59
396.279	19.84
396.486	18.96
396.693	19.75
396.9	18.52
397.107	17.94
397.314	18.24
397.521	17.86
397.728	16.51
397.935	16.81
398.142	16.29
398.349	16.06
398.556	15.18
398.763	15.02
398.97	14.21
399.177	15.92
399.383	16.27
399.59	16.62
399.797	16.81
400.004	17.48
400.211	17.81
400.418	18.98
400.625	19.1
400.831	19.41
401.038	19.41
401.245	18.58
401.452	17.57
401.658	17.86
401.865	17.42
402.072	18.04
402.279	17.84
402.485	16.34
402.692	15.95
402.899	16.54
403.105	17.18
403.312	18.52
403.519	18.63
403.725	18.26
403.932	18.28
404.138	17.55
404.345	17.59
404.552	18.59
404.758	19.62
404.965	19.17
405.171	18.32
405.378	18.24
405.584	17.79
405.791	18.26
405.997	19.29
406.204	19.68
406.41	19.93
406.617	19.59
406.823	17.82
407.029	18.72
407.236	17.73
407.442	17.61
407.649	17.6
407.855	17.31
408.061	16.43
408.268	16.24
408.474	16.03
408.68	16.45
408.887	15.65
409.093	16.75
409.299	15.78
409.505	16.48
409.712	16.52
409.918	16.35
410.124	15.82
410.33	17.15
410.537	16.58
410.743	16.71
410.949	17.33
411.155	17.41
411.361	18.53
411.567	18.3
411.773	17.53
411.98	17.49
412.186	16.57
412.392	16.89
412.598	16.56
412.804	16.93
413.01	16.28
413.216	15.94
413.422	16.35
413.628	14.2
413.834	13.37
414.04	14.1
414.246	13.96
414.452	14.69
414.658	14.89
414.864	13.92
415.07	14.55
415.275	14.42
415.481	14.22
415.687	14.78
415.893	16.28
416.099	17.56
416.305	17.46
416.511	17.69
416.716	17.03
416.922	16.64
417.128	16.35
417.334	15.62
417.539	15.77
417.745	16.1
417.951	14.73
418.157	14.46
418.362	13.94
418.568	13.47
418.774	12.42
418.979	12.78
419.185	13
419.391	13.53
419.596	13.84
419.802	13.56
420.008	12.75
420.213	13.68
420.419	13.72
420.624	13.54
420.83	14.07
421.035	14.59
421.241	14.49
421.446	14.09
421.652	14.4
421.857	13.93
422.063	14.15
422.268	14.26
422.474	13.87
422.679	13.83
422.885	13.87
423.09	13.63
423.295	13.88
423.501	14.41
423.706	14.16
423.911	13.54
424.117	13.34
424.322	13.53
424.527	14.35
424.733	14.73
424.938	14.47
425.143	14.73
425.349	14.95
425.554	14.28
425.759	14.03
425.964	14.36
426.169	14.8
426.375	15.56
426.58	15.3
426.785	14.54
426.99	14.35
427.195	14.38
427.4	14.32
427.605	13.86
427.811	14.91
428.016	14.09
428.221	14.73
428.426	13.95
428.631	13.75
428.836	13.83
429.041	13.91
429.246	13.57
429.451	13.45
429.656	13.53
429.861	14.06
430.066	13.74
430.271	14.74
430.476	14.79
430.681	16.07
430.886	15.4
431.09	15.29
431.295	15.46
431.5	15.5
431.705	15.12
431.91	15.08
432.115	14.86
432.32	14.61
432.524	14.04
432.729	13.81
432.934	13.06
433.139	12.95
433.343	12.66
433.548	12.72
433.753	13.16
433.958	13.62
434.162	13.06
434.367	12.65
434.572	13.02
434.776	12.64
434.981	12.03
435.186	12.21
435.39	12.29
435.595	12.82
435.799	12.86
436.004	11.88
436.209	12.22
436.413	12.64
436.618	12.76
436.822	12.3
437.027	11.94
437.231	12.3
437.436	11.78
437.64	11.67
437.845	11.47
438.049	11.45
438.253	12.2
438.458	12.05
438.662	11.75
438.867	12
439.071	12.56
439.275	12.63
439.48	12.5
439.684	12.81
439.888	13.11
440.093	12.92
440.297	12.53
440.501	12.26
440.706	12.23
440.91	12.39
441.114	12.14
441.318	11.62
441.523	12.07
441.727	12.5
441.931	12.92
442.135	12.62
442.339	12.93
442.543	13.12
442.748	13.35
442.952	13.63
443.156	14.3
443.36	14.38
443.564	14.47
443.768	14.35
443.972	14.36
444.176	13.39
444.38	13.89
444.584	14.07
444.788	13.49
444.992	13.67
445.196	13.58
445.4	13.02
445.604	12.99
445.808	12.88
446.012	12.98
446.216	12.78
446.42	13.54
446.624	13.55
446.828	13.54
447.032	13.79
447.235	13.69
447.439	13.44
447.643	13.29
447.847	13.19
448.051	13.69
448.254	13.79
448.458	14.21
448.662	13.72
448.866	13.32
449.069	13.12
449.273	13.63
449.477	13.25
449.681	13.49
449.884	13.95
450.088	14.55
450.292	14.1
450.495	14.09
450.699	13.48
450.902	13.76
451.106	14.16
451.31	14.74
451.513	14.08
451.717	13.72
451.92	13.06
452.124	12.52
452.327	12.47
452.531	11.86
452.734	12.15
452.938	11.73
453.141	11.8
453.345	11.56
453.548	11.26
453.752	11.95
453.955	12.58
454.158	12.81
454.362	13.17
454.565	12.67
454.769	13.68
454.972	13.45
455.175	13.79
455.379	13.83
455.582	14.18
455.785	13.59
455.988	13.55
