Data from JASIL_3381_Reflection_1.txt Node
Date: Thu Nov 19 19:06:58 EST 2015
User: Geneva
Spectrometer: USB4E03002
Autoset integration time: false
Trigger mode: 4
Integration Time (sec): 1.000000E-1
Scans to average: 10
Electric dark correction enabled: false
Nonlinearity correction enabled: false
Boxcar width: 5
Stray light correction enabled: false
XAxis mode: Wavelengths
Stop averaging: false
Number of Pixels in Spectrum: 3648
>>>>>Begin Spectral Data<<<<<
177.575	319.57
177.794	391.84
178.014	345.36
178.233	350.8
178.452	342.08
178.672	378.36
178.891	408.69
179.11	489.8
179.33	587.55
179.549	848.63
179.768	1326
179.987	867.81
180.207	1028.32
180.426	4333.33
180.645	322500
180.864	-12207.69
181.084	5825.93
181.303	-13420.83
181.522	14060.87
181.741	2229.93
181.96	1086.55
182.179	698.44
182.398	1190.76
182.618	607.55
182.837	454.48
183.056	498.24
183.275	523.88
183.494	651.18
183.713	449.1
183.932	358.97
184.151	435.87
184.37	460.37
184.589	543.29
184.808	627.6
185.027	1012.24
185.246	984.75
185.465	685.71
185.684	561.99
185.903	499.25
186.122	604.61
186.341	940.81
186.56	992.17
186.779	904.73
186.998	892.61
187.216	809.61
187.435	584.13
187.654	662.79
187.873	757.88
188.092	947.04
188.311	1050.17
188.53	819.2
188.748	590.5
188.967	440.03
189.186	575.14
189.405	552.55
189.623	486.83
189.842	651.82
190.061	773.09
190.28	719.84
190.498	771.87
190.717	566.13
190.936	570.29
191.154	487.71
191.373	710.53
191.592	465.12
191.81	607.21
192.029	635.02
192.248	542.99
192.466	597.15
192.685	597.96
192.904	596.51
193.122	693.92
193.341	802.19
193.559	1746.51
193.778	887.82
193.996	1400.93
194.215	860.17
194.433	832.35
194.652	761.19
194.87	561.42
195.089	523.57
195.307	557.51
195.526	683
195.744	658.66
195.963	462.75
196.181	517.9
196.399	532.99
196.618	584.08
196.836	524.58
197.055	502.29
197.273	579.51
197.491	611.3
197.71	637.33
197.928	672.71
198.146	790.91
198.365	1949.32
198.583	1274.09
198.801	1207.44
199.019	890.63
199.238	1497.88
199.456	1172.2
199.674	820.59
199.892	723.13
200.111	655.39
200.329	600.57
200.547	461.72
200.765	387.75
200.983	416.65
201.202	407.87
201.42	497.01
201.638	720.78
201.856	801.08
202.074	945.71
202.292	820.1
202.51	656.8
202.728	577.84
202.946	533.74
203.165	669.27
203.383	629.01
203.601	817.11
203.819	696.06
204.037	506.95
204.255	492.62
204.473	438.14
204.691	499.28
204.909	540.28
205.127	711.92
205.345	992.52
205.562	654.73
205.78	574.78
205.998	531.02
206.216	473.29
206.434	514.16
206.652	461.3
206.87	502.2
207.088	482.33
207.306	515.8
207.523	531.44
207.741	381.46
207.959	393.29
208.177	405.3
208.395	342.33
208.612	325.38
208.83	308.86
209.048	320.61
209.266	303.62
209.483	344.86
209.701	323.28
209.919	339.98
210.136	446.7
210.354	580.56
210.572	605.87
210.79	598.38
211.007	754.55
211.225	668.25
211.442	896.42
211.66	1862.72
211.878	2423.62
212.095	1734.82
212.313	1118.44
212.53	1445.82
212.748	810.68
212.966	1087.4
213.183	1466.3
213.401	1056.71
213.618	1208.36
213.836	1407.09
214.053	830.06
214.271	608.01
214.488	705.46
214.705	733.73
214.923	561.81
215.14	631.8
215.358	520.82
215.575	489.27
215.793	527.82
216.01	401.2
216.227	413.66
216.445	532
216.662	558.38
216.879	471.71
217.097	439.14
217.314	436.96
217.531	494.19
217.749	495.53
217.966	488.3
218.183	486.71
218.4	552.74
218.618	587.75
218.835	436.67
219.052	433.65
219.269	413.57
219.487	391.65
219.704	478.55
219.921	435.19
220.138	423.5
220.355	402.83
220.572	456.05
220.79	591.47
221.007	481.88
221.224	395.01
221.441	359.25
221.658	368.41
221.875	417
222.092	366.18
222.309	332.34
222.526	337.81
222.743	315.2
222.96	259.72
223.177	211.29
223.394	215.48
223.611	258.9
223.828	263.07
224.045	282.81
224.262	262
224.479	271.48
224.696	315.08
224.913	341.46
225.13	350.82
225.347	362.86
225.564	369.03
225.781	319.26
225.997	279.8
226.214	261.96
226.431	234.79
226.648	197.47
226.865	168.83
227.082	145.63
227.298	128.42
227.515	122.83
227.732	110.17
227.949	100.32
228.165	93.25
228.382	86.52
228.599	81.95
228.816	78.06
229.032	82.27
229.249	80.55
229.466	82.32
229.682	78.98
229.899	80.29
230.116	86.72
230.332	95.2
230.549	103.6
230.765	111.97
230.982	117.01
231.199	118.7
231.415	127.53
231.632	137.15
231.848	137.44
232.065	139.71
232.281	145.05
232.498	147.06
232.714	144.06
232.931	144.93
233.147	140.72
233.364	151
233.58	159.58
233.797	144.24
234.013	145.51
234.23	151.41
234.446	164.01
234.662	155.39
234.879	158.67
235.095	162.33
235.312	161.35
235.528	163.79
235.744	159.34
235.961	143.54
236.177	143.23
236.393	150.07
236.61	146.83
236.826	142.03
237.042	143.52
237.258	151.19
237.475	163.8
237.691	156.74
237.907	156.01
238.123	146.26
238.339	152.58
238.556	147.12
238.772	141.98
238.988	136.02
239.204	129.18
239.42	121.9
239.636	108.26
239.853	99.32
240.069	93.34
240.285	84.45
240.501	80.48
240.717	77.45
240.933	74.11
241.149	69.53
241.365	68.31
241.581	67.5
241.797	65.32
242.013	66.86
242.229	65.44
242.445	65.79
242.661	68.09
242.877	69.51
243.093	68.7
243.309	70.86
243.525	71.98
243.741	72.76
243.957	73.4
244.173	73.4
244.388	71.49
244.604	67.3
244.82	61.75
245.036	57.17
245.252	53.8
245.468	51.56
245.683	47.6
245.899	44.08
246.115	41.77
246.331	39.27
246.547	38.88
246.762	37.72
246.978	37.2
247.194	38.24
247.409	40.02
247.625	39.27
247.841	40.52
248.057	42.49
248.272	44.79
248.488	46.46
248.703	48.69
248.919	52.16
249.135	57.13
249.35	63.27
249.566	64.86
249.782	63.66
249.997	68.22
250.213	69.1
250.428	68.65
250.644	67.2
250.859	69.5
251.075	67.25
251.29	65.32
251.506	61.11
251.721	60.29
251.937	60.65
252.152	62.26
252.368	61.22
252.583	62.93
252.798	64.94
253.014	67.71
253.229	67.43
253.445	71.31
253.66	73.93
253.875	74.85
254.091	74.5
254.306	76.47
254.521	75.77
254.737	76.81
254.952	74.63
255.167	74.67
255.383	74.39
255.598	73.25
255.813	69.93
256.028	66.03
256.244	63.83
256.459	60.67
256.674	58.77
256.889	56.06
257.104	52.24
257.32	51.11
257.535	45.59
257.75	41.49
257.965	38.96
258.18	36.75
258.395	35.46
258.61	33.12
258.826	32.27
259.041	30.52
259.256	30.3
259.471	29.96
259.686	28.98
259.901	30.34
260.116	30.12
260.331	30.86
260.546	31.57
260.761	32.63
260.976	35.36
261.191	37.5
261.406	40.84
261.621	43.05
261.836	46.37
262.05	47.84
262.265	49.47
262.48	53.48
262.695	55.62
262.91	60.19
263.125	58.81
263.34	59.25
263.555	58.52
263.769	57.64
263.984	56.63
264.199	56.93
264.414	59.6
264.629	57.43
264.843	55.5
265.058	51.85
265.273	46.66
265.488	47.9
265.702	47.88
265.917	48.27
266.132	46.83
266.346	45.83
266.561	44.79
266.776	43.39
266.99	42.5
267.205	42.98
267.42	44.48
267.634	46.96
267.849	48.03
268.063	45.92
268.278	45.11
268.492	44.88
268.707	45.08
268.922	42.65
269.136	42.31
269.351	42.83
269.565	41.88
269.78	42.15
269.994	40.57
270.209	38.06
270.423	38.38
270.637	37.75
270.852	39.97
271.066	39.45
271.281	40.32
271.495	38.62
271.709	38.34
271.924	38.33
272.138	37.38
272.353	36.02
272.567	35.69
272.781	37.4
272.996	37.17
273.21	36.04
273.424	37.49
273.638	37.68
273.853	39.37
274.067	39.32
274.281	40.67
274.495	41.51
274.71	43.71
274.924	45.8
275.138	43.95
275.352	45.12
275.566	44.06
275.781	43.19
275.995	44.43
276.209	44.43
276.423	44.99
276.637	42.88
276.851	42.56
277.065	41.45
277.279	41.6
277.493	40.74
277.707	41.35
277.921	40.69
278.135	39.81
278.349	38.09
278.563	38.37
278.777	38.49
278.991	39.74
279.205	38.85
279.419	40.55
279.633	38.87
279.847	40.98
280.061	39.44
280.275	40.16
280.489	41.13
280.703	42
280.917	41.17
281.131	40.39
281.344	38.46
281.558	38.12
281.772	37.62
281.986	36.57
282.2	34.98
282.414	35.58
282.627	34.67
282.841	33.84
283.055	33.95
283.269	33.63
283.482	33
283.696	32.68
283.91	32.76
284.123	31.71
284.337	33.22
284.551	33.04
284.764	32.53
284.978	32.33
285.192	31.8
285.405	30.8
285.619	30.77
285.833	31.28
286.046	31.33
286.26	31.4
286.473	31.16
286.687	31.31
286.9	30.86
287.114	30.74
287.327	31.07
287.541	31.75
287.754	32.85
287.968	33.52
288.181	32.88
288.395	34.27
288.608	33.74
288.822	34.93
289.035	33.97
289.248	34.69
289.462	34.78
289.675	33.66
289.889	34.62
290.102	33.01
290.315	32.33
290.529	32.97
290.742	33.04
290.955	33.21
291.169	33.4
291.382	33.47
291.595	34
291.808	34.88
292.022	35.71
292.235	35.95
292.448	36.64
292.661	37.02
292.875	36.71
293.088	35.56
293.301	36.35
293.514	34.71
293.727	34.41
293.94	32.59
294.153	30.57
294.367	31.08
294.58	29
294.793	28.23
295.006	27.07
295.219	25.91
295.432	25.19
295.645	24.57
295.858	24.01
296.071	23.48
296.284	23.93
296.497	23.79
296.71	22.62
296.923	22.88
297.136	23.34
297.349	24.48
297.562	25.73
297.775	26.44
297.988	26.08
298.201	26.74
298.414	27.35
298.626	27.78
298.839	29.18
299.052	29.48
299.265	29.4
299.478	29.52
299.691	30.33
299.903	29.59
300.116	30.41
300.329	31.42
300.542	32.31
300.755	32.54
300.967	31.57
301.18	32.38
301.393	34.14
301.605	34.95
301.818	35.93
302.031	34.77
302.243	35.57
302.456	35.59
302.669	35.35
302.881	35.35
303.094	34.87
303.307	34.99
303.519	33.15
303.732	32.19
303.944	31.57
304.157	31.2
304.37	29.88
304.582	29.7
304.795	29.01
305.007	29.05
305.22	28.71
305.432	29.72
305.645	30.15
305.857	32.1
306.069	33.65
306.282	34.41
306.494	33.88
306.707	36.15
306.919	33.62
307.132	34.3
307.344	33.47
307.556	33.48
307.769	33.53
307.981	34.03
308.193	30.84
308.406	28.81
308.618	27.3
308.83	27.71
309.043	27.1
309.255	27.58
309.467	26.5
309.679	26.56
309.892	26.14
310.104	25.9
310.316	25.21
310.528	28.04
310.74	28.13
310.953	28.96
311.165	28.41
311.377	27.97
311.589	29.01
311.801	28.98
312.013	30.14
312.225	30.92
312.437	31.2
312.649	32.53
312.862	32.12
313.074	33.63
313.286	35.21
313.498	34.92
313.71	35.32
313.922	35.64
314.134	35.83
314.346	35.78
314.558	34.4
314.77	34.36
314.982	32.88
315.193	32.38
315.405	31.73
315.617	30.82
315.829	32.41
316.041	32.75
316.253	33.11
316.465	33.59
316.677	34.03
316.888	36.69
317.1	36.46
317.312	38.75
317.524	38.64
317.736	39.97
317.947	41.13
318.159	40.83
318.371	40.38
318.583	39.54
318.794	40.89
319.006	39.34
319.218	38.38
319.43	37.3
319.641	35.94
319.853	35.83
320.064	35.66
320.276	36.14
320.488	35.18
320.699	35.78
320.911	36.76
321.123	36.14
321.334	36.87
321.546	35.7
321.757	37.63
321.969	36.69
322.18	37.79
322.392	37.96
322.603	35.06
322.815	35.28
323.026	35.02
323.238	35.09
323.449	34.1
323.661	35.01
323.872	35.87
324.083	35.81
324.295	35.65
324.506	34.07
324.718	31.54
324.929	32.29
325.14	32.47
325.352	32.29
325.563	32.71
325.774	34.37
325.986	34.55
326.197	35.2
326.408	33.47
326.62	32.94
326.831	33.99
327.042	35.87
327.253	35.81
327.464	36.31
327.676	37.78
327.887	38.36
328.098	37.62
328.309	37.16
328.52	36.47
328.732	37.87
328.943	40
329.154	40.14
329.365	39.32
329.576	40.34
329.787	39.81
329.998	38.29
330.209	37.31
330.42	37.05
330.631	37.31
330.842	37.04
331.053	37.03
331.264	37.29
331.475	39.27
331.686	40.2
331.897	39.76
332.108	39.31
332.319	40
332.53	39.46
332.741	39.38
332.952	38.88
333.163	38.74
333.374	39.46
333.585	39.19
333.795	38.64
334.006	39.08
334.217	39.11
334.428	39.99
334.639	40.83
334.849	41.01
335.06	41.18
335.271	41.04
335.482	40.68
335.692	40.31
335.903	40.28
336.114	38.58
336.325	37.74
336.535	37.72
336.746	38.3
336.957	36.67
337.167	37.41
337.378	37.99
337.589	37.76
337.799	38.46
338.01	38.1
338.22	37.82
338.431	39.21
338.642	39.31
338.852	40.42
339.063	39.6
339.273	40.04
339.484	39.07
339.694	38.98
339.905	39.53
340.115	40.16
340.326	40.7
340.536	39.72
340.746	38.91
340.957	39.23
341.167	37.5
341.378	37.46
341.588	37.38
341.799	37.75
342.009	37.66
342.219	36.82
342.43	35.29
342.64	34.62
342.85	34.89
343.061	35.07
343.271	35.19
343.481	35.04
343.691	34.76
343.902	34.48
344.112	34.2
344.322	33.27
344.532	32.96
344.743	32.86
344.953	33.32
345.163	33.54
345.373	33.89
345.583	33.4
345.793	34.24
346.004	34.14
346.214	34.93
346.424	35.57
346.634	36.69
346.844	37.97
347.054	38.33
347.264	37.73
347.474	36.97
347.684	36.27
347.894	36.64
348.104	36.54
348.314	36.7
348.524	35.52
348.734	35.28
348.944	35.34
349.154	34.79
349.364	35.86
349.574	35.93
349.784	36.47
349.994	36.31
350.204	36.38
350.413	36.02
350.623	36.89
350.833	36.89
351.043	36.43
351.253	35.42
351.463	35.84
351.672	34.98
351.882	35.85
352.092	35.23
352.302	35.6
352.511	36.22
352.721	36.35
352.931	35.86
353.141	36.09
353.35	36.27
353.56	35.85
353.77	35.15
353.979	35.76
354.189	34.43
354.399	35.19
354.608	35.01
354.818	33.98
355.027	33.17
355.237	32.81
355.447	32.6
355.656	32.18
355.866	31.71
356.075	31.42
356.285	30.49
356.494	30.37
356.704	30.45
356.913	30.56
357.123	29.96
357.332	29.56
357.542	28.28
357.751	28.63
357.96	29.17
358.17	29.84
358.379	29.79
358.589	29.98
358.798	29.27
359.007	29.75
359.217	27.81
359.426	27.81
359.635	28.19
359.845	28.91
360.054	28.2
360.263	27.45
360.472	26.61
360.682	27.09
360.891	26.54
361.1	27
361.309	26.7
361.519	27.54
361.728	27.5
361.937	27.4
362.146	27.03
362.355	27.24
362.564	27.27
362.774	28.52
362.983	27.98
363.192	28.62
363.401	29.14
363.61	28.31
363.819	28.76
364.028	28.74
364.237	28.52
364.446	28.82
364.655	28.63
364.864	28.82
365.073	27.87
365.282	28.53
365.491	28
365.7	27.17
365.909	26.69
366.118	26.72
366.327	26.72
366.536	27.29
366.745	27.41
366.954	27.54
367.162	27.72
367.371	27.74
367.58	27.78
367.789	28.04
367.998	29.12
368.207	30.48
368.415	30.28
368.624	30.34
368.833	30.45
369.042	30.47
369.25	31.27
369.459	30.6
369.668	30.31
369.877	29.51
370.085	28.86
370.294	28.32
370.503	28.4
370.711	28.57
370.92	28.02
371.129	27.17
371.337	26.25
371.546	25.82
371.754	26.08
371.963	26.3
372.171	25.47
372.38	25.43
372.589	26.07
372.797	25.57
373.006	25.91
373.214	26.35
373.423	27.09
373.631	27.56
373.84	27.01
374.048	27.4
374.256	27.16
374.465	28.12
374.673	28.65
374.882	27.59
375.09	27.37
375.298	26.17
375.507	26.71
375.715	26.68
375.923	26.75
376.132	26.35
376.34	25.45
376.548	25.13
376.757	25.04
376.965	24.33
377.173	24.27
377.381	24.33
377.59	24.44
377.798	23.47
378.006	23.1
378.214	23.03
378.423	23.52
378.631	23.13
378.839	23.4
379.047	23.44
379.255	23.95
379.463	24.13
379.671	23.53
379.879	23.22
380.088	23.53
380.296	23.65
380.504	24.03
380.712	24.62
380.92	25.23
381.128	25.72
381.336	25.44
381.544	25.15
381.752	25.01
381.96	25.89
382.168	26.45
382.376	26.64
382.584	27.08
382.791	27.59
382.999	26.92
383.207	26.39
383.415	26.47
383.623	26.9
383.831	26.8
384.039	26.98
384.247	26.57
384.454	26.48
384.662	26.63
384.87	25.53
385.078	24.16
385.285	23.56
385.493	23.39
385.701	22.34
385.909	21.64
386.116	21.16
386.324	21.12
386.532	21.29
386.739	21.28
386.947	20.68
387.155	21.19
387.362	21.94
387.57	22.11
387.778	22.71
387.985	22.92
388.193	23.56
388.4	23.49
388.608	23.05
388.816	23
389.023	22.98
389.231	22.77
389.438	22.67
389.646	22.43
389.853	22.47
390.061	22.02
390.268	22.4
390.475	21.8
390.683	22.18
390.89	22.52
391.098	22.28
391.305	21.89
391.512	22.05
391.72	22.01
391.927	21.92
392.135	22.17
392.342	22.13
392.549	21.53
392.756	21.78
392.964	22
393.171	22.12
393.378	22.2
393.586	22.34
393.793	22.45
394	22.43
394.207	22.49
394.414	22.19
394.622	22.5
394.829	23.03
395.036	22.89
395.243	22.5
395.45	21.74
395.657	21.38
395.864	21.31
396.072	21.4
396.279	21.33
396.486	21.31
396.693	21.22
396.9	21.32
397.107	21.45
397.314	21.18
397.521	21.23
397.728	21.69
397.935	21.64
398.142	21.72
398.349	21.62
398.556	22.06
398.763	22
398.97	22.18
399.177	21.96
399.383	21.83
399.59	22.12
399.797	21.92
400.004	22.14
400.211	22.57
400.418	22.97
400.625	23.31
400.831	22.82
401.038	22.68
401.245	22.91
401.452	22.12
401.658	21.98
401.865	21.64
402.072	22.42
402.279	22.12
402.485	21.86
402.692	21.45
402.899	20.89
403.105	21.14
403.312	21.08
403.519	20.98
403.725	21.5
403.932	21.6
404.138	21.69
404.345	21.27
404.552	21.69
404.758	21.95
404.965	22.35
405.171	22.47
405.378	22.45
405.584	22.78
405.791	22.64
405.997	22.66
406.204	23.09
406.41	23.16
406.617	23.39
406.823	22.95
407.029	23.22
407.236	23.08
407.442	23.66
407.649	23.59
407.855	23.22
408.061	23.04
408.268	23.11
408.474	22.7
408.68	22.77
408.887	22.99
409.093	23.46
409.299	22.6
409.505	22.52
409.712	21.95
409.918	21.62
410.124	21.96
410.33	22.07
410.537	22.61
410.743	22.74
410.949	22.92
411.155	22.63
411.361	21.82
411.567	22.21
411.773	21.73
411.98	21.96
412.186	22.14
412.392	22.21
412.598	22.38
412.804	22.67
413.01	22.78
413.216	22.98
413.422	23.31
413.628	23.73
413.834	23.65
414.04	24.34
414.246	24.2
414.452	24.08
414.658	23.57
414.864	23.57
415.07	23.27
415.275	22.83
415.481	22.28
415.687	21.95
415.893	22
416.099	21.72
416.305	21.38
416.511	21.28
416.716	21.57
416.922	21.87
417.128	21.86
417.334	21.3
417.539	21.36
417.745	21.29
417.951	20.83
418.157	20.82
418.362	21.08
418.568	21.03
418.774	20.77
418.979	20.57
419.185	20.4
419.391	20.23
419.596	20.33
419.802	20.28
420.008	20.57
420.213	22.41
420.419	22.03
420.624	21.78
420.83	21.7
421.035	21.84
421.241	22
421.446	21.9
421.652	21.82
421.857	21.78
422.063	21.76
422.268	21.43
422.474	19.99
422.679	20.25
422.885	20.4
423.09	20.44
423.295	20.8
423.501	20.67
423.706	20.87
423.911	21.16
424.117	21.34
424.322	21.47
424.527	21.57
424.733	21.62
424.938	21.64
425.143	21.53
425.349	21.61
425.554	21.2
425.759	21.41
425.964	21.48
426.169	21.61
426.375	21.51
426.58	21.75
426.785	22.36
426.99	22.5
427.195	22.8
427.4	23.16
427.605	23.4
427.811	23.99
428.016	24.13
428.221	23.86
428.426	23.87
428.631	24.04
428.836	23.67
429.041	23.3
429.246	23.52
429.451	23.29
429.656	23.17
429.861	23.37
430.066	23.37
430.271	23.46
430.476	23.51
430.681	23.33
430.886	23.26
431.09	23.34
431.295	23.72
431.5	23.72
431.705	23.92
431.91	24.32
432.115	24.16
432.32	23.96
432.524	23.59
432.729	23.92
432.934	24.01
433.139	24.15
433.343	24.24
433.548	23.83
433.753	23.65
433.958	23.67
434.162	23.76
434.367	23.77
434.572	23.96
434.776	24.41
434.981	24.51
435.186	24.75
435.39	25.02
435.595	25.38
435.799	25.71
436.004	25.84
436.209	26.22
436.413	25.93
436.618	26.1
436.822	26.22
437.027	26.05
437.231	25.9
437.436	25.67
437.64	25.38
437.845	25.27
438.049	25.25
438.253	25.18
438.458	25.02
438.662	25.07
438.867	25.42
439.071	25.26
439.275	25.25
439.48	25.17
439.684	25.48
439.888	25.51
440.093	25.55
440.297	25.6
440.501	25.85
440.706	26.08
440.91	26.42
441.114	26.36
441.318	26.66
441.523	26.98
441.727	27.42
441.931	27.31
442.135	27.65
442.339	27.78
442.543	28.16
442.748	28.07
442.952	28.12
443.156	27.9
443.36	27.81
443.564	27.68
443.768	27.4
443.972	27.24
444.176	27.27
444.38	27.25
444.584	27.37
444.788	27.2
444.992	27.31
445.196	27.3
445.4	27.46
445.604	27.41
445.808	27.8
446.012	28.1
446.216	28.09
446.42	28.31
446.624	28.42
446.828	28.46
447.032	28.54
447.235	28.7
447.439	28.64
447.643	28.84
447.847	29.51
448.051	29.52
448.254	29.79
448.458	30.12
448.662	30.4
448.866	30.66
449.069	30.94
449.273	31.15
449.477	31.2
449.681	31.83
449.884	32.06
450.088	32.02
450.292	32.14
450.495	32.21
450.699	32.39
450.902	32.59
451.106	32.65
451.31	32.83
451.513	33.17
451.717	33.35
451.92	33.22
452.124	33.15
452.327	33.16
452.531	33.24
452.734	33.19
452.938	33.4
453.141	33.23
