Data from JASIL_3171_Reflection_1.txt Node
Date: Thu Nov 12 22:58:29 EST 2015
User: Geneva
Spectrometer: USB4E03002
Autoset integration time: false
Trigger mode: 4
Integration Time (sec): 1.000000E-1
Scans to average: 10
Electric dark correction enabled: true
Nonlinearity correction enabled: false
Boxcar width: 5
Stray light correction enabled: false
XAxis mode: Wavelengths
Stop averaging: false
Number of Pixels in Spectrum: 3648
>>>>>Begin Spectral Data<<<<<
177.575	-169.97
177.794	-36.96
178.014	-0.38
178.233	-218.76
178.452	32.56
178.672	160.06
178.891	95.19
179.11	64.06
179.33	547
179.549	217.86
179.768	-1648.92
179.987	-610.85
180.207	-466.02
180.426	-1168.63
180.645	1129.1
180.864	916.62
181.084	631.19
181.303	3163.95
181.522	746.11
181.741	347.78
181.96	655.51
182.179	539.83
182.398	1484.19
182.618	1181.06
182.837	-353.81
183.056	-251.61
183.275	-55.75
183.494	-60.9
183.713	-83.37
183.932	-39.78
184.151	-16.88
184.37	-4.3
184.589	-68.52
184.808	-89.18
185.027	-63.46
185.246	-78.31
185.465	-96.77
185.684	-115.42
185.903	-97.85
186.122	-97.28
186.341	-137.39
186.56	-151.07
186.779	-1212
186.998	-436.16
187.216	-185.87
187.435	-431.68
187.654	-1301.51
187.873	-1023.69
188.092	760.33
188.311	1524.64
188.53	5082.28
188.748	-7570.43
188.967	-369.05
189.186	-132.52
189.405	-343.15
189.623	-240.83
189.842	-216.27
190.061	-188.2
190.28	-183.8
190.498	-127.05
190.717	-161.32
190.936	-283.69
191.154	-162.7
191.373	-586.75
191.592	-328.65
191.81	-238.98
192.029	-1559.37
192.248	-454.3
192.466	-393.78
192.685	-493.84
192.904	-531.4
193.122	-533.75
193.341	-307.19
193.559	-665.82
193.778	-239.14
193.996	-413.25
194.215	-170.25
194.433	-206.27
194.652	-520.52
194.87	-419.52
195.089	-627.9
195.307	-846.66
195.526	-1793.55
195.744	10544.7
195.963	1223.34
196.181	456.87
196.399	335.58
196.618	259.01
196.836	266.27
197.055	434.07
197.273	423.5
197.491	446.3
197.71	383.71
197.928	347.46
198.146	521.66
198.365	1467.43
198.583	1812.56
198.801	2237.74
199.019	-863.98
199.238	-249.35
199.456	-757.67
199.674	-323.51
199.892	-662.58
200.111	-397.08
200.329	-337.33
200.547	-228.28
200.765	-426.38
200.983	-227.79
201.202	-104.31
201.42	-162.87
201.638	-62.42
201.856	-115.5
202.074	-213.23
202.292	-66.39
202.51	-102.79
202.728	-174.43
202.946	-188.78
203.165	-182.2
203.383	-272.49
203.601	-214.33
203.819	-188.93
204.037	-251.15
204.255	-171.74
204.473	-186.03
204.691	-221.3
204.909	-164.39
205.127	-104.66
205.345	-129.45
205.562	-144.61
205.78	-100.24
205.998	-120.19
206.216	-148.51
206.434	-244.51
206.652	-301.07
206.87	-223.77
207.088	-7258.59
207.306	-741.43
207.523	784.85
207.741	561.25
207.959	-1653.64
208.177	-392.5
208.395	-489.71
208.612	-261.88
208.83	-127.04
209.048	-218.76
209.266	-211.39
209.483	-91.93
209.701	-145.28
209.919	-126.56
210.136	-87.42
210.354	-74.04
210.572	-90.71
210.79	-68.29
211.007	-49.22
211.225	-47.75
211.442	-26.52
211.66	-45.45
211.878	-45.35
212.095	64.92
212.313	42.81
212.53	69.19
212.748	73.18
212.966	89.14
213.183	98.87
213.401	86.41
213.618	119.53
213.836	121.7
214.053	116.71
214.271	118.06
214.488	-9274.68
214.705	-1909.54
214.923	-1501.54
215.14	-690.86
215.358	-559.81
215.575	-242.08
215.793	-372.6
216.01	833.47
216.227	-50663.64
216.445	-191.72
216.662	-230.68
216.879	-252.37
217.097	-121.18
217.314	-111.29
217.531	-185.43
217.749	-132.14
217.966	-113.36
218.183	-154.25
218.4	-140.24
218.618	-104.07
218.835	-131.45
219.052	-104.12
219.269	-77.77
219.487	-77.08
219.704	-84.29
219.921	-98.3
220.138	-148.89
220.355	-277.67
220.572	-109.17
220.79	-68.23
221.007	-86.58
221.224	-132.21
221.441	-139.92
221.658	-133.58
221.875	-100.94
222.092	-120.58
222.309	-76.71
222.526	-71.93
222.743	-62.29
222.96	-64.29
223.177	-134.9
223.394	-199.38
223.611	-86.53
223.828	-77.49
224.045	-65.49
224.262	-98.95
224.479	-98.33
224.696	-75.58
224.913	-93.96
225.13	-140.13
225.347	-106.67
225.564	-60.11
225.781	-33.9
225.997	-31.74
226.214	-36.56
226.431	-43.07
226.648	-52.82
226.865	-45.03
227.082	-63.56
227.298	-38.89
227.515	-27.33
227.732	-37.78
227.949	-45.05
228.165	-47.72
228.382	-41.65
228.599	-43.49
228.816	-49.45
229.032	-41.56
229.249	-37.19
229.466	-24.14
229.682	-38.66
229.899	-41.48
230.116	-28.12
230.332	-42.62
230.549	-27.41
230.765	-26.92
230.982	-30.26
231.199	-13.99
231.415	-17.23
231.632	-13.39
231.848	-31.48
232.065	-25.55
232.281	-12.39
232.498	-37.12
232.714	-23.38
232.931	-36.92
233.147	-53.84
233.364	-52.59
233.58	-67.71
233.797	-73.06
234.013	-63.64
234.23	-50.32
234.446	-68.09
234.662	-91.6
234.879	-71.9
235.095	-62.79
235.312	-78.65
235.528	-48.92
235.744	-47.71
235.961	-59.93
236.177	-62.66
236.393	-72.22
236.61	-74.07
236.826	-59.62
237.042	-49.94
237.258	-59.04
237.475	-70.46
237.691	-61.85
237.907	-60.11
238.123	-66.28
238.339	-44.53
238.556	-43.77
238.772	-61.92
238.988	-42.94
239.204	-31.6
239.42	-30.73
239.636	-16.44
239.853	-14.38
240.069	-18.15
240.285	-22.99
240.501	-23.11
240.717	-17.23
240.933	-11.48
241.149	-6.01
241.365	-14.16
241.581	-18
241.797	-18.04
242.013	-20.47
242.229	-21.24
242.445	-13.86
242.661	-13.86
242.877	-13.13
243.093	-17.04
243.309	-24.76
243.525	-19.01
243.741	-11.54
243.957	-10.79
244.173	-13.81
244.388	-17.4
244.604	-12.58
244.82	-16.25
245.036	-16.7
245.252	-6.06
245.468	-2.47
245.683	-1.84
245.899	-3.56
246.115	-0.64
246.331	1.92
246.547	0.03
246.762	-1.18
246.978	-1.74
247.194	-4.85
247.409	-2.33
247.625	-4.73
247.841	-9.18
248.057	-8.96
248.272	-9.16
248.488	-10.48
248.703	-11.66
248.919	-9.25
249.135	-7.29
249.35	-9.35
249.566	-1.85
249.782	-5.12
249.997	-10.26
250.213	-6.5
250.428	-12.74
250.644	-20.82
250.859	-20.34
251.075	-26.57
251.29	-19.02
251.506	-18.45
251.721	-18.84
251.937	-23.97
252.152	-27.97
252.368	-29.16
252.583	-33.68
252.798	-27.82
253.014	-25.3
253.229	-32.09
253.445	-26.46
253.66	-31.17
253.875	-32.14
254.091	-35.44
254.306	-29.31
254.521	-30.81
254.737	-25.94
254.952	-25.95
255.167	-23.82
255.383	-17.15
255.598	-21.35
255.813	-21.32
256.028	-22.16
256.244	-25.2
256.459	-20.43
256.674	-23.53
256.889	-19.68
257.104	-11.33
257.32	-6.93
257.535	-8.61
257.75	-15.06
257.965	-11.36
258.18	-12.01
258.395	-14.78
258.61	-9.77
258.826	-6.68
259.041	-4.98
259.256	-6.77
259.471	-10.2
259.686	-12.76
259.901	-10.94
260.116	-8.65
260.331	-6.8
260.546	-6.62
260.761	-3.25
260.976	-4.5
261.191	-6
261.406	-4.94
261.621	-6.61
261.836	-7.62
262.05	-4.89
262.265	-12.7
262.48	-9.74
262.695	-9.9
262.91	-7.71
263.125	-7.06
263.34	-7.4
263.555	-11.41
263.769	-17.88
263.984	-11.64
264.199	-12.28
264.414	-18.12
264.629	-13.47
264.843	-12.7
265.058	-19.92
265.273	-19.73
265.488	-27.94
265.702	-22.14
265.917	-21.56
266.132	-20.69
266.346	-22.23
266.561	-21.53
266.776	-19.89
266.99	-19.81
267.205	-19.49
267.42	-17.76
267.634	-18.47
267.849	-11.47
268.063	-14.54
268.278	-14.27
268.492	-13.72
268.707	-9.73
268.922	-10.94
269.136	-6.35
269.351	0.13
269.565	-3.12
269.78	-1.86
269.994	-3.78
270.209	-1.51
270.423	-1.18
270.637	-1.82
270.852	-0.24
271.066	-3.53
271.281	-4.23
271.495	-6.48
271.709	-11.23
271.924	-11.3
272.138	-12.33
272.353	-15.07
272.567	-19.25
272.781	-20.37
272.996	-19.79
273.21	-20.59
273.424	-17.33
273.638	-13.07
273.853	-14.63
274.067	-13.3
274.281	-14.31
274.495	-12.67
274.71	-5.31
274.924	-7.92
275.138	-7.86
275.352	-12.82
275.566	-14.61
275.781	-19.32
275.995	-18.2
276.209	-21.53
276.423	-25.72
276.637	-24.96
276.851	-25.71
277.065	-32.57
277.279	-33.54
277.493	-32.53
277.707	-29.45
277.921	-27.9
278.135	-26.41
278.349	-21.33
278.563	-18.3
278.777	-14.47
278.991	-14.07
279.205	-13.53
279.419	-12.16
279.633	-10.07
279.847	-10.57
280.061	-8.19
280.275	-8.71
280.489	-9.73
280.703	-19.32
280.917	-10.45
281.131	-12.68
281.344	-13.81
281.558	-13.92
281.772	-11.74
281.986	-11.85
282.2	-11.21
282.414	-9.44
282.627	-6.32
282.841	-5.26
283.055	0.42
283.269	-5.55
283.482	-3.78
283.696	-5.48
283.91	-5.21
284.123	-10.27
284.337	-9.15
284.551	-9.25
284.764	-8.24
284.978	-7.3
285.192	-5.51
285.405	-7.74
285.619	-6.54
285.833	-4.77
286.046	-0.12
286.26	0.9
286.473	3.88
286.687	3.27
286.9	5.6
287.114	5.72
287.327	0.63
287.541	-0.04
287.754	1.51
287.968	-2.02
288.181	-4.8
288.395	-8.08
288.608	-7.28
288.822	-9.33
289.035	-11.36
289.248	-13.24
289.462	-14.81
289.675	-9.82
289.889	-9.51
290.102	-9.67
290.315	-7.54
290.529	-6.77
290.742	-5.3
290.955	-6.9
291.169	-3.82
291.382	-3.34
291.595	-3.36
291.808	-2.4
292.022	-4.11
292.235	-3.47
292.448	-4.21
292.661	-4.09
292.875	-6.17
293.088	-5.85
293.301	-8.5
293.514	-8.53
293.727	-7.69
293.94	-8.16
294.153	-7.9
294.367	-8.84
294.58	-7.28
294.793	-7.04
295.006	-9.03
295.219	-7.39
295.432	-8.27
295.645	-5.73
295.858	-5.29
296.071	-4.84
296.284	-2.73
296.497	-2.56
296.71	-3.22
296.923	-3.55
297.136	-3.6
297.349	-3.91
297.562	-2.81
297.775	-2.6
297.988	-3.58
298.201	-5.74
298.414	-4.83
298.626	-6.46
298.839	-8.56
299.052	-4.9
299.265	-7.67
299.478	-6.61
299.691	-5.96
299.903	-8.3
300.116	-10.04
300.329	-8.01
300.542	-7.04
300.755	-6.7
300.967	-9.03
301.18	-9.28
301.393	-11.83
301.605	-10.01
301.818	-13.12
302.031	-14.8
302.243	-14.08
302.456	-11.28
302.669	-12.41
302.881	-17.59
303.094	-21.92
303.307	-19.23
303.519	-17.2
303.732	-17.03
303.944	-16.45
304.157	-17.21
304.37	-14.36
304.582	-13.55
304.795	-15.21
305.007	-17.02
305.22	-11.18
305.432	-8.95
305.645	-10.52
305.857	-9.7
306.069	-8.75
306.282	-12.08
306.494	-9.48
306.707	-7.32
306.919	-8.98
307.132	-8.73
307.344	-8.09
307.556	-8.51
307.769	-8.34
307.981	-7.69
308.193	-11.1
308.406	-11.98
308.618	-10.76
308.83	-8.88
309.043	-11.06
309.255	-9.35
309.467	-11.52
309.679	-9.94
309.892	-8.61
310.104	-8.58
310.316	-7.87
310.528	-5.73
310.74	-4.76
310.953	-3.98
311.165	-5.39
311.377	-3.36
311.589	-2.1
311.801	-1.59
312.013	-3.77
312.225	-6.77
312.437	-8.69
312.649	-11.1
312.862	-9.27
313.074	-10.52
313.286	-9.11
313.498	-6.54
313.71	-14.06
313.922	-16.44
314.134	-15.57
314.346	-15.75
314.558	-13.73
314.77	-9.91
314.982	-7.89
315.193	-13.91
315.405	-15.03
315.617	-14.3
315.829	-18.59
316.041	-12.28
316.253	-11.84
316.465	-10.82
316.677	-7.19
316.888	-6.99
317.1	-6.94
317.312	-6.95
317.524	-3.96
317.736	-6.75
317.947	-10.18
318.159	-8.82
318.371	-3.6
318.583	-2.42
318.794	-3.49
319.006	-4.29
319.218	-2.9
319.43	-4.52
319.641	-4.5
319.853	-3.74
320.064	2.97
320.276	4.73
320.488	5.09
320.699	0.61
320.911	0.37
321.123	0.22
321.334	-5.64
321.546	-6.24
321.757	-6.64
321.969	-7.69
322.18	-9.71
322.392	-14.03
322.603	-14.11
322.815	-13.1
323.026	-14.31
323.238	-14.74
323.449	-11.35
323.661	-8.86
323.872	-8.96
324.083	-8.79
324.295	-5.39
324.506	-2.71
324.718	-1.85
324.929	-2.15
325.14	-1.62
325.352	-1.48
325.563	1
325.774	0.85
325.986	2.54
326.197	1.54
326.408	4.44
326.62	1.67
326.831	0.22
327.042	-1.06
327.253	-0.79
327.464	-0.49
327.676	0.37
327.887	-2.49
328.098	-3.34
328.309	-1.38
328.52	-1.85
328.732	-4.3
328.943	-4.48
329.154	-2.17
329.365	-1.52
329.576	1.05
329.787	0.9
329.998	1.38
330.209	3.36
330.42	3.53
330.631	1.77
330.842	4.93
331.053	6.95
331.264	9.67
331.475	8.18
331.686	9.53
331.897	10.72
332.108	7.49
332.319	11.18
332.53	10.04
332.741	11.22
332.952	10.27
333.163	6.63
333.374	5.94
333.585	4.53
333.795	4.67
334.006	5.13
334.217	3.48
334.428	6.15
334.639	2.32
334.849	2.5
335.06	3.8
335.271	3.64
335.482	5.42
335.692	5.48
335.903	2.97
336.114	3.72
336.325	3.74
336.535	2.69
336.746	1.2
336.957	0.44
337.167	-0.02
337.378	-4.78
337.589	-4.2
337.799	-1.92
338.01	-2.97
338.22	0.59
338.431	2.47
338.642	1.03
338.852	1.99
339.063	3.22
339.273	5.43
339.484	7.27
339.694	8.65
339.905	9.13
340.115	7.21
340.326	6.98
340.536	7.33
340.746	5
340.957	6.07
341.167	7.2
341.378	5.66
341.588	4.82
341.799	3.3
342.009	4.66
342.219	5.79
342.43	6.19
342.64	7.72
342.85	6.55
343.061	6.54
343.271	7.25
343.481	6.25
343.691	7.24
343.902	6.27
344.112	6.85
344.322	8.55
344.532	5.6
344.743	5.84
344.953	4.33
345.163	6.42
345.373	6.83
345.583	5.81
345.793	4.89
346.004	4.78
346.214	6.23
346.424	7.04
346.634	5.02
346.844	6.08
347.054	7.97
347.264	7.88
347.474	6.57
347.684	6.11
347.894	5.95
348.104	6.7
348.314	6.64
348.524	6.23
348.734	6.89
348.944	7.56
349.154	10.97
349.364	9.01
349.574	10.47
349.784	11.07
349.994	12.32
350.204	13.12
350.413	12.11
350.623	10.77
350.833	10.63
351.043	10.87
351.253	10.48
351.463	7.47
351.672	4.72
351.882	3.43
352.092	2.08
352.302	0.45
352.511	-0.98
352.721	-2
352.931	-0.64
353.141	0.3
353.35	-0.17
353.56	-1.18
353.77	-1.07
353.979	1.61
354.189	1.77
354.399	1.3
354.608	-0.03
354.818	1.82
355.027	3.81
355.237	4.44
355.447	3.55
355.656	3.22
355.866	3.61
356.075	5.85
356.285	6.89
356.494	7.8
356.704	9.5
356.913	12.06
357.123	11.43
357.332	11.49
357.542	10.62
357.751	11.71
357.96	11.11
358.17	12.33
358.379	10.88
358.589	9.4
358.798	8.8
359.007	7.85
359.217	7.51
359.426	7.46
359.635	7.23
359.845	8.76
360.054	8.15
360.263	9.37
360.472	9.35
360.682	9.1
360.891	9.48
361.1	9.99
361.309	11.62
361.519	11.42
361.728	10.8
361.937	10.86
362.146	9.96
362.355	9.74
362.564	9.14
362.774	9
362.983	9.06
363.192	7.93
363.401	6.96
363.61	5.76
363.819	4.49
364.028	5.79
364.237	6.36
364.446	6.66
364.655	6.77
364.864	6.33
365.073	6.54
365.282	5.86
365.491	8.17
365.7	9.11
365.909	9.04
366.118	11.38
366.327	11.15
366.536	10.78
366.745	11.43
366.954	10.79
367.162	9.65
367.371	8.51
367.58	8.66
367.789	7.59
367.998	7.19
368.207	7.41
368.415	5.06
368.624	5.33
368.833	4.85
369.042	3.19
369.25	4.16
369.459	4.93
369.668	5.35
369.877	5.98
370.085	7.17
370.294	6.48
370.503	5.08
370.711	6.04
370.92	6.96
371.129	6.97
371.337	7.59
371.546	7.01
371.754	8.3
371.963	8.02
372.171	9.16
372.38	8.74
372.589	9.57
372.797	9.31
373.006	8.9
373.214	7.06
373.423	6.89
373.631	8.09
373.84	9.25
374.048	8.29
374.256	8.97
374.465	7.15
374.673	6.47
374.882	6.01
375.09	6.71
375.298	7.59
375.507	9.26
375.715	10.13
375.923	10.63
376.132	9.94
376.34	11.66
376.548	10.76
376.757	10.59
376.965	11.65
377.173	12.05
377.381	12.4
377.59	12.23
377.798	10.72
378.006	10.03
378.214	8.37
378.423	9.29
378.631	8.88
378.839	8.57
379.047	10.08
379.255	8.44
379.463	9.57
379.671	8.72
379.879	8.03
380.088	8.89
380.296	9.01
380.504	8.97
380.712	9.38
380.92	8.74
381.128	9.54
381.336	8.96
381.544	9.38
381.752	7.73
381.96	8.75
382.168	9.19
382.376	8.62
382.584	7.36
382.791	6.69
382.999	4.21
383.207	2.75
383.415	2.85
383.623	2.76
383.831	1.95
384.039	2.11
384.247	2.21
384.454	2.66
384.662	2.18
384.87	4.82
385.078	4.66
385.285	5.73
385.493	6.27
385.701	6.75
385.909	6.74
386.116	6.94
386.324	7.14
386.532	7.01
386.739	6.48
386.947	6.46
387.155	3.62
387.362	4.18
387.57	3.52
387.778	3.47
387.985	2.83
388.193	1.84
388.4	2.36
388.608	2.76
388.816	2.19
389.023	3.26
389.231	4.03
389.438	5.37
389.646	5.81
389.853	5.91
390.061	6.36
390.268	5.13
390.475	6.34
390.683	6.3
390.89	5.91
391.098	6.55
391.305	5.31
391.512	4.84
391.72	4.19
391.927	4.72
392.135	5.63
392.342	5.31
392.549	6.92
392.756	6.85
392.964	7.36
393.171	6.85
393.378	5.54
393.586	5.61
393.793	6.28
394	7.55
394.207	7.19
394.414	6.43
394.622	6.07
394.829	5.07
395.036	5.16
395.243	4.1
395.45	4.81
395.657	5.89
395.864	5.85
396.072	5.79
396.279	5.18
396.486	4.7
396.693	4.48
396.9	5.37
397.107	5.25
397.314	5.73
397.521	6.4
397.728	5.59
397.935	4.31
398.142	3.44
398.349	3.43
398.556	4.32
398.763	4.91
398.97	5.19
399.177	5.26
399.383	6.56
399.59	6.46
399.797	6.08
400.004	6.95
400.211	8.12
400.418	9.61
400.625	9.14
400.831	8.69
401.038	8.55
401.245	7.47
401.452	7.41
401.658	6.88
401.865	5.48
402.072	5.34
402.279	4.97
402.485	3.81
402.692	2.97
402.899	1.7
403.105	1.82
403.312	2.4
403.519	3.39
403.725	2.65
403.932	2
404.138	1.59
404.345	2.24
404.552	2.18
404.758	2.39
404.965	2.76
405.171	4.32
405.378	4.1
405.584	4.12
405.791	4.43
405.997	4.74
406.204	5.29
406.41	5.7
406.617	5.05
406.823	5.49
407.029	6.35
407.236	4.99
407.442	4.47
407.649	3.17
407.855	3.18
408.061	2.88
408.268	3.42
408.474	4.27
408.68	4.14
408.887	4.78
409.093	4.78
409.299	3.4
409.505	5.41
409.712	5.42
409.918	6.38
410.124	5.66
410.33	5.66
410.537	5.38
410.743	5.12
410.949	5.59
411.155	5.79
411.361	5.3
411.567	6.42
411.773	6.31
411.98	6.57
412.186	6.21
412.392	6.87
412.598	7.21
412.804	7.76
413.01	7.28
413.216	7.14
413.422	6.53
413.628	5.96
413.834	5.42
414.04	4.82
414.246	5.32
414.452	5.6
414.658	4.95
414.864	4.34
415.07	4.42
415.275	4.28
415.481	4.82
415.687	4.81
415.893	5.27
416.099	6.07
416.305	6.13
416.511	6.38
416.716	6.73
416.922	6.48
417.128	6.55
417.334	6.72
417.539	6.78
417.745	6.42
417.951	7.22
418.157	7.23
418.362	6.95
418.568	6.81
418.774	6.41
418.979	6.04
419.185	6.25
419.391	6.31
419.596	5.57
419.802	6.1
420.008	6.17
420.213	5.7
420.419	5.77
420.624	6.07
420.83	6.44
421.035	6.3
421.241	6.73
421.446	6.5
421.652	7.13
421.857	7.56
422.063	7.11
422.268	7.28
422.474	7.09
422.679	7.86
422.885	7.72
423.09	7.39
423.295	7.81
423.501	7.44
423.706	7.73
423.911	7.26
424.117	6.91
424.322	6.4
424.527	6.5
424.733	6.44
424.938	5.73
425.143	5.13
425.349	5.43
425.554	5.18
425.759	5.53
425.964	5.32
426.169	5.46
426.375	6.03
426.58	6.85
426.785	6.2
426.99	6.18
427.195	5.59
427.4	5.94
427.605	5.16
427.811	4.78
428.016	4.25
428.221	4.15
428.426	4.08
428.631	3.68
428.836	3.41
429.041	4.25
429.246	3.93
429.451	4.33
429.656	5.18
429.861	5.66
430.066	6.36
430.271	6.84
430.476	7.15
430.681	7
430.886	6.98
431.09	7
431.295	7.12
431.5	7.49
431.705	8.06
431.91	7.64
432.115	7.83
432.32	7.11
432.524	6.74
432.729	6.46
432.934	6.07
433.139	6.55
433.343	6.81
433.548	6.05
433.753	5.97
433.958	5.48
434.162	5.26
434.367	5.32
434.572	4.98
434.776	5.17
434.981	4.99
435.186	6.2
435.39	5.6
435.595	4.9
435.799	5.92
436.004	5.87
436.209	6.66
436.413	6.8
436.618	6.29
436.822	6.64
437.027	6.09
437.231	6.84
437.436	6.16
437.64	6.14
437.845	6.48
438.049	5.92
438.253	6.39
438.458	5.65
438.662	5.62
438.867	6.09
439.071	6.11
439.275	6.3
439.48	5.66
439.684	5.42
439.888	5.62
440.093	5.41
440.297	5.28
440.501	5.28
440.706	5.05
440.91	4.83
441.114	4.71
441.318	4.69
441.523	4.68
441.727	5.09
441.931	5.41
442.135	5.67
442.339	5.64
442.543	6.2
442.748	5.91
442.952	6.57
443.156	6.91
443.36	6.73
443.564	6.92
443.768	6.75
443.972	5.91
444.176	5.86
444.38	5.51
444.584	5.97
444.788	5.77
444.992	5.45
445.196	5.46
445.4	5.21
445.604	5.02
445.808	4.65
446.012	4.88
446.216	5.42
446.42	5.29
446.624	5.04
446.828	4.68
447.032	4.72
447.235	5.25
447.439	4.99
447.643	4.72
447.847	4.4
448.051	4.45
448.254	4.72
448.458	4.78
448.662	4.84
448.866	5.38
449.069	5.34
449.273	5.42
449.477	5.2
449.681	5.08
449.884	5.17
450.088	5.15
450.292	5.59
450.495	4.98
450.699	4.66
450.902	4.61
451.106	4.59
451.31	5.66
451.513	5.16
451.717	5.33
451.92	5.42
452.124	5.62
452.327	6.27
452.531	6.06
452.734	6.62
452.938	7.02
453.141	7.02
453.345	7
453.548	6.54
453.752	6.48
453.955	5.99
454.158	6.28
454.362	6.04
454.565	6.21
454.769	6.37
454.972	5.7
455.175	5.35
455.379	5.45
455.582	5.11
455.785	4.73
455.988	4.66
456.192	4.66
456.395	4.76
