Data from JASIL_2910_Reflection_1.txt Node
Date: Sat Nov 07 20:26:46 EST 2015
User: Geneva
Spectrometer: USB4E03002
Autoset integration time: false
Trigger mode: 4
Integration Time (sec): 1.000000E-1
Scans to average: 10
Electric dark correction enabled: true
Nonlinearity correction enabled: false
Boxcar width: 5
Stray light correction enabled: false
XAxis mode: Wavelengths
Stop averaging: false
Number of Pixels in Spectrum: 3648
>>>>>Begin Spectral Data<<<<<
177.575	147.12
177.794	176.19
178.014	137.35
178.233	121.47
178.452	100.1
178.672	124.58
178.891	-1258.14
179.11	224.19
179.33	173.57
179.549	167.72
179.768	159.14
179.987	131.81
180.207	139
180.426	126.51
180.645	125.27
180.864	124.93
181.084	127.03
181.303	122.18
181.522	112.04
181.741	126.01
181.96	112.9
182.179	124.34
182.398	152.65
182.618	139.18
182.837	139.56
183.056	125.98
183.275	126.16
183.494	108
183.713	98.77
183.932	118.41
184.151	96.15
184.37	96.05
184.589	79.91
184.808	66.65
185.027	78.22
185.246	76.97
185.465	79.24
185.684	70.34
185.903	82.92
186.122	90.33
186.341	80.18
186.56	85.75
186.779	91.74
186.998	105.79
187.216	111.26
187.435	99.07
187.654	94.82
187.873	96.1
188.092	109.28
188.311	94.65
188.53	95.99
188.748	96.94
188.967	99.23
189.186	98.1
189.405	101.47
189.623	106.89
189.842	106.76
190.061	108.88
190.28	104.74
190.498	91.01
190.717	93.64
190.936	92.39
191.154	85.96
191.373	86.16
191.592	84.42
191.81	71.04
192.029	69.09
192.248	61.64
192.466	66.17
192.685	68.3
192.904	79.39
193.122	85.53
193.341	86.03
193.559	84.72
193.778	86.77
193.996	77.73
194.215	89.61
194.433	93.92
194.652	98.53
194.87	97.27
195.089	99.77
195.307	95.54
195.526	91.01
195.744	91.99
195.963	103.11
196.181	88.99
196.399	98.37
196.618	92.88
196.836	91.71
197.055	88.34
197.273	87.83
197.491	81.64
197.71	83.53
197.928	81.07
198.146	77.66
198.365	64.97
198.583	68.04
198.801	62.18
199.019	54.6
199.238	54.8
199.456	45.91
199.674	52.18
199.892	56.84
200.111	65.07
200.329	61.72
200.547	54.2
200.765	60.18
200.983	60.35
201.202	62.69
201.42	80.38
201.638	72.79
201.856	77.59
202.074	73.07
202.292	72.14
202.51	66.5
202.728	76.55
202.946	80.44
203.165	82.17
203.383	80.29
203.601	78.24
203.819	69.04
204.037	72.35
204.255	73.07
204.473	72.51
204.691	74.08
204.909	74.78
205.127	74.97
205.345	74.92
205.562	80.53
205.78	85.38
205.998	85.16
206.216	92.66
206.434	86.54
206.652	84.98
206.87	95.48
207.088	92.88
207.306	91.6
207.523	85.52
207.741	85.75
207.959	82.59
208.177	78.28
208.395	75.7
208.612	67.06
208.83	69.96
209.048	72.17
209.266	62.9
209.483	60.06
209.701	60.23
209.919	66.19
210.136	69.38
210.354	72.58
210.572	79.07
210.79	81.77
211.007	83.57
211.225	77.12
211.442	77.56
211.66	80.11
211.878	81.19
212.095	135.88
212.313	132.37
212.53	129.58
212.748	124.9
212.966	122.12
213.183	113.94
213.401	120.32
213.618	124.62
213.836	126.3
214.053	124.15
214.271	120.44
214.488	73.98
214.705	66.94
214.923	67.41
215.14	64.55
215.358	61.84
215.575	60.32
215.793	54.66
216.01	63.34
216.227	54.74
216.445	59.6
216.662	54.35
216.879	54.16
217.097	56.61
217.314	55.86
217.531	55.76
217.749	60.8
217.966	68.18
218.183	68.71
218.4	55.82
218.618	62.33
218.835	54.74
219.052	55.93
219.269	54.21
219.487	51.37
219.704	48.2
219.921	45.96
220.138	45.71
220.355	37.92
220.572	35.61
220.79	41.29
221.007	42.68
221.224	43.66
221.441	47.7
221.658	47.4
221.875	45.06
222.092	44.87
222.309	44.57
222.526	40.53
222.743	45.93
222.96	48.55
223.177	45.73
223.394	40.77
223.611	41.36
223.828	37.18
224.045	36.51
224.262	36.09
224.479	35.74
224.696	37.13
224.913	34.48
225.13	30.46
225.347	28.58
225.564	27.42
225.781	26.02
225.997	24.93
226.214	23.04
226.431	19.97
226.648	18.89
226.865	18.3
227.082	17.54
227.298	16.99
227.515	17.01
227.732	17.02
227.949	16.97
228.165	16.68
228.382	16.01
228.599	16.17
228.816	16.9
229.032	17.36
229.249	17.29
229.466	17.16
229.682	17.65
229.899	17.58
230.116	17.11
230.332	16.38
230.549	17.6
230.765	18.77
230.982	18.51
231.199	18.33
231.415	18.4
231.632	18.46
231.848	19.14
232.065	19.15
232.281	19.58
232.498	20.72
232.714	21.67
232.931	21.53
233.147	21.48
233.364	21.25
233.58	21.05
233.797	20.76
234.013	21.79
234.23	21.05
234.446	20.71
234.662	20.79
234.879	20.2
235.095	19.42
235.312	18.58
235.528	17.95
235.744	18.24
235.961	18.81
236.177	18.14
236.393	17.29
236.61	17.27
236.826	17.8
237.042	18.28
237.258	18.81
237.475	19.41
237.691	19.41
237.907	18.46
238.123	18.55
238.339	17.2
238.556	17.56
238.772	17.45
238.988	16.59
239.204	16.31
239.42	16.11
239.636	15.77
239.853	15.29
240.069	15.14
240.285	15.39
240.501	14.98
240.717	15.17
240.933	14.89
241.149	14.61
241.365	14.57
241.581	14.36
241.797	14.16
242.013	13.66
242.229	13.69
242.445	13.51
242.661	13.46
242.877	14.08
243.093	14.12
243.309	14.06
243.525	14.37
243.741	14.72
243.957	14.81
244.173	14.16
244.388	14.08
244.604	13.46
244.82	12.85
245.036	12.16
245.252	11.79
245.468	11.43
245.683	11.61
245.899	11.03
246.115	11.06
246.331	10.84
246.547	10.82
246.762	10.88
246.978	11.13
247.194	11.13
247.409	11.3
247.625	11.25
247.841	11.36
248.057	11.3
248.272	11.24
248.488	11.09
248.703	11.02
248.919	11.4
249.135	11.24
249.35	10.92
249.566	11.12
249.782	11.04
249.997	10.88
250.213	10.93
250.428	10.28
250.644	11.34
250.859	11.36
251.075	11.61
251.29	10.84
251.506	10.9
251.721	10.72
251.937	10.93
252.152	10.97
252.368	10.89
252.583	11.3
252.798	11.71
253.014	10.95
253.229	10.54
253.445	10.16
253.66	10.75
253.875	11.04
254.091	11.21
254.306	11
254.521	10.77
254.737	10.93
254.952	10.24
255.167	9.81
255.383	9.96
255.598	10.13
255.813	9.56
256.028	9.48
256.244	9.07
256.459	9.17
256.674	8.57
256.889	8.08
257.104	7.81
257.32	8.05
257.535	8.42
257.75	8.21
257.965	8.4
258.18	8.76
258.395	8.48
258.61	8.45
258.826	8.28
259.041	8.49
259.256	8.67
259.471	8.73
259.686	8.64
259.901	8.61
260.116	8.77
260.331	8.47
260.546	8.41
260.761	8.61
260.976	8.74
261.191	8.88
261.406	8.89
261.621	8.81
261.836	8.85
262.05	8.8
262.265	8.34
262.48	8.04
262.695	8.49
262.91	8.51
263.125	8.82
263.34	9.09
263.555	9.29
263.769	9.46
263.984	9.53
264.199	9.26
264.414	9.35
264.629	9.91
264.843	10.07
265.058	10.02
265.273	9.84
265.488	9.22
265.702	8.88
265.917	8.75
266.132	8.72
266.346	8.85
266.561	9.17
266.776	9.08
266.99	8.69
267.205	8.86
267.42	8.73
267.634	8.47
267.849	8.7
268.063	8.97
268.278	9.11
268.492	8.88
268.707	8.8
268.922	8.69
269.136	8.58
269.351	8.57
269.565	8.5
269.78	8.51
269.994	8.6
270.209	8.58
270.423	8.45
270.637	8.24
270.852	8.11
271.066	8.07
271.281	7.93
271.495	8.01
271.709	8.19
271.924	8.09
272.138	8.11
272.353	8.38
272.567	8.26
272.781	8.06
272.996	8.18
273.21	8.32
273.424	8.35
273.638	8.22
273.853	8.35
274.067	8.19
274.281	8.12
274.495	8.18
274.71	8.03
274.924	8.16
275.138	8.16
275.352	8.16
275.566	8.16
275.781	8.07
275.995	8.48
276.209	8.66
276.423	8.6
276.637	8.58
276.851	8.29
277.065	8.2
277.279	8.07
277.493	7.96
277.707	7.78
277.921	7.75
278.135	7.55
278.349	7.12
278.563	6.74
278.777	6.84
278.991	6.85
279.205	7.08
279.419	7.06
279.633	7.28
279.847	7.49
280.061	7.58
280.275	7.4
280.489	7.73
280.703	7.63
280.917	7.67
281.131	7.83
281.344	7.96
281.558	7.65
281.772	7.6
281.986	7.35
282.2	7.29
282.414	7.26
282.627	7.28
282.841	7.35
283.055	7.83
283.269	7.66
283.482	7.38
283.696	7.2
283.91	7.34
284.123	7.25
284.337	7.5
284.551	7.31
284.764	7.31
284.978	7.29
285.192	7.16
285.405	6.73
285.619	6.91
285.833	6.99
286.046	6.95
286.26	6.92
286.473	6.92
286.687	6.51
286.9	6.69
287.114	6.59
287.327	6.72
287.541	6.61
287.754	6.89
287.968	6.77
288.181	6.79
288.395	6.8
288.608	6.98
288.822	6.97
289.035	7.06
289.248	7.05
289.462	7.21
289.675	7.07
289.889	7.06
290.102	6.83
290.315	6.83
290.529	6.88
290.742	7.09
290.955	7.04
291.169	7.18
291.382	7.21
291.595	7.35
291.808	7.17
292.022	6.99
292.235	7.15
292.448	7.17
292.661	6.94
292.875	6.72
293.088	6.57
293.301	6.47
293.514	6.4
293.727	6.46
293.94	6.42
294.153	6.42
294.367	6.61
294.58	6.43
294.793	6.49
295.006	6.63
295.219	6.7
295.432	6.64
295.645	6.67
295.858	6.62
296.071	6.45
296.284	6.36
296.497	6.41
296.71	6.44
296.923	6.57
297.136	6.5
297.349	6.68
297.562	6.69
297.775	6.71
297.988	6.76
298.201	6.87
298.414	7.12
298.626	7.13
298.839	6.99
299.052	7.08
299.265	7.13
299.478	7.05
299.691	7.09
299.903	7.07
300.116	7.17
300.329	6.99
300.542	6.93
300.755	7.04
300.967	7
301.18	7.01
301.393	6.92
301.605	6.8
301.818	6.96
302.031	6.79
302.243	6.85
302.456	7.02
302.669	7.15
302.881	7.32
303.094	7.28
303.307	7.17
303.519	7.25
303.732	7.32
303.944	7.49
304.157	7.54
304.37	7.64
304.582	7.65
304.795	7.4
305.007	7.53
305.22	7.73
305.432	7.72
305.645	8.06
305.857	8.19
306.069	8.02
306.282	8.02
306.494	8.04
306.707	8.12
306.919	8.06
307.132	7.89
307.344	7.74
307.556	7.68
307.769	7.81
307.981	7.63
308.193	7.51
308.406	7.6
308.618	7.51
308.83	7.45
309.043	7.17
309.255	7.22
309.467	7.37
309.679	7.47
309.892	7.35
310.104	7.19
310.316	7.23
310.528	7.36
310.74	7.34
310.953	7.28
311.165	7.33
311.377	7.37
311.589	7.52
311.801	7.66
312.013	7.67
312.225	7.74
312.437	8
312.649	8.17
312.862	8.11
313.074	8.29
313.286	8.42
313.498	8.46
313.71	8.69
313.922	8.61
314.134	8.56
314.346	8.56
314.558	8.74
314.77	8.73
314.982	8.71
315.193	8.66
315.405	8.7
315.617	8.67
315.829	8.75
316.041	8.94
316.253	8.97
316.465	9
316.677	8.95
316.888	8.65
317.1	8.47
317.312	8.52
317.524	8.86
317.736	8.93
317.947	9.04
318.159	9.25
318.371	9.13
318.583	9.04
318.794	9.04
319.006	9.14
319.218	9.38
319.43	9.33
319.641	9.56
319.853	9.72
320.064	9.76
320.276	9.84
320.488	9.65
320.699	9.66
320.911	9.93
321.123	10.34
321.334	10.57
321.546	10.76
321.757	11.2
321.969	11.06
322.18	10.93
322.392	11
322.603	10.92
322.815	11.09
323.026	11.22
323.238	11.11
323.449	10.88
323.661	10.98
323.872	11.07
324.083	11.25
324.295	11.4
324.506	11.52
324.718	11.64
324.929	11.77
325.14	12.04
325.352	12.21
325.563	12.66
325.774	12.8
325.986	12.94
326.197	12.98
326.408	12.96
326.62	13.01
326.831	13.18
327.042	13.32
327.253	13.62
327.464	13.77
327.676	14.07
327.887	14.14
328.098	14.46
328.309	14.66
328.52	15.02
328.732	15.15
328.943	15.47
329.154	15.65
329.365	16.09
329.576	16.21
329.787	16.33
329.998	16.21
330.209	16.38
330.42	16.6
330.631	16.89
330.842	16.91
331.053	17.14
331.264	17.29
331.475	17.67
331.686	17.57
331.897	17.92
332.108	17.95
332.319	18.24
332.53	18.43
332.741	18.42
332.952	18.5
333.163	18.61
333.374	18.62
333.585	18.79
333.795	18.69
334.006	18.91
334.217	18.91
334.428	19.14
334.639	19.26
334.849	19.01
335.06	19.1
335.271	18.99
335.482	19.1
335.692	19.26
335.903	19.14
336.114	19.36
336.325	19.24
336.535	19.28
336.746	19.47
336.957	19.4
337.167	19.55
337.378	19.64
337.589	19.83
337.799	19.73
338.01	19.71
338.22	19.86
338.431	19.68
338.642	19.92
338.852	19.87
339.063	19.53
339.273	19.45
339.484	19.49
339.694	19.53
339.905	19.46
340.115	19.43
340.326	19.4
340.536	19.31
340.746	19.33
340.957	19.2
341.167	19.39
341.378	19.58
341.588	19.72
341.799	19.7
342.009	19.57
342.219	19.36
342.43	19.34
342.64	19.11
342.85	19.04
343.061	18.85
343.271	18.84
343.481	18.57
343.691	18.33
343.902	18.32
344.112	18.26
344.322	18.18
344.532	18.33
344.743	18.24
344.953	18.31
345.163	18.29
345.373	18.36
345.583	18.44
345.793	18.51
346.004	18.76
346.214	18.74
346.424	18.55
346.634	18.6
346.844	18.72
347.054	18.9
347.264	19.14
347.474	19.31
347.684	19.39
347.894	19.26
348.104	19.18
348.314	19.2
348.524	19.09
348.734	19.16
348.944	19.03
349.154	18.91
349.364	18.63
349.574	18.41
349.784	18.26
349.994	18.15
350.204	18.02
350.413	18.03
350.623	17.87
350.833	17.85
351.043	17.76
351.253	17.99
351.463	17.86
351.672	17.93
351.882	17.92
352.092	17.93
352.302	17.88
352.511	17.96
352.721	17.94
352.931	17.9
353.141	17.94
353.35	18.23
353.56	17.97
353.77	18.07
353.979	18.1
354.189	18.08
354.399	18.01
354.608	17.93
354.818	17.88
355.027	17.88
355.237	17.8
355.447	17.72
355.656	17.49
355.866	17.58
356.075	17.53
356.285	17.6
356.494	17.63
356.704	17.62
356.913	17.62
357.123	17.53
357.332	17.53
357.542	17.64
357.751	17.64
357.96	17.71
358.17	17.62
358.379	17.61
358.589	17.61
358.798	17.53
359.007	17.68
359.217	17.74
359.426	17.73
359.635	17.76
359.845	17.71
360.054	17.61
360.263	17.66
360.472	17.74
360.682	17.68
360.891	17.56
361.1	17.54
361.309	17.36
361.519	17.38
361.728	17.32
361.937	17.21
362.146	17.08
362.355	17.1
362.564	16.9
362.774	16.8
362.983	16.73
363.192	16.86
363.401	16.91
363.61	16.84
363.819	16.73
364.028	16.8
364.237	16.71
364.446	16.72
364.655	16.76
364.864	16.87
365.073	16.88
365.282	16.91
365.491	16.7
365.7	16.69
365.909	16.88
366.118	16.75
366.327	16.67
366.536	16.7
366.745	16.83
366.954	16.85
367.162	16.86
367.371	16.85
367.58	16.84
367.789	16.85
367.998	16.83
368.207	16.64
368.415	16.81
368.624	16.85
368.833	16.83
369.042	16.72
369.25	16.82
369.459	16.84
369.668	16.84
369.877	16.86
370.085	16.87
370.294	16.75
370.503	16.75
370.711	16.69
370.92	16.7
371.129	16.66
371.337	16.55
371.546	16.35
371.754	16.39
371.963	16.31
372.171	16.15
372.38	16.11
372.589	16.19
372.797	16.26
373.006	16.25
373.214	16.18
373.423	16.18
373.631	16.19
373.84	16.17
374.048	16.04
374.256	15.93
374.465	15.97
374.673	15.93
374.882	15.76
375.09	15.56
375.298	15.56
375.507	15.48
375.715	15.51
375.923	15.47
376.132	15.5
376.34	15.47
376.548	15.55
376.757	15.59
376.965	15.67
377.173	15.74
377.381	15.92
377.59	15.93
377.798	15.9
378.006	15.76
378.214	15.68
378.423	15.52
378.631	15.44
378.839	15.47
379.047	15.37
379.255	15.24
379.463	15.24
379.671	15
379.879	15.02
380.088	15.08
380.296	15.14
380.504	15.18
380.712	15.25
380.92	15.25
381.128	15.09
381.336	15.03
381.544	15.02
381.752	14.93
381.96	15.03
382.168	14.91
382.376	14.91
382.584	14.87
382.791	14.93
382.999	14.88
383.207	14.88
383.415	14.96
383.623	15.03
383.831	15.01
384.039	15.02
384.247	14.97
384.454	14.84
384.662	14.69
384.87	14.65
385.078	14.59
385.285	14.56
385.493	14.45
385.701	14.4
385.909	14.31
386.116	14.25
386.324	14.11
386.532	14.08
386.739	14.13
386.947	14.13
387.155	14.12
387.362	14.11
387.57	14.1
387.778	14.13
387.985	14.14
388.193	14.13
388.4	14.27
388.608	14.37
388.816	14.33
389.023	14.19
389.231	14.14
389.438	14.13
389.646	13.95
389.853	13.89
390.061	13.78
390.268	13.63
390.475	13.51
390.683	13.45
390.89	13.35
391.098	13.34
391.305	13.46
391.512	13.39
391.72	13.28
391.927	13.37
392.135	13.33
392.342	13.34
392.549	13.35
392.756	13.38
392.964	13.26
393.171	13.24
393.378	13.18
393.586	13.09
393.793	13.11
394	13.11
394.207	13.06
394.414	13.11
394.622	13.16
394.829	13.12
395.036	13.15
395.243	13.1
395.45	13.05
395.657	13
395.864	12.99
396.072	12.92
396.279	12.99
396.486	12.9
396.693	12.81
396.9	12.78
397.107	12.65
397.314	12.55
397.521	12.5
397.728	12.51
397.935	12.62
398.142	12.53
398.349	12.48
398.556	12.33
398.763	12.25
398.97	12.27
399.177	12.09
399.383	12.15
399.59	12.11
399.797	12.1
400.004	11.99
400.211	11.88
400.418	11.89
400.625	11.94
400.831	12.03
401.038	12.02
401.245	11.96
401.452	11.97
401.658	11.93
401.865	11.91
402.072	11.92
402.279	11.95
402.485	11.83
402.692	11.79
402.899	11.68
403.105	11.61
403.312	11.69
403.519	11.66
403.725	11.64
403.932	11.65
404.138	11.6
404.345	11.55
404.552	11.55
404.758	11.65
404.965	11.57
405.171	11.56
405.378	11.52
405.584	11.48
405.791	11.32
405.997	11.33
406.204	11.35
406.41	11.33
406.617	11.31
406.823	11.23
407.029	11.2
407.236	11.26
407.442	11.32
407.649	11.32
407.855	11.18
408.061	11.3
408.268	11.3
408.474	11.17
408.68	11.18
408.887	11.21
409.093	11.25
409.299	11.17
409.505	11.13
409.712	11.03
409.918	11
410.124	11.05
410.33	11.05
410.537	10.95
410.743	11.06
410.949	11.03
411.155	11
411.361	10.98
411.567	11
411.773	11.06
411.98	11.11
412.186	11.16
412.392	11.19
412.598	11.13
412.804	11.12
413.01	11.01
413.216	10.99
413.422	10.95
413.628	10.92
413.834	10.83
414.04	10.74
414.246	10.71
414.452	10.65
414.658	10.62
414.864	10.56
415.07	10.57
415.275	10.63
415.481	10.57
415.687	10.58
415.893	10.55
416.099	10.52
416.305	10.4
416.511	10.38
416.716	10.33
416.922	10.25
417.128	10.3
417.334	10.28
417.539	10.25
417.745	10.2
417.951	10.13
418.157	10.08
418.362	10.05
418.568	10.1
418.774	10.06
418.979	10.06
419.185	10.06
419.391	9.99
419.596	9.98
419.802	9.92
420.008	9.92
420.213	9.64
420.419	9.65
420.624	9.6
420.83	9.6
421.035	9.57
421.241	9.55
421.446	9.53
421.652	9.52
421.857	9.49
422.063	9.43
422.268	9.44
422.474	9.65
422.679	9.64
422.885	9.67
423.09	9.64
423.295	9.63
423.501	9.6
423.706	9.56
423.911	9.53
424.117	9.51
424.322	9.54
424.527	9.54
424.733	9.52
424.938	9.5
425.143	9.48
425.349	9.46
425.554	9.48
425.759	9.45
425.964	9.48
426.169	9.52
426.375	9.53
426.58	9.55
426.785	9.53
426.99	9.61
427.195	9.63
427.4	9.65
427.605	9.69
427.811	9.7
428.016	9.76
428.221	9.78
428.426	9.72
428.631	9.7
428.836	9.66
429.041	9.64
429.246	9.61
429.451	9.6
429.656	9.65
429.861	9.55
430.066	9.51
430.271	9.46
430.476	9.41
430.681	9.47
430.886	9.48
431.09	9.47
431.295	9.38
431.5	9.35
431.705	9.27
431.91	9.21
432.115	9.26
432.32	9.22
432.524	9.22
432.729	9.17
432.934	9.08
433.139	9.11
433.343	9.05
433.548	9.13
433.753	9.15
433.958	9.18
434.162	9.22
434.367	9.22
434.572	9.23
434.776	9.21
434.981	9.26
435.186	9.32
435.39	9.26
435.595	9.35
435.799	9.28
436.004	9.26
436.209	9.23
436.413	9.14
436.618	9.1
436.822	9.13
437.027	9.09
437.231	9.09
437.436	9.09
437.64	9.08
437.845	9.03
438.049	9.09
438.253	9.06
438.458	9.03
438.662	9.07
438.867	9.1
439.071	9.1
439.275	9.07
439.48	9.07
439.684	9.05
439.888	9.03
440.093	9.03
440.297	9.02
440.501	9.07
440.706	9.13
440.91	9.14
441.114	9.13
441.318	9.08
441.523	9.14
441.727	9.11
441.931	9.11
442.135	9.13
442.339	9.13
442.543	9.18
442.748	9.12
442.952	9.03
443.156	9
443.36	8.99
443.564	9.02
443.768	8.96
443.972	8.97
444.176	8.97
444.38	8.99
444.584	8.97
444.788	8.91
444.992	8.88
445.196	8.88
445.4	8.85
445.604	8.85
445.808	8.85
446.012	8.88
446.216	8.85
446.42	8.83
446.624	8.76
446.828	8.76
447.032	8.76
447.235	8.8
447.439	8.82
447.643	8.86
447.847	8.9
448.051	8.94
448.254	8.94
448.458	8.99
448.662	9.05
448.866	9.07
449.069	9.04
449.273	9.07
449.477	9.07
449.681	9.1
449.884	9.09
450.088	9.06
450.292	8.96
450.495	8.91
450.699	8.91
450.902	8.83
451.106	8.84
451.31	8.89
451.513	8.79
451.717	8.79
451.92	8.77
452.124	8.74
452.327	8.73
452.531	8.81
452.734	8.9
452.938	8.87
453.141	8.91
453.345	8.94
453.548	8.92
453.752	8.98
453.955	9.01
454.158	9.03
454.362	9.06
454.565	9.04
454.769	9
454.972	8.99
455.175	8.98
455.379	8.96
455.582	8.91
455.785	8.91
455.988	8.86
456.192	8.83
456.395	8.77
456.598	8.77
456.801	8.72
457.005	8.64
457.208	8.63
457.411	8.62
457.614	8.59
457.817	8.59
458.021	8.55
458.224	8.54
458.427	8.52
458.63	8.53
458.833	8.52
459.036	8.48
459.239	8.55
459.442	8.55
459.645	8.54
459.848	8.57
460.051	8.59
460.254	8.65
460.457	8.66
460.66	8.68
460.863	8.74
461.066	8.73
461.269	8.8
461.472	8.85
461.675	8.84
461.878	8.88
462.081	8.86
462.284	8.89
462.486	8.85
462.689	8.9
462.892	8.89
463.095	8.87
463.298	8.94
