Data from JASIL_3243_Reflection_1.txt Node
Date: Mon Nov 16 20:32:29 EST 2015
User: Geneva
Spectrometer: USB4E03002
Autoset integration time: false
Trigger mode: 4
Integration Time (sec): 1.000000E-1
Scans to average: 10
Electric dark correction enabled: false
Nonlinearity correction enabled: false
Boxcar width: 5
Stray light correction enabled: false
XAxis mode: Wavelengths
Stop averaging: false
Number of Pixels in Spectrum: 3648
>>>>>Begin Spectral Data<<<<<
177.575	-647.01
177.794	-593.57
178.014	-622.29
178.233	-1028.04
178.452	-1425.3
178.672	-937.88
178.891	-1119.81
179.11	3467.57
179.33	1066.07
179.549	-5131.82
179.768	894.92
179.987	923.66
180.207	690.32
180.426	384.67
180.645	390.31
180.864	637.66
181.084	295.89
181.303	284.95
181.522	526.82
181.741	1645.07
181.96	401.14
182.179	554.65
182.398	712.44
182.618	629.66
182.837	567.23
183.056	512.7
183.275	347.8
183.494	327.91
183.713	386.67
183.932	320.53
184.151	315.97
184.37	311.55
184.589	264.21
184.808	215.49
185.027	216.3
185.246	282.63
185.465	409.78
185.684	441.67
185.903	1745.98
186.122	624.22
186.341	804.49
186.56	445
186.779	761.14
186.998	960.77
187.216	914.96
187.435	605.99
187.654	576.76
187.873	299.75
188.092	247.17
188.311	253.33
188.53	392.1
188.748	347.52
188.967	716.8
189.186	438.31
189.405	533.33
189.623	588.89
189.842	581.07
190.061	565.55
190.28	1457.69
190.498	-1358.75
190.717	980.16
190.936	-2162.71
191.154	-1005.36
191.373	-24800
191.592	-12118.18
191.81	-728.74
192.029	-961.07
192.248	-329.14
192.466	-326.33
192.685	-390.84
192.904	-555.68
193.122	-381.6
193.341	-718.38
193.559	-666.5
193.778	-729.7
193.996	-953.44
194.215	34500
194.433	-3304.76
194.652	701.97
194.87	554.98
195.089	435.37
195.307	580
195.526	1694.92
195.744	962.28
195.963	676.92
196.181	13375
196.399	-886.32
196.618	5235
196.836	15200
197.055	-706.56
197.273	-1605.17
197.491	-1071.11
197.71	-2017.65
197.928	1441.25
198.146	2776.19
198.365	-12920
198.583	635.93
198.801	836.84
199.019	1907.79
199.238	-3642.86
199.456	1548.11
199.674	687.71
199.892	528.74
200.111	635.38
200.329	632.08
200.547	481.97
200.765	402.36
200.983	454.52
201.202	385.24
201.42	574.41
201.638	384.91
201.856	456.82
202.074	1312.4
202.292	1539.39
202.51	1036.05
202.728	1495.88
202.946	-3385
203.165	4739.39
203.383	-1511.34
203.601	-1730.23
203.819	3086
204.037	14540
204.255	1545.36
204.473	721.96
204.691	1043.33
204.909	702.86
205.127	782.79
205.345	963.64
205.562	745.54
205.78	519.8
205.998	553.06
206.216	494.29
206.434	449.66
206.652	388.48
206.87	269.61
207.088	241.14
207.306	272.62
207.523	258.17
207.741	194.72
207.959	224.23
208.177	252
208.395	218.18
208.612	229.82
208.83	227.43
209.048	238.98
209.266	328.26
209.483	310.35
209.701	272.63
209.919	330.06
210.136	378.92
210.354	814
210.572	733.94
210.79	1195.56
211.007	704.8
211.225	1204.65
211.442	-6680.95
211.66	-1818.06
211.878	-896.53
212.095	189.57
212.313	168
212.53	206.41
212.748	159.79
212.966	153.66
213.183	146.4
213.401	154.53
213.618	144.18
213.836	170.69
214.053	174.26
214.271	142.67
214.488	1142.02
214.705	614.68
214.923	407.1
215.14	422.42
215.358	370.77
215.575	515.09
215.793	518.26
216.01	668.71
216.227	260
216.445	210.19
216.662	284.87
216.879	293.27
217.097	248.29
217.314	255.72
217.531	289.44
217.749	333.5
217.966	392
218.183	311.29
218.4	374.59
218.618	474.8
218.835	486.78
219.052	333.78
219.269	287.58
219.487	466.67
219.704	373.78
219.921	277.63
220.138	194.65
220.355	198.47
220.572	213.14
220.79	210.35
221.007	242.6
221.224	345.59
221.441	274.2
221.658	301.01
221.875	220.51
222.092	210.84
222.309	311.23
222.526	362.1
222.743	328.23
222.96	431.13
223.177	238.22
223.394	229.88
223.611	161.7
223.828	219.47
224.045	247.63
224.262	271.22
224.479	201.86
224.696	155.03
224.913	185.03
225.13	140.59
225.347	128.9
225.564	116.1
225.781	93.08
225.997	91.73
226.214	71.68
226.431	57.67
226.648	42.93
226.865	37.91
227.082	35.97
227.298	25.54
227.515	24.96
227.732	22.18
227.949	21.76
228.165	23.81
228.382	16.77
228.599	17.53
228.816	16.73
229.032	19.4
229.249	16.92
229.466	18.39
229.682	20.62
229.899	20.23
230.116	19.31
230.332	20.49
230.549	22.37
230.765	30.16
230.982	30.36
231.199	34.18
231.415	40.43
231.632	45.21
231.848	51.92
232.065	55.23
232.281	54.26
232.498	65.31
232.714	65.16
232.931	62.32
233.147	58.81
233.364	60.08
233.58	58.57
233.797	59.28
234.013	54.9
234.23	52.35
234.446	51.8
234.662	48.41
234.879	44.55
235.095	50.43
235.312	53.99
235.528	48.99
235.744	55.03
235.961	57.6
236.177	58.76
236.393	67.13
236.61	64.82
236.826	73.55
237.042	83.09
237.258	83.02
237.475	79.44
237.691	79.65
237.907	82.56
238.123	77.34
238.339	69.68
238.556	63.61
238.772	57.13
238.988	55.4
239.204	50.59
239.42	51.45
239.636	48.23
239.853	45.23
240.069	44.47
240.285	42.75
240.501	41.45
240.717	40.44
240.933	35.26
241.149	29.8
241.365	26.1
241.581	24.25
241.797	20.42
242.013	20.12
242.229	18.2
242.445	15.93
242.661	16.87
242.877	14.38
243.093	12.33
243.309	15.73
243.525	21.21
243.741	23.2
243.957	23.7
244.173	23.85
244.388	22.38
244.604	23.84
244.82	23.29
245.036	20.21
245.252	20.08
245.468	17.93
245.683	14.76
245.899	12.3
246.115	12.36
246.331	11.35
246.547	11.61
246.762	11.69
246.978	11.56
247.194	12.1
247.409	12.73
247.625	12.83
247.841	14.57
248.057	16.04
248.272	16.32
248.488	17.49
248.703	18.56
248.919	19.77
249.135	21.78
249.35	22.48
249.566	24.6
249.782	25.26
249.997	26.2
250.213	25.35
250.428	23.36
250.644	24.81
250.859	24.31
251.075	24.04
251.29	25.19
251.506	23.7
251.721	23.06
251.937	22.4
252.152	22.52
252.368	21.67
252.583	21.92
252.798	22.38
253.014	22.44
253.229	23.09
253.445	24.48
253.66	24.9
253.875	29.06
254.091	34.82
254.306	34.03
254.521	34.11
254.737	38.73
254.952	40.65
255.167	42.33
255.383	39.59
255.598	34.81
255.813	34.31
256.028	32.36
256.244	33.19
256.459	26.09
256.674	25.33
256.889	24.13
257.104	20.24
257.32	19.7
257.535	17.78
257.75	17.77
257.965	17.93
258.18	16.4
258.395	14.06
258.61	11.3
258.826	11.79
259.041	11.77
259.256	11.55
259.471	11.3
259.686	10.24
259.901	9.43
260.116	9.27
260.331	9.62
260.546	9.36
260.761	10.7
260.976	10.73
261.191	10.91
261.406	10.8
261.621	11.19
261.836	12.44
262.05	14.08
262.265	17.28
262.48	18.49
262.695	16.39
262.91	15.94
263.125	15.13
263.34	15.37
263.555	17.29
263.769	18.36
263.984	18.73
264.199	21.24
264.414	19.95
264.629	18.31
264.843	16.56
265.058	20.3
265.273	20.88
265.488	19.7
265.702	22.03
265.917	22.03
266.132	20.54
266.346	21.25
266.561	18.11
266.776	19.33
266.99	19.12
267.205	20.7
267.42	19.83
267.634	20.9
267.849	20.54
268.063	20.68
268.278	21.26
268.492	21.74
268.707	20.51
268.922	20.73
269.136	18.84
269.351	17.76
269.565	16.61
269.78	15.29
269.994	15.67
270.209	16.8
270.423	15.77
270.637	13.67
270.852	12.72
271.066	13.36
271.281	14.76
271.495	14.42
271.709	15.08
271.924	15.14
272.138	16.21
272.353	15.79
272.567	15.29
272.781	14.55
272.996	13.65
273.21	14.55
273.424	13.24
273.638	13.22
273.853	15.37
274.067	13.91
274.281	14.23
274.495	13.64
274.71	12.84
274.924	12.72
275.138	12.18
275.352	13.08
275.566	13.7
275.781	14.07
275.995	12.32
276.209	9.85
276.423	13.22
276.637	11.6
276.851	11.73
277.065	11.75
277.279	13.18
277.493	14.32
277.707	15.33
277.921	15.31
278.135	15.35
278.349	16.68
278.563	18.28
278.777	18.39
278.991	19.72
279.205	19.71
279.419	19.38
279.633	18.07
279.847	17.45
280.061	17.24
280.275	15.69
280.489	17.1
280.703	13.48
280.917	12.58
281.131	11.4
281.344	11.81
281.558	12.75
281.772	12.77
281.986	13.84
282.2	13.33
282.414	12.61
282.627	13.68
282.841	12.61
283.055	14.49
283.269	14.89
283.482	15.06
283.696	14.18
283.91	12.38
284.123	12.05
284.337	11.03
284.551	11.61
284.764	11.58
284.978	10.48
285.192	10.4
285.405	10.87
285.619	9.86
285.833	10.83
286.046	11.67
286.26	11.9
286.473	12.07
286.687	12.84
286.9	14.11
287.114	15.11
287.327	17.31
287.541	16.78
287.754	16.61
287.968	17.66
288.181	17.06
288.395	15.86
288.608	17.25
288.822	18.19
289.035	18.37
289.248	17.09
289.462	16.08
289.675	15.7
289.889	15.86
290.102	15.31
290.315	15.37
290.529	15.38
290.742	16.32
290.955	15.65
291.169	15.97
291.382	15.53
291.595	16.52
291.808	17.17
292.022	17.28
292.235	17.9
292.448	19.2
292.661	18.66
292.875	20.19
293.088	19.58
293.301	19.55
293.514	17.45
293.727	15.44
293.94	13.09
294.153	13.19
294.367	13.06
294.58	12.12
294.793	11.07
295.006	11.36
295.219	9.99
295.432	10.62
295.645	10.03
295.858	10.27
296.071	11.31
296.284	12.12
296.497	10.99
296.71	10.84
296.923	11.83
297.136	10.55
297.349	9.47
297.562	9.83
297.775	9.64
297.988	9.25
298.201	10.52
298.414	10.12
298.626	9.83
298.839	10.69
299.052	9.32
299.265	8.82
299.478	11.18
299.691	12.74
299.903	11.63
300.116	11.83
300.329	12.39
300.542	11.35
300.755	12.41
300.967	13.1
301.18	12
301.393	13.23
301.605	13.29
301.818	12.74
302.031	14
302.243	14.64
302.456	14.94
302.669	16.22
302.881	16.43
303.094	17.06
303.307	16.15
303.519	17.07
303.732	17.74
303.944	18.25
304.157	18.2
304.37	17.75
304.582	16.18
304.795	15.31
305.007	14.58
305.22	14.14
305.432	13.23
305.645	13.91
305.857	14.9
306.069	14.42
306.282	14.34
306.494	13.74
306.707	13.29
306.919	15.18
307.132	15.24
307.344	16.18
307.556	16.09
307.769	15.14
307.981	15.75
308.193	14.27
308.406	14.7
308.618	14.57
308.83	15.58
309.043	15.6
309.255	15.19
309.467	15.05
309.679	13.95
309.892	13.59
310.104	13.56
310.316	12.59
310.528	12.93
310.74	12.03
310.953	11.65
311.165	12.16
311.377	11.27
311.589	11.18
311.801	11.66
312.013	12.02
312.225	13.97
312.437	14.56
312.649	14.98
312.862	15.49
313.074	14.57
313.286	16.3
313.498	16.53
313.71	16.69
313.922	18.13
314.134	17.64
314.346	17.55
314.558	16.12
314.77	15.86
314.982	16.23
315.193	16.14
315.405	16.82
315.617	14.17
315.829	14.6
316.041	15.63
316.253	14.09
316.465	15.26
316.677	14.83
316.888	15.63
317.1	15.17
317.312	15.41
317.524	15.27
317.736	16.36
317.947	18.23
318.159	17.34
318.371	16.99
318.583	17.11
318.794	16.95
319.006	17.43
319.218	15.65
319.43	16.6
319.641	16.9
319.853	17.92
320.064	18.24
320.276	18.23
320.488	17.72
320.699	18.24
320.911	18.84
321.123	19.04
321.334	20.5
321.546	21.87
321.757	22.32
321.969	22.88
322.18	22.31
322.392	21.48
322.603	21.98
322.815	21.09
323.026	20.73
323.238	21.03
323.449	19.14
323.661	17.97
323.872	17.78
324.083	17.68
324.295	17.2
324.506	17.1
324.718	16.47
324.929	15.18
325.14	16.28
325.352	15.98
325.563	16.22
325.774	16.19
325.986	15.54
326.197	15.33
326.408	15.34
326.62	14.7
326.831	14.15
327.042	15.61
327.253	16.94
327.464	17.38
327.676	17.16
327.887	16.85
328.098	18.82
328.309	20.38
328.52	21.65
328.732	22.11
328.943	23.37
329.154	23.12
329.365	22.82
329.576	21.34
329.787	19.92
329.998	20.81
330.209	18.83
330.42	18.35
330.631	18.96
330.842	17.23
331.053	15.8
331.264	15.87
331.475	16.22
331.686	16.45
331.897	17.72
332.108	18.39
332.319	18.11
332.53	19.15
332.741	18.72
332.952	16.81
333.163	18.28
333.374	19.29
333.585	18.51
333.795	17.98
334.006	16.17
334.217	15.3
334.428	14.24
334.639	13.92
334.849	13.38
335.06	12.85
335.271	13.92
335.482	13.8
335.692	12.4
335.903	12.05
336.114	12.41
336.325	13.87
336.535	14
336.746	16.08
336.957	17.69
337.167	17.53
337.378	18.74
337.589	16.99
337.799	16.07
338.01	17.33
338.22	17.99
338.431	18.39
338.642	17.84
338.852	17.6
339.063	16.86
339.273	15.3
339.484	16.78
339.694	15.12
339.905	16.05
340.115	16.3
340.326	15.88
340.536	16.11
340.746	16.25
340.957	16.46
341.167	16.79
341.378	15.76
341.588	15.68
341.799	14.63
342.009	15.91
342.219	16.19
342.43	15.82
342.64	16.32
342.85	15.78
343.061	15.01
343.271	15.28
343.481	14.5
343.691	15.05
343.902	15.3
344.112	15.04
344.322	13.75
344.532	13.45
344.743	13.41
344.953	11.6
345.163	11.51
345.373	12.21
345.583	11.94
345.793	12.27
346.004	11.89
346.214	11.38
346.424	12.14
346.634	12.22
346.844	12.53
347.054	13.48
347.264	14.96
347.474	15.39
347.684	15.5
347.894	15.14
348.104	16.3
348.314	16.13
348.524	15.93
348.734	14.97
348.944	15.3
349.154	15.59
349.364	14.58
349.574	13.86
349.784	14.28
349.994	14.17
350.204	13.96
350.413	12.59
350.623	12.68
350.833	13.12
351.043	13.54
351.253	14.45
351.463	13.86
351.672	13.57
351.882	14.35
352.092	14.05
352.302	13.83
352.511	14.64
352.721	16.06
352.931	16.04
353.141	16.21
353.35	16.23
353.56	16.19
353.77	15.5
353.979	16.36
354.189	15.84
354.399	14.82
354.608	14.73
354.818	14.09
355.027	12.69
355.237	12.7
355.447	12.13
355.656	11.73
355.866	10.7
356.075	10.76
356.285	11.03
356.494	10.92
356.704	11.9
356.913	12.08
357.123	12.36
357.332	12.03
357.542	12
357.751	12.29
357.96	13.64
358.17	13.67
358.379	13.83
358.589	12.72
358.798	12.58
359.007	11.97
359.217	10.28
359.426	9.51
359.635	10.54
359.845	9.9
360.054	9.96
360.263	9.13
360.472	9.03
360.682	9.54
360.891	9.86
361.1	10.25
361.309	9.75
361.519	10.71
361.728	11.55
361.937	11.05
362.146	11.79
362.355	11.59
362.564	11.89
362.774	12.1
362.983	12.3
363.192	12.33
363.401	12.37
363.61	12.6
363.819	12.83
364.028	11.86
364.237	11.9
364.446	11.6
364.655	11.8
364.864	11.98
365.073	12.19
365.282	11.91
365.491	11.81
365.7	11.35
365.909	11.64
366.118	10.81
366.327	11.42
366.536	11.59
366.745	11.58
366.954	11.43
367.162	11.51
367.371	11.57
367.58	12.17
367.789	12.39
367.998	12.01
368.207	12
368.415	13.04
368.624	12.72
368.833	12.57
369.042	12.22
369.25	12.87
369.459	12.02
369.668	11.89
369.877	11.33
370.085	11.35
370.294	12.25
370.503	12.66
370.711	12.19
370.92	12.69
371.129	13.68
371.337	14.23
371.546	13.45
371.754	13.79
371.963	13.72
372.171	13.63
372.38	13.18
372.589	12.91
372.797	12.24
373.006	12.54
373.214	12.35
373.423	11.66
373.631	11.91
373.84	11.53
374.048	10.49
374.256	10.27
374.465	10.29
374.673	10.25
374.882	9.62
375.09	9.58
375.298	9.33
375.507	9.7
375.715	9.33
375.923	8.26
376.132	7.68
376.34	8.43
376.548	9.18
376.757	9.21
376.965	10.04
377.173	10.2
377.381	10.83
377.59	11.5
377.798	10.38
378.006	10.53
378.214	10.86
378.423	11.95
378.631	12.13
378.839	10.9
379.047	11.16
379.255	10.4
379.463	11.25
379.671	10.99
379.879	10.15
380.088	10.81
380.296	11.57
380.504	12.04
380.712	11.77
380.92	11.53
381.128	11.76
381.336	11.71
381.544	11.89
381.752	10.48
381.96	10.5
382.168	10.5
382.376	10.84
382.584	9.68
382.791	9.84
382.999	9.69
383.207	9.29
383.415	10.36
383.623	9.28
383.831	9
384.039	9.82
384.247	10.47
384.454	11.54
384.662	10.81
384.87	10.61
385.078	10.52
385.285	10.52
385.493	11.13
385.701	10.58
385.909	11.15
386.116	11.23
386.324	10.78
386.532	10.16
386.739	8.96
386.947	9.6
387.155	9.87
387.362	9.16
387.57	9.18
387.778	9.17
387.985	9.68
388.193	9.57
388.4	9.85
388.608	10.39
388.816	10.59
389.023	10.71
389.231	10.53
389.438	10.3
389.646	11.07
389.853	11.34
390.061	10.78
390.268	9.64
390.475	9.35
390.683	8.67
390.89	9.02
391.098	8.9
391.305	9.76
391.512	9.3
391.72	9.07
391.927	8.89
392.135	9.26
392.342	9.26
392.549	10.26
392.756	10.84
392.964	10.97
393.171	10.68
393.378	10.4
393.586	9.87
393.793	9.63
394	10.44
394.207	10.25
394.414	9.27
394.622	9.66
394.829	8.87
395.036	8.85
395.243	8.9
395.45	9.39
395.657	10.09
395.864	9.59
396.072	10.24
396.279	10.04
396.486	10.21
396.693	11.08
396.9	11.17
397.107	11.52
397.314	11.14
397.521	11.61
397.728	10.96
397.935	10.43
398.142	10.81
398.349	10.37
398.556	10.13
398.763	10.3
398.97	10.39
399.177	9.94
399.383	10.12
399.59	10.63
399.797	10.8
400.004	11.15
400.211	11.23
400.418	11.65
400.625	12
400.831	12.15
401.038	11.57
401.245	10.93
401.452	11.15
401.658	11.29
401.865	11.14
402.072	10.59
402.279	9.86
402.485	9.77
402.692	9.21
402.899	8.78
403.105	8.63
403.312	9
403.519	9.31
403.725	9.35
403.932	9.03
404.138	8.61
404.345	9.05
404.552	8.92
404.758	8.81
404.965	8.56
405.171	9.14
405.378	9.26
405.584	9.04
405.791	8.86
405.997	8.69
406.204	8.47
406.41	8.47
406.617	8.19
406.823	8.41
407.029	8.21
407.236	8.63
407.442	8.09
407.649	8.35
407.855	8.72
408.061	8.94
408.268	9.43
408.474	9.94
408.68	9.38
408.887	9.18
409.093	9.45
409.299	9.59
409.505	9.51
409.712	9.81
409.918	9.51
410.124	8.99
410.33	8.61
410.537	8.34
410.743	8
410.949	8.95
411.155	9.14
411.361	9.5
411.567	9.52
411.773	9.6
411.98	9.65
412.186	9.85
412.392	10.28
412.598	10.32
412.804	10.28
413.01	10.26
413.216	10.36
413.422	10.15
413.628	9.2
413.834	9.19
414.04	9.65
414.246	9.9
414.452	10.08
414.658	10.35
414.864	10.44
415.07	10.8
415.275	10.94
415.481	11.19
415.687	11.43
415.893	11.63
416.099	12.09
416.305	11.77
416.511	11.28
416.716	10.61
416.922	10.09
417.128	10.03
417.334	9.55
417.539	9.12
417.745	8.57
417.951	8.03
418.157	7.88
418.362	7.35
418.568	6.82
418.774	6.44
418.979	6.66
419.185	6.34
419.391	6.59
419.596	6.61
419.802	6.76
420.008	6.51
420.213	8.75
420.419	8.69
420.624	8.72
420.83	8.93
421.035	9.24
421.241	9.17
421.446	9.52
421.652	9.11
421.857	9.08
422.063	9.21
422.268	9.35
422.474	7.55
422.679	7.53
422.885	7.63
423.09	7.39
423.295	7.28
423.501	7.31
423.706	7.11
423.911	7.13
424.117	7.12
424.322	6.98
424.527	6.91
424.733	6.8
424.938	7.2
425.143	7.11
425.349	7.16
425.554	7.43
425.759	7.34
425.964	7.29
426.169	7.34
426.375	7.34
426.58	7.27
426.785	7.37
426.99	7.12
427.195	7.09
427.4	6.82
427.605	7.22
427.811	6.96
428.016	7.12
428.221	7.33
428.426	7.67
428.631	7.83
428.836	7.85
429.041	7.99
429.246	8.84
429.451	8.85
429.656	9.36
429.861	9.11
430.066	8.72
430.271	8.78
430.476	8.88
430.681	8.55
430.886	8.11
431.09	8.37
431.295	8.5
431.5	7.81
431.705	7.66
431.91	7.08
432.115	7.15
432.32	7.63
432.524	7.58
432.729	7.14
432.934	6.9
433.139	7.07
433.343	6.87
433.548	6.7
433.753	7.01
433.958	7.08
434.162	7.04
434.367	7.18
434.572	7.32
434.776	7.23
434.981	7.43
435.186	8.05
435.39	8.21
435.595	8.44
435.799	8.36
436.004	8.05
436.209	7.77
436.413	7.91
436.618	8.1
436.822	7.89
437.027	7.75
437.231	7.44
437.436	7.21
437.64	7.04
437.845	6.66
438.049	6.63
438.253	6.62
438.458	6.65
438.662	6.71
438.867	6.3
439.071	6.19
439.275	6.37
439.48	6.67
439.684	6.55
439.888	6.45
440.093	6.75
440.297	6.59
440.501	6.71
440.706	6.71
440.91	6.91
441.114	6.91
441.318	7.28
441.523	7.27
441.727	7.36
441.931	7.24
442.135	7.26
442.339	7.07
442.543	7.49
442.748	7.6
442.952	7.69
443.156	7.41
443.36	7.25
443.564	7.23
443.768	6.8
443.972	6.88
444.176	6.9
444.38	7.06
444.584	7.14
444.788	6.73
444.992	6.64
445.196	6.63
445.4	6.97
445.604	7.05
445.808	6.87
446.012	7.13
446.216	6.86
446.42	6.93
446.624	7.14
446.828	7.06
447.032	7.29
447.235	7.32
447.439	7.18
447.643	7.2
447.847	7.48
448.051	7.61
448.254	7.73
448.458	7.99
448.662	7.96
448.866	7.77
449.069	7.9
449.273	8.13
449.477	7.97
449.681	8.01
449.884	7.63
450.088	7.57
450.292	7.29
450.495	7.29
450.699	7.27
450.902	7.57
451.106	7.66
451.31	7.82
451.513	7.79
451.717	8.02
451.92	8.32
452.124	8.39
452.327	8.1
452.531	8.31
452.734	8.05
452.938	7.89
453.141	7.83
453.345	7.9
453.548	7.74
453.752	7.42
453.955	7.6
454.158	7.22
454.362	7.4
454.565	7.82
454.769	7.64
454.972	8.09
455.175	8.36
455.379	8.43
455.582	8.11
455.785	8.17
455.988	8.32
456.192	7.98
456.395	8.27
456.598	8.14
456.801	7.78
457.005	8
457.208	7.62
457.411	7.55
457.614	7.52
457.817	7.85
