Data from JASIL_3243_Reflection_2.txt Node
Date: Mon Nov 16 20:32:39 EST 2015
User: Geneva
Spectrometer: USB4E03002
Autoset integration time: false
Trigger mode: 4
Integration Time (sec): 1.000000E-1
Scans to average: 10
Electric dark correction enabled: false
Nonlinearity correction enabled: false
Boxcar width: 5
Stray light correction enabled: false
XAxis mode: Wavelengths
Stop averaging: false
Number of Pixels in Spectrum: 3648
>>>>>Begin Spectral Data<<<<<
177.575	81.2
177.794	-47.14
178.014	-48.19
178.233	-48.6
178.452	-138.55
178.672	-103.03
178.891	-345.28
179.11	1859.46
179.33	811.61
179.549	-3927.27
179.768	743.22
179.987	936.56
180.207	545.16
180.426	355.4
180.645	425.61
180.864	716.88
181.084	315.42
181.303	284.03
181.522	483.18
181.741	1494.37
181.96	389.74
182.179	497.4
182.398	619.56
182.618	650.42
182.837	628.15
183.056	497.62
183.275	358.7
183.494	367.91
183.713	397.78
183.932	320.33
184.151	302.19
184.37	258.66
184.589	231.16
184.808	195.59
185.027	166.3
185.246	209.27
185.465	325.67
185.684	325.26
185.903	1190.8
186.122	434.98
186.341	566.85
186.56	288.68
186.779	493.78
186.998	605.38
187.216	634.65
187.435	471.86
187.654	447.03
187.873	232.57
188.092	203.63
188.311	201.25
188.53	288.66
188.748	286.96
188.967	743.2
189.186	389.27
189.405	432.9
189.623	429.17
189.842	463.79
190.061	469.38
190.28	1242.31
190.498	-1138.75
190.717	842.86
190.936	-1801.69
191.154	-891.96
191.373	-19566.67
191.592	-11254.55
191.81	-630.46
192.029	-851.15
192.248	-250.8
192.466	-242.27
192.685	-301.83
192.904	-398.9
193.122	-268
193.341	-609.19
193.559	-601.02
193.778	-650.3
193.996	-820.61
194.215	32950
194.433	-3050
194.652	669.46
194.87	585.28
195.089	508.3
195.307	686.84
195.526	2101.69
195.744	1165.79
195.963	782.97
196.181	16275
196.399	-1072.65
196.618	5790
196.836	18966.67
197.055	-1040.98
197.273	-2072.41
197.491	-1306.67
197.71	-2158.82
197.928	1405
198.146	2526.19
198.365	-9640
198.583	512.12
198.801	696.49
199.019	1715.58
199.238	-2916.67
199.456	1153.77
199.674	511.02
199.892	413.77
200.111	498.46
200.329	530.19
200.547	425.63
200.765	380.63
200.983	427.11
201.202	345.71
201.42	512.2
201.638	376.89
201.856	461.65
202.074	1403.31
202.292	1586.87
202.51	1165.31
202.728	1819.59
202.946	-4122.5
203.165	5493.94
203.383	-1777.32
203.601	-2066.28
203.819	3950
204.037	19070
204.255	1732.99
204.473	750
204.691	1111.33
204.909	703.27
205.127	726.51
205.345	904.55
205.562	769.8
205.78	539.6
205.998	614.69
206.216	511.07
206.434	484.12
206.652	486.36
206.87	381.25
207.088	324.61
207.306	415.08
207.523	367.33
207.741	275.31
207.959	280.16
208.177	291.27
208.395	226.71
208.612	231.63
208.83	202.93
209.048	216.95
209.266	256.51
209.483	229.18
209.701	197.19
209.919	213.36
210.136	246.39
210.354	569.5
210.572	577.38
210.79	910.37
211.007	593.01
211.225	1053.49
211.442	-6061.9
211.66	-1704.17
211.878	-869.44
212.095	191.48
212.313	230.36
212.53	279.94
212.748	168.98
212.966	162.54
213.183	166.31
213.401	163.01
213.618	138.3
213.836	148.1
214.053	152.11
214.271	134.7
214.488	1137.82
214.705	577.52
214.923	469.03
215.14	492.53
215.358	349.23
215.575	527.83
215.793	512.33
216.01	741.1
216.227	281.06
216.445	243.21
216.662	260.52
216.879	251.15
217.097	215.28
217.314	238.65
217.531	311.97
217.749	365.76
217.966	420.67
218.183	363.36
218.4	419.54
218.618	529.13
218.835	489.67
219.052	373.14
219.269	314.19
219.487	499.31
219.704	319.03
219.921	236.39
220.138	198.04
220.355	181.97
220.572	198.14
220.79	215.19
221.007	233
221.224	273.56
221.441	276.52
221.658	284.23
221.875	202.56
222.092	232.28
222.309	298.55
222.526	280.24
222.743	300
222.96	383.96
223.177	210.19
223.394	227.41
223.611	171.03
223.828	171.18
224.045	214.23
224.262	206.59
224.479	123.82
224.696	121.52
224.913	157.25
225.13	120.23
225.347	101.46
225.564	89.46
225.781	78.67
225.997	87.76
226.214	82.01
226.431	72.19
226.648	61.59
226.865	60.87
227.082	51.5
227.298	43.27
227.515	40.37
227.732	37.53
227.949	34.58
228.165	35.32
228.382	30.94
228.599	25.84
228.816	23.81
229.032	27.65
229.249	25.4
229.466	24.05
229.682	24.83
229.899	23.6
230.116	26.29
230.332	29.68
230.549	30.16
230.765	31.59
230.982	34.74
231.199	37.4
231.415	39.44
231.632	45.73
231.848	52.3
232.065	60.84
232.281	64.49
232.498	69.64
232.714	72.44
232.931	70.06
233.147	66.8
233.364	70.66
233.58	67.28
233.797	68.23
234.013	66.57
234.23	65.94
234.446	57.26
234.662	53.75
234.879	47.58
235.095	48.14
235.312	53.3
235.528	53.33
235.744	55.21
235.961	53.66
236.177	53.69
236.393	54.08
236.61	53.95
236.826	59.56
237.042	59.77
237.258	60.61
237.475	51.73
237.691	48.91
237.907	51.85
238.123	46.66
238.339	50.02
238.556	46.55
238.772	43.07
238.988	37.09
239.204	35.12
239.42	35.98
239.636	34.99
239.853	34.67
240.069	28.46
240.285	27.73
240.501	28.47
240.717	25.28
240.933	21.81
241.149	19.43
241.365	20.06
241.581	19.88
241.797	19.06
242.013	20.59
242.229	20.36
242.445	22.7
242.661	22.51
242.877	21.32
243.093	23.51
243.309	26.89
243.525	29.39
243.741	30.98
243.957	33.01
244.173	32.55
244.388	31.58
244.604	31.38
244.82	28.64
245.036	28.51
245.252	27.01
245.468	23.51
245.683	20.4
245.899	20.28
246.115	19.13
246.331	17.18
246.547	16.95
246.762	15.49
246.978	15.79
247.194	16.03
247.409	15.64
247.625	15.78
247.841	17.13
248.057	18.12
248.272	16.91
248.488	18.37
248.703	19.91
248.919	20.66
249.135	24.44
249.35	23.72
249.566	24.37
249.782	24.7
249.997	25.87
250.213	23.1
250.428	21.53
250.644	24.74
250.859	23.34
251.075	20.78
251.29	21.68
251.506	19.99
251.721	19.43
251.937	20.77
252.152	20.3
252.368	19.86
252.583	22
252.798	23.93
253.014	22.38
253.229	22.74
253.445	25.07
253.66	23.61
253.875	23.89
254.091	29.35
254.306	26.64
254.521	28.75
254.737	29.9
254.952	32.32
255.167	31.77
255.383	29.62
255.598	28.79
255.813	30.2
256.028	32.62
256.244	30.72
256.459	28.3
256.674	29.29
256.889	26.27
257.104	22.49
257.32	21.45
257.535	19.3
257.75	19.23
257.965	16.94
258.18	16.66
258.395	15.25
258.61	15.8
258.826	15.47
259.041	14.31
259.256	14.85
259.471	15.36
259.686	13.76
259.901	13.75
260.116	13.18
260.331	14.52
260.546	13.43
260.761	14.02
260.976	13.65
261.191	12.22
261.406	13.58
261.621	13.52
261.836	14.9
262.05	17.02
262.265	19.58
262.48	22.75
262.695	23.13
262.91	22.41
263.125	22.11
263.34	24.06
263.555	26.23
263.769	26.85
263.984	26.37
264.199	26.03
264.414	25.39
264.629	23.38
264.843	19.47
265.058	18.75
265.273	18.15
265.488	18
265.702	18.45
265.917	19.23
266.132	15.67
266.346	15.93
266.561	15.3
266.776	14.89
266.99	14.74
267.205	16.51
267.42	15.89
267.634	17.91
267.849	16.95
268.063	15.4
268.278	16.41
268.492	17.08
268.707	16.4
268.922	17.29
269.136	16.52
269.351	15.23
269.565	14.78
269.78	14.26
269.994	12.63
270.209	13.31
270.423	12.89
270.637	10.93
270.852	11.62
271.066	12.71
271.281	12.46
271.495	11.68
271.709	13.09
271.924	14.25
272.138	14.62
272.353	15.73
272.567	14.84
272.781	14.46
272.996	14.9
273.21	14.11
273.424	14.18
273.638	13.61
273.853	14.97
274.067	14.68
274.281	13.73
274.495	13.72
274.71	13.31
274.924	13.68
275.138	14.37
275.352	12.86
275.566	14.05
275.781	13.6
275.995	13.67
276.209	15.09
276.423	15.15
276.637	13.88
276.851	14.83
277.065	14.81
277.279	15.49
277.493	14.03
277.707	13.94
277.921	14.63
278.135	14.18
278.349	14.82
278.563	14.35
278.777	15.2
278.991	15.98
279.205	15.24
279.419	14.86
279.633	15.13
279.847	16.19
280.061	16.97
280.275	18.42
280.489	18.32
280.703	17.31
280.917	17.15
281.131	15.72
281.344	15.72
281.558	15.45
281.772	15.76
281.986	15.6
282.2	15.95
282.414	14.28
282.627	12.36
282.841	12.26
283.055	13.58
283.269	12.81
283.482	12.66
283.696	12.39
283.91	12.71
284.123	12.01
284.337	11.95
284.551	10.95
284.764	11.52
284.978	9.99
285.192	10.41
285.405	10.05
285.619	10.3
285.833	11.03
286.046	10.63
286.26	10.44
286.473	9.77
286.687	10.15
286.9	10.83
287.114	11.36
287.327	13.2
287.541	11.91
287.754	10.74
287.968	9.89
288.181	9.49
288.395	9.86
288.608	10.58
288.822	12.62
289.035	12.45
289.248	12.2
289.462	12.26
289.675	12.09
289.889	12.45
290.102	11.84
290.315	12.45
290.529	11.99
290.742	12.14
290.955	12.12
291.169	11.83
291.382	10.92
291.595	11.48
291.808	11.93
292.022	12.23
292.235	13.47
292.448	13.82
292.661	13.2
292.875	14.46
293.088	14.45
293.301	13.5
293.514	11.42
293.727	12.06
293.94	11.08
294.153	11.51
294.367	11.09
294.58	9.79
294.793	10.45
295.006	11.64
295.219	11.51
295.432	11.37
295.645	10.63
295.858	10.87
296.071	10.73
296.284	10.37
296.497	8.76
296.71	9.02
296.923	9.72
297.136	8.59
297.349	8.06
297.562	6.93
297.775	7.61
297.988	8.09
298.201	9.12
298.414	8.29
298.626	8.82
298.839	9.84
299.052	8.96
299.265	8.57
299.478	10.13
299.691	10.26
299.903	11.19
300.116	11.42
300.329	11.1
300.542	10.55
300.755	12.66
300.967	12.71
301.18	12.42
301.393	12.58
301.605	13.22
301.818	12.85
302.031	14.26
302.243	14.6
302.456	12.84
302.669	13.78
302.881	13.97
303.094	13.04
303.307	13.71
303.519	14.75
303.732	14.92
303.944	14.15
304.157	14.17
304.37	12.99
304.582	12.29
304.795	12.87
305.007	12.78
305.22	12.87
305.432	12.81
305.645	12.72
305.857	11.71
306.069	12.88
306.282	12.74
306.494	13.78
306.707	13.86
306.919	14.49
307.132	13.84
307.344	14.12
307.556	14.62
307.769	14.49
307.981	13.16
308.193	13.46
308.406	12.88
308.618	13.55
308.83	13.06
309.043	12.74
309.255	14.18
309.467	13.83
309.679	12.98
309.892	12.58
310.104	12.33
310.316	13.29
310.528	13.04
310.74	11.78
310.953	11.41
311.165	11.7
311.377	11.53
311.589	11.12
311.801	12.3
312.013	13.23
312.225	13.73
312.437	13.42
312.649	13.56
312.862	14.63
313.074	14.69
313.286	14.65
313.498	15.01
313.71	15.01
313.922	14.9
314.134	14.97
314.346	13.9
314.558	13.52
314.77	14.43
314.982	15.34
315.193	15.18
315.405	16.44
315.617	16.48
315.829	16.33
316.041	17.17
316.253	17.49
316.465	17.65
316.677	17.38
316.888	17.86
317.1	16.6
317.312	15.57
317.524	15.04
317.736	16.91
317.947	17.71
318.159	17.87
318.371	17.95
318.583	16.49
318.794	16.17
319.006	17.09
319.218	15.79
319.43	16.4
319.641	17.8
319.853	18.52
320.064	16.94
320.276	16.24
320.488	15.42
320.699	15.2
320.911	15.63
321.123	17.57
321.334	19.57
321.546	21.66
321.757	22.55
321.969	20.61
322.18	19.63
322.392	19.07
322.603	17.97
322.815	17.45
323.026	16.42
323.238	16.6
323.449	14.21
323.661	12.59
323.872	12.33
324.083	11.32
324.295	11.39
324.506	12.49
324.718	11.53
324.929	12.25
325.14	13.12
325.352	14.32
325.563	14.33
325.774	14.14
325.986	14.05
326.197	13.16
326.408	13.85
326.62	13.83
326.831	13.29
327.042	14.99
327.253	15.02
327.464	16.48
327.676	15.45
327.887	15.61
328.098	16.67
328.309	17.22
328.52	17.06
328.732	16.35
328.943	16.66
329.154	16.58
329.365	16.45
329.576	18.65
329.787	16.04
329.998	17.26
330.209	15.32
330.42	14.03
330.631	14.13
330.842	13.96
331.053	14.79
331.264	14.29
331.475	13.99
331.686	14.08
331.897	12.27
332.108	13.79
332.319	12.96
332.53	13.82
332.741	14.6
332.952	14.07
333.163	14.4
333.374	13.88
333.585	13.92
333.795	14.68
334.006	14.13
334.217	13.41
334.428	12.99
334.639	13.09
334.849	12.75
335.06	12.45
335.271	13.12
335.482	15.33
335.692	15.06
335.903	15.52
336.114	15.65
336.325	15.51
336.535	15.38
336.746	15.94
336.957	16.31
337.167	17.75
337.378	18.61
337.589	17.42
337.799	16.83
338.01	18.97
338.22	18.46
338.431	18.32
338.642	18.47
338.852	19.16
339.063	19.14
339.273	18.8
339.484	18.52
339.694	18.04
339.905	19.03
340.115	17.93
340.326	16.54
340.536	17.18
340.746	16.31
340.957	15.78
341.167	15.76
341.378	15.67
341.588	15.06
341.799	14.39
342.009	14.14
342.219	14.38
342.43	14.34
342.64	14.86
342.85	14.95
343.061	14.22
343.271	14.66
343.481	13.87
343.691	12.6
343.902	13.13
344.112	13.25
344.322	12.82
344.532	12.72
344.743	13.16
344.953	13.12
345.163	13.03
345.373	14
345.583	14.55
345.793	15.52
346.004	16.01
346.214	15.62
346.424	15.84
346.634	16.08
346.844	15.41
347.054	15.98
347.264	16.11
347.474	16.81
347.684	17.3
347.894	16.2
348.104	16.46
348.314	16.42
348.524	18.23
348.734	17.72
348.944	17.4
349.154	17.58
349.364	16.44
349.574	14.75
349.784	13.77
349.994	13.27
350.204	13.82
350.413	13.23
350.623	12.56
350.833	10.91
351.043	10.81
351.253	11.69
351.463	11.4
351.672	11.53
351.882	12.61
352.092	13.41
352.302	13.37
352.511	13.21
352.721	13.21
352.931	14.04
353.141	14.76
353.35	14.26
353.56	14.31
353.77	14.13
353.979	14.15
354.189	13.75
354.399	13.29
354.608	13.55
354.818	13.35
355.027	12.64
355.237	11.7
355.447	11.15
355.656	11.22
355.866	10.3
356.075	10.67
356.285	10.51
356.494	10.5
356.704	9.96
356.913	8.98
357.123	9.12
357.332	8.78
357.542	9.42
357.751	8.91
357.96	10.12
358.17	10.39
358.379	10.41
358.589	10.17
358.798	10.56
359.007	10.36
359.217	10.15
359.426	9.74
359.635	10.69
359.845	10.16
360.054	10.4
360.263	9.5
360.472	9.44
360.682	8.65
360.891	8.95
361.1	8.61
361.309	8.67
361.519	9.28
361.728	9.98
361.937	9.64
362.146	10.01
362.355	10.53
362.564	10.68
362.774	11
362.983	11.55
363.192	11.79
363.401	11.98
363.61	12.35
363.819	12.01
364.028	11.11
364.237	11.35
364.446	11.16
364.655	10.76
364.864	11.34
365.073	11.33
365.282	11.66
365.491	11.59
365.7	11.88
365.909	11.89
366.118	12.34
366.327	12.96
366.536	13.29
366.745	13.34
366.954	13.93
367.162	13.8
367.371	14.2
367.58	13.83
367.789	13.59
367.998	13.1
368.207	12.85
368.415	13.2
368.624	12.86
368.833	13.57
369.042	14.22
369.25	14.25
369.459	13.63
369.668	12.98
369.877	12.93
370.085	13.44
370.294	13.6
370.503	14.17
370.711	13.64
370.92	13.72
371.129	14.26
371.337	13.87
371.546	13.03
371.754	13.48
371.963	13.83
372.171	14.44
372.38	14.21
372.589	14.54
372.797	13.53
373.006	14.19
373.214	14.26
373.423	12.84
373.631	13
373.84	12.62
374.048	11.63
374.256	11.42
374.465	11.03
374.673	10.59
374.882	10.1
375.09	9.66
375.298	9.71
375.507	9.13
375.715	8.02
375.923	6.8
376.132	6.26
376.34	6.93
376.548	7.19
376.757	7.55
376.965	7.66
377.173	7.9
377.381	8.67
377.59	8.39
377.798	8.52
378.006	9.59
378.214	10.54
378.423	11.78
378.631	11.27
378.839	10.61
379.047	10.79
379.255	10.84
379.463	10.62
379.671	10.99
379.879	10.55
380.088	11.13
380.296	11.4
380.504	11.24
380.712	10.74
380.92	11.29
381.128	11.83
381.336	11.1
381.544	11.69
381.752	11.18
381.96	11.01
382.168	11.04
382.376	10.93
382.584	10.53
382.791	10.23
382.999	10.72
383.207	10.16
383.415	10.06
383.623	9.96
383.831	9.28
384.039	10.14
384.247	9.95
384.454	10.56
384.662	10.13
384.87	9.37
385.078	9.47
385.285	8.92
385.493	9.62
385.701	8.99
385.909	8.79
386.116	8.81
386.324	8.59
386.532	8.66
386.739	8.27
386.947	8.17
387.155	8.89
387.362	8.5
387.57	9.1
387.778	9.12
387.985	9.3
388.193	9.47
388.4	9.45
388.608	9.45
388.816	9.44
389.023	9.05
389.231	9.61
389.438	9.09
389.646	9.85
389.853	9.64
390.061	9.2
390.268	9.15
390.475	8.98
390.683	8.77
390.89	8.93
391.098	8.32
391.305	8.73
391.512	7.89
391.72	7.8
391.927	7.78
392.135	7.82
392.342	7.8
392.549	8.44
392.756	9.02
392.964	9.37
393.171	9.09
393.378	10.03
393.586	10.04
393.793	9.93
394	10.36
394.207	10.13
394.414	10.19
394.622	10.67
394.829	9.82
395.036	9.32
395.243	9.17
395.45	9.78
395.657	9.83
395.864	9.93
396.072	10.84
396.279	10.86
396.486	11.55
396.693	11.93
396.9	12.1
397.107	12.35
397.314	12.62
397.521	12.97
397.728	12.47
397.935	11.67
398.142	11.59
398.349	11.3
398.556	10.99
398.763	10.54
398.97	10.27
399.177	9.72
399.383	10.32
399.59	10.5
399.797	9.89
400.004	10.31
400.211	10.45
400.418	10.57
400.625	10.82
400.831	10.84
401.038	10.29
401.245	10.16
401.452	9.85
401.658	9.66
401.865	9.36
402.072	9.27
402.279	8.48
402.485	8.27
402.692	7.76
402.899	7.52
403.105	7.65
403.312	8.42
403.519	8.15
403.725	7.96
403.932	7.73
404.138	7.67
404.345	8.18
404.552	8.2
404.758	8.41
404.965	8.48
405.171	8.7
405.378	8.54
405.584	7.81
405.791	7.85
405.997	8.12
406.204	8.16
406.41	8.4
406.617	7.82
406.823	8.09
407.029	8.34
407.236	7.93
407.442	7.93
407.649	8.12
407.855	8.91
408.061	8.94
408.268	9.06
408.474	9.16
408.68	8.4
408.887	8.62
409.093	8.88
409.299	8.85
409.505	9.41
409.712	8.96
409.918	9.21
410.124	8.52
410.33	8.47
410.537	8.42
410.743	8.34
410.949	9.18
411.155	9.05
411.361	9.02
411.567	8.8
411.773	8.5
411.98	8.35
412.186	7.52
412.392	7.51
412.598	7.44
412.804	7.59
413.01	7.49
413.216	7.52
413.422	8.07
413.628	7.41
413.834	7.06
414.04	7.42
414.246	8.17
414.452	8.71
414.658	8.89
414.864	8.91
415.07	9.01
415.275	9.5
415.481	9.04
415.687	8.44
415.893	8.6
416.099	8.75
416.305	8.83
416.511	8.35
416.716	7.88
416.922	8.04
417.128	7.96
417.334	7.59
417.539	6.91
417.745	7.32
417.951	7.26
418.157	7.02
418.362	7.01
418.568	6.8
418.774	6.66
418.979	6.94
419.185	6.45
419.391	6.32
419.596	6.32
419.802	6.35
420.008	6.12
420.213	8.38
420.419	8.57
420.624	8.38
420.83	8.19
421.035	8.28
421.241	7.89
421.446	8.05
421.652	7.96
421.857	7.78
422.063	7.82
422.268	7.7
422.474	5.51
422.679	5.36
422.885	5.4
423.09	5.35
423.295	5.26
423.501	5.46
423.706	5.44
423.911	5.54
424.117	5.64
424.322	5.72
424.527	5.65
424.733	5.55
424.938	5.71
425.143	5.74
425.349	5.84
425.554	6.02
425.759	6.03
425.964	5.88
426.169	5.68
426.375	5.84
426.58	5.76
426.785	5.65
426.99	5.84
427.195	5.71
427.4	5.52
427.605	5.62
427.811	5.39
428.016	5.59
428.221	6.44
428.426	6.94
428.631	7.03
428.836	6.98
429.041	7.48
429.246	7.84
429.451	7.9
429.656	8.2
429.861	7.83
430.066	8.05
430.271	8.22
430.476	7.55
430.681	7.38
430.886	7.08
431.09	7.18
431.295	6.91
431.5	6.42
431.705	6.27
431.91	5.68
432.115	5.9
432.32	5.86
432.524	5.55
432.729	5.47
432.934	5.2
433.139	5.07
433.343	5.2
433.548	5.03
433.753	4.92
433.958	5.24
434.162	5.59
434.367	5.69
434.572	5.78
434.776	5.62
434.981	5.95
435.186	6.31
435.39	6.69
435.595	6.57
435.799	6.64
436.004	6.86
436.209	6.34
436.413	6.25
436.618	6.38
436.822	6.33
437.027	6.57
437.231	5.95
437.436	5.77
437.64	5.55
437.845	5.37
438.049	5.36
438.253	5.59
438.458	5.59
438.662	5.61
438.867	5.36
439.071	5.45
439.275	5.31
439.48	5.69
439.684	5.86
439.888	5.69
440.093	5.99
440.297	5.94
440.501	5.95
440.706	6.21
440.91	6.47
441.114	6.56
441.318	6.64
441.523	6.98
441.727	6.92
441.931	6.74
442.135	6.73
442.339	6.71
442.543	6.9
442.748	6.86
442.952	6.72
443.156	6.43
443.36	6.27
443.564	6.25
443.768	5.49
443.972	5.68
444.176	5.81
444.38	6.18
444.584	6.02
444.788	5.75
444.992	5.65
445.196	5.71
445.4	5.75
445.604	5.7
445.808	5.62
446.012	5.94
446.216	5.58
446.42	5.35
446.624	5.47
446.828	5.35
447.032	5.49
447.235	5.58
447.439	5.38
447.643	5.33
447.847	5.64
448.051	5.78
448.254	5.8
448.458	5.83
448.662	5.95
448.866	6.03
449.069	6.04
449.273	6.02
449.477	5.74
449.681	6.1
449.884	6.06
450.088	6.04
450.292	5.86
450.495	5.97
450.699	6.26
450.902	6.48
451.106	5.98
451.31	6.26
451.513	6.42
451.717	6.51
451.92	6.56
452.124	6.47
452.327	6.22
452.531	6.41
452.734	6.52
452.938	6.53
453.141	6.55
453.345	6.73
453.548	6.41
453.752	6.79
453.955	7.34
454.158	6.76
454.362	6.97
454.565	7.07
454.769	6.79
454.972	6.8
455.175	6.9
455.379	6.59
455.582	6.35
455.785	6.61
455.988	5.99
456.192	5.56
456.395	5.93
456.598	6
456.801	5.88
457.005	5.72
457.208	5.87
457.411	5.67
457.614	5.96
457.817	6.27
458.021	6.21
458.224	6.16
