Data from JASIL_3241_Reflection_3.txt Node
Date: Mon Nov 16 20:29:38 EST 2015
User: Geneva
Spectrometer: USB4E03002
Autoset integration time: false
Trigger mode: 4
Integration Time (sec): 1.000000E-1
Scans to average: 10
Electric dark correction enabled: false
Nonlinearity correction enabled: false
Boxcar width: 5
Stray light correction enabled: false
XAxis mode: Wavelengths
Stop averaging: false
Number of Pixels in Spectrum: 3648
>>>>>Begin Spectral Data<<<<<
177.575	-258.12
177.794	-309.29
178.014	-397.59
178.233	-612.15
178.452	-840.96
178.672	-665.91
178.891	-884.91
179.11	3067.57
179.33	950.89
179.549	-4618.18
179.768	898.31
179.987	1154.84
180.207	652.9
180.426	321.25
180.645	388.24
180.864	648.05
181.084	251.67
181.303	218.75
181.522	332.73
181.741	1130.99
181.96	289.17
182.179	388.85
182.398	416
182.618	439.83
182.837	455.04
183.056	327.38
183.275	226.68
183.494	240.47
183.713	271.6
183.932	217.45
184.151	211.38
184.37	208.08
184.589	154.62
184.808	133.38
185.027	128.49
185.246	149.75
185.465	230.32
185.684	270.31
185.903	1077.01
186.122	449.33
186.341	594.94
186.56	310.79
186.779	423.83
186.998	653.85
187.216	696.06
187.435	550.3
187.654	444.86
187.873	249.87
188.092	197.51
188.311	171.04
188.53	213.4
188.748	257.76
188.967	586.4
189.186	378.54
189.405	409.09
189.623	359.72
189.842	313.17
190.061	344.02
190.28	832.05
190.498	-768.75
190.717	672.22
190.936	-1333.9
191.154	-500
191.373	-11333.33
191.592	-6109.09
191.81	-264.94
192.029	-392.37
192.248	-105.88
192.466	-105.31
192.685	-147.91
192.904	-222.34
193.122	-117.07
193.341	-281.08
193.559	-224.37
193.778	-305.45
193.996	-481.68
194.215	24525
194.433	-2450
194.652	497.54
194.87	436.36
195.089	365.94
195.307	444.21
195.526	1077.97
195.744	711.4
195.963	467.58
196.181	8800
196.399	-483.76
196.618	2630
196.836	7200
197.055	-462.3
197.273	-1144.83
197.491	-758.89
197.71	-1354.9
197.928	1093.75
198.146	1788.1
198.365	-8760
198.583	432.03
198.801	566.67
199.019	1275.32
199.238	-2483.33
199.456	1074.53
199.674	443.64
199.892	317.96
200.111	434.62
200.329	449.81
200.547	354.37
200.765	321.99
200.983	363.55
201.202	312.86
201.42	456.3
201.638	312.74
201.856	354.55
202.074	1061.98
202.292	1394.95
202.51	785.71
202.728	1045.36
202.946	-2615
203.165	3496.97
203.383	-1211.34
203.601	-1360.47
203.819	2690
204.037	13240
204.255	1371.13
204.473	601.4
204.691	766.67
204.909	590.61
205.127	665.12
205.345	676.14
205.562	587.13
205.78	369.13
205.998	443.67
206.216	363.57
206.434	339.53
206.652	300.91
206.87	229.53
207.088	217.04
207.306	250.12
207.523	239.84
207.741	218.17
207.959	221.79
208.177	245.27
208.395	196.08
208.612	208.07
208.83	201.23
209.048	207.12
209.266	287.86
209.483	273.88
209.701	233.68
209.919	260.33
210.136	255.02
210.354	578.5
210.572	542.53
210.79	865.19
211.007	551.09
211.225	764.34
211.442	-4090.48
211.66	-976.39
211.878	-422.22
212.095	88.17
212.313	78.55
212.53	106.96
212.748	70.48
212.966	78.03
213.183	79.02
213.401	70.41
213.618	68.88
213.836	90.1
214.053	83.48
214.271	87.1
214.488	747.9
214.705	400
214.923	323.55
215.14	332.74
215.358	248
215.575	356.6
215.793	389.95
216.01	690.8
216.227	245.32
216.445	203.55
216.662	225.74
216.879	218.85
217.097	195.12
217.314	184.43
217.531	232.86
217.749	283.87
217.966	355.33
218.183	330.03
218.4	347.56
218.618	436.61
218.835	439.26
219.052	345.21
219.269	296.23
219.487	464.58
219.704	318.79
219.921	245.74
220.138	182.92
220.355	173.27
220.572	159.43
220.79	156.43
221.007	158.8
221.224	203.65
221.441	194.2
221.658	203.69
221.875	149.57
222.092	149.44
222.309	161.59
222.526	126.61
222.743	128.23
222.96	175
223.177	115.92
223.394	130.86
223.611	88.54
223.828	81.11
224.045	112.99
224.262	126.34
224.479	93.07
224.696	67.65
224.913	96.45
225.13	68.45
225.347	50.62
225.564	43.51
225.781	45.08
225.997	54.8
226.214	40.02
226.431	30.6
226.648	22.82
226.865	22.47
227.082	25.62
227.298	19.63
227.515	21.27
227.732	20.26
227.949	17.01
228.165	17.81
228.382	14.02
228.599	14.06
228.816	12.08
229.032	12.9
229.249	11.79
229.466	13.18
229.682	15.47
229.899	12.91
230.116	13.64
230.332	17.17
230.549	19.44
230.765	19.84
230.982	24.9
231.199	30.23
231.415	32.52
231.632	36.22
231.848	38.14
232.065	41.28
232.281	43.07
232.498	49.01
232.714	50.41
232.931	43.91
233.147	46.16
233.364	41.58
233.58	39.34
233.797	43.79
234.013	37.21
234.23	38.67
234.446	39.06
234.662	40.17
234.879	42.75
235.095	39.36
235.312	44.47
235.528	39.88
235.744	45.06
235.961	45.13
236.177	44.46
236.393	54.04
236.61	55.46
236.826	54.48
237.042	52.06
237.258	44.41
237.475	42.14
237.691	42.04
237.907	45.31
238.123	40.22
238.339	38.94
238.556	37.58
238.772	33.59
238.988	28.82
239.204	26.62
239.42	26.98
239.636	29.36
239.853	27.08
240.069	20.64
240.285	19.94
240.501	19.06
240.717	18.71
240.933	14.95
241.149	11.87
241.365	13.61
241.581	13.47
241.797	10.26
242.013	9.38
242.229	10.53
242.445	11.32
242.661	13.04
242.877	13.13
243.093	10.82
243.309	13.43
243.525	14.66
243.741	12.4
243.957	11.69
244.173	15.65
244.388	16.48
244.604	17.82
244.82	17.67
245.036	16.08
245.252	14.31
245.468	14.25
245.683	13.24
245.899	13.19
246.115	14.15
246.331	13.57
246.547	13.18
246.762	11.39
246.978	11.14
247.194	10.89
247.409	10.86
247.625	12.08
247.841	12.23
248.057	11.49
248.272	12.54
248.488	13.06
248.703	13.77
248.919	15.56
249.135	17.46
249.35	16.69
249.566	20.42
249.782	20.16
249.997	19.91
250.213	19.31
250.428	17.87
250.644	16.5
250.859	13.54
251.075	11.22
251.29	10.09
251.506	12.02
251.721	13.16
251.937	10.62
252.152	13.62
252.368	12.85
252.583	13.57
252.798	15.38
253.014	15.49
253.229	17.06
253.445	20.44
253.66	20.57
253.875	18.95
254.091	20.18
254.306	21.71
254.521	16.8
254.737	18.18
254.952	20.15
255.167	21.19
255.383	21.44
255.598	19.69
255.813	19.94
256.028	20.49
256.244	22.14
256.459	20.88
256.674	21.54
256.889	19.09
257.104	16.16
257.32	14.94
257.535	13.07
257.75	11.05
257.965	10.51
258.18	10.05
258.395	8.72
258.61	8.01
258.826	7.97
259.041	7.04
259.256	7.84
259.471	8.6
259.686	8.54
259.901	8.81
260.116	9.22
260.331	10.38
260.546	10.22
260.761	10.41
260.976	10.29
261.191	9.91
261.406	10.75
261.621	11.46
261.836	12.89
262.05	12.4
262.265	15.19
262.48	16.28
262.695	14.37
262.91	15.11
263.125	15.65
263.34	15.52
263.555	17.44
263.769	17.31
263.984	17.39
264.199	16.68
264.414	19.16
264.629	15.63
264.843	14.7
265.058	14.77
265.273	12.9
265.488	13.11
265.702	13.74
265.917	14.2
266.132	13.17
266.346	12.55
266.561	11.99
266.776	10.81
266.99	11.92
267.205	13.21
267.42	14.88
267.634	16.15
267.849	14.83
268.063	15.32
268.278	15.71
268.492	16.69
268.707	16.97
268.922	15.27
269.136	13.09
269.351	11.31
269.565	9.56
269.78	8.9
269.994	7.34
270.209	8.28
270.423	8.2
270.637	7.78
270.852	7.11
271.066	7.6
271.281	10.63
271.495	11.27
271.709	11.32
271.924	11.85
272.138	11.66
272.353	12.96
272.567	13.01
272.781	12.52
272.996	11.19
273.21	11.22
273.424	11.77
273.638	10.74
273.853	13.1
274.067	15.05
274.281	14.38
274.495	14.06
274.71	12.76
274.924	12.31
275.138	11.94
275.352	12.34
275.566	13.58
275.781	12.74
275.995	12.16
276.209	10.89
276.423	10.99
276.637	12.55
276.851	14.27
277.065	14.26
277.279	16.82
277.493	15.32
277.707	15.34
277.921	14.5
278.135	14.34
278.349	16
278.563	14.4
278.777	13.76
278.991	13.42
279.205	12.39
279.419	12.89
279.633	10.94
279.847	12.49
280.061	12.93
280.275	12.22
280.489	11.23
280.703	8.57
280.917	10.26
281.131	9.58
281.344	10.4
281.558	10.61
281.772	11.24
281.986	11.65
282.2	12.09
282.414	10.73
282.627	10.91
282.841	10.6
283.055	11.17
283.269	11.1
283.482	11.25
283.696	9.57
283.91	8.75
284.123	8.23
284.337	7.74
284.551	7.74
284.764	8.13
284.978	7.35
285.192	7.81
285.405	8.44
285.619	7.53
285.833	8.22
286.046	8.08
286.26	7.5
286.473	7.45
286.687	7.24
286.9	7.69
287.114	8.95
287.327	10.21
287.541	9.71
287.754	8.22
287.968	8.74
288.181	8.69
288.395	8.86
288.608	11.01
288.822	11.61
289.035	12.37
289.248	11.55
289.462	10.8
289.675	11.14
289.889	11.85
290.102	12.47
290.315	12.94
290.529	11.94
290.742	12.76
290.955	12.1
291.169	11.74
291.382	10.99
291.595	13.17
291.808	13.26
292.022	12.76
292.235	12.64
292.448	13.5
292.661	12.49
292.875	13.98
293.088	13.36
293.301	11.83
293.514	10.77
293.727	10.06
293.94	6.65
294.153	7.86
294.367	8
294.58	7.93
294.793	7.73
295.006	8.71
295.219	7.2
295.432	7.96
295.645	8.3
295.858	8.64
296.071	9.58
296.284	10.2
296.497	8.45
296.71	8.61
296.923	8.97
297.136	8.17
297.349	7.43
297.562	8.4
297.775	7.65
297.988	7.65
298.201	8.32
298.414	6.53
298.626	7.11
298.839	7.5
299.052	7.02
299.265	6.27
299.478	6.54
299.691	6.88
299.903	6
300.116	7.42
300.329	8.44
300.542	8.26
300.755	10.7
300.967	10.94
301.18	11.56
301.393	11.63
301.605	13.53
301.818	13.07
302.031	13.2
302.243	14.43
302.456	13.5
302.669	12.88
302.881	13.48
303.094	13.04
303.307	12.43
303.519	13.02
303.732	13.98
303.944	12.06
304.157	13.25
304.37	13.85
304.582	13.06
304.795	12.78
305.007	12.21
305.22	11.91
305.432	11.87
305.645	12.49
305.857	11.5
306.069	11.31
306.282	11.71
306.494	11.18
306.707	11.15
306.919	10.68
307.132	9.88
307.344	9.83
307.556	9.45
307.769	8.63
307.981	8.55
308.193	8.98
308.406	8.45
308.618	9.18
308.83	9.62
309.043	8.51
309.255	9.55
309.467	10.62
309.679	10.88
309.892	11.08
310.104	11.24
310.316	11.15
310.528	10.9
310.74	9.47
310.953	8.7
311.165	9.69
311.377	9.38
311.589	9.4
311.801	9.7
312.013	9.88
312.225	11.23
312.437	11.82
312.649	11.66
312.862	12.29
313.074	12.72
313.286	14.86
313.498	14.08
313.71	16.09
313.922	16.43
314.134	17.18
314.346	17.57
314.558	15.35
314.77	14.21
314.982	14.26
315.193	13.59
315.405	14.67
315.617	12.32
315.829	13.13
316.041	11.58
316.253	11.43
316.465	10.11
316.677	8.93
316.888	9.37
317.1	10.75
317.312	11.38
317.524	11.68
317.736	12.28
317.947	12.94
318.159	12.97
318.371	12.3
318.583	11.57
318.794	12.47
319.006	13.56
319.218	12.63
319.43	12.43
319.641	12.34
319.853	12.91
320.064	13.03
320.276	13.44
320.488	11.94
320.699	12.01
320.911	12.32
321.123	12.18
321.334	13.46
321.546	15.68
321.757	15.97
321.969	16.93
322.18	17.31
322.392	16.18
322.603	15.82
322.815	15.43
323.026	17.4
323.238	18.7
323.449	16.61
323.661	15.82
323.872	14.48
324.083	13.93
324.295	12.48
324.506	12.08
324.718	11.73
324.929	12.55
325.14	13.03
325.352	13
325.563	12.55
325.774	13.46
325.986	12.86
326.197	12.79
326.408	13.55
326.62	14.22
326.831	13.54
327.042	14.33
327.253	13.52
327.464	14.81
327.676	14.02
327.887	14.04
328.098	15.85
328.309	16.17
328.52	17.93
328.732	17.52
328.943	17.81
329.154	18.07
329.365	19.35
329.576	20.39
329.787	18.25
329.998	19.24
330.209	16.82
330.42	14.96
330.631	16.93
330.842	15.89
331.053	17.56
331.264	17.24
331.475	16.72
331.686	15.82
331.897	13.94
332.108	14.8
332.319	14.41
332.53	15.93
332.741	16.58
332.952	14.57
333.163	13.65
333.374	11.25
333.585	10.84
333.795	11.6
334.006	11.17
334.217	12.46
334.428	11.45
334.639	10.61
334.849	10.27
335.06	9.94
335.271	10.7
335.482	13.09
335.692	13.49
335.903	14.53
336.114	15.37
336.325	15.46
336.535	16.17
336.746	18.02
336.957	19.54
337.167	18.5
337.378	19.78
337.589	18.77
337.799	17.2
338.01	19.02
338.22	17.51
338.431	16.93
338.642	17.14
338.852	15.92
339.063	14.86
339.273	13.34
339.484	15.12
339.694	13.5
339.905	14.79
340.115	14.24
340.326	13.37
340.536	15.41
340.746	15.97
340.957	16.43
341.167	16.53
341.378	17.12
341.588	17.39
341.799	16.67
342.009	16.75
342.219	15.76
342.43	16.17
342.64	15.64
342.85	13.95
343.061	13.36
343.271	12.88
343.481	12.69
343.691	12.35
343.902	14.14
344.112	14.11
344.322	13.59
344.532	14.72
344.743	15.75
344.953	16.36
345.163	17.25
345.373	17.62
345.583	17.17
345.793	17.3
346.004	17.26
346.214	15.58
346.424	15.08
346.634	14.76
346.844	14.45
347.054	14.16
347.264	13.21
347.474	14.32
347.684	13.65
347.894	13.81
348.104	13.61
348.314	13.22
348.524	13.87
348.734	14.86
348.944	15.75
349.154	15.29
349.364	15.43
349.574	15.46
349.784	14.94
349.994	15.26
350.204	15.34
350.413	15.78
350.623	16.26
350.833	16.41
351.043	15.88
351.253	15.84
351.463	15.34
351.672	14.35
351.882	15.05
352.092	15.02
352.302	15.91
352.511	15.65
352.721	15.73
352.931	15.38
353.141	14.8
353.35	14.83
353.56	15.41
353.77	15.58
353.979	16.2
354.189	14.94
354.399	13.28
354.608	12.66
354.818	12.44
355.027	12.13
355.237	12.01
355.447	11.8
355.656	11.9
355.866	11.61
356.075	11.56
356.285	10.95
356.494	11.56
356.704	12
356.913	11.49
357.123	11.9
357.332	11.84
357.542	11.09
357.751	11.07
357.96	10.89
358.17	11.15
358.379	11.23
358.589	10.76
358.798	11.22
359.007	11.32
359.217	10.46
359.426	10.39
359.635	10.7
359.845	10.89
360.054	11.47
360.263	11.62
360.472	10.88
360.682	11.49
360.891	12.1
361.1	11.57
361.309	10.74
361.519	11.27
361.728	11.05
361.937	10.73
362.146	11.6
362.355	11.72
362.564	12.14
362.774	12.99
362.983	12.48
363.192	12.83
363.401	13.96
363.61	15.01
363.819	16.12
364.028	15.93
364.237	16.01
364.446	15.45
364.655	15.17
364.864	14.99
365.073	15.03
365.282	14.97
365.491	15.03
365.7	14.28
365.909	14.18
366.118	12.97
366.327	14.02
366.536	15.14
366.745	14.95
366.954	14.97
367.162	15.64
367.371	15.13
367.58	15.23
367.789	14.49
367.998	13.77
368.207	13.99
368.415	15.43
368.624	14.81
368.833	13.55
369.042	13.35
369.25	13.5
369.459	12.42
369.668	12.1
369.877	12.56
370.085	13.27
370.294	13.5
370.503	12.91
370.711	11.6
370.92	11.47
371.129	12.89
371.337	13.42
371.546	12.32
371.754	12.43
371.963	11.99
372.171	11.44
372.38	10.6
372.589	11.36
372.797	11.74
373.006	12.3
373.214	13.11
373.423	11.57
373.631	12.11
373.84	12.6
374.048	11.09
374.256	11.56
374.465	12.29
374.673	12.66
374.882	12.28
375.09	11.23
375.298	11.2
375.507	10.55
375.715	10.32
375.923	8.69
376.132	8.43
376.34	9.94
376.548	10.37
376.757	10.54
376.965	11.09
377.173	11.01
377.381	12.15
377.59	12.41
377.798	12.24
378.006	12.34
378.214	13.35
378.423	13.79
378.631	13.41
378.839	12.54
379.047	12.42
379.255	12.13
379.463	11.6
379.671	11.64
379.879	11.07
380.088	11.55
380.296	12.02
380.504	12.26
380.712	12.23
380.92	12.01
381.128	12.82
381.336	11.87
381.544	11.94
381.752	11.6
381.96	11.41
382.168	11.93
382.376	11.26
382.584	10.71
382.791	9.91
382.999	10
383.207	9.59
383.415	9.5
383.623	9.34
383.831	8.44
384.039	9.54
384.247	9.77
384.454	10.11
384.662	9.88
384.87	9.55
385.078	9.53
385.285	9.3
385.493	9.96
385.701	9.84
385.909	10.42
386.116	10.34
386.324	9.93
386.532	9.87
386.739	8.96
386.947	8.94
387.155	9.87
387.362	9.92
387.57	9.38
387.778	9.44
387.985	8.79
388.193	8.73
388.4	9.01
388.608	9.66
388.816	8.95
389.023	8.74
389.231	9.34
389.438	9.12
389.646	9.06
389.853	9.41
390.061	9.13
390.268	9.67
390.475	9.24
390.683	8.46
390.89	7.9
391.098	7.75
391.305	8.48
391.512	7.98
391.72	6.71
391.927	7.07
392.135	7.49
392.342	7.31
392.549	7.39
392.756	7.45
392.964	8.78
393.171	8.81
393.378	9.19
393.586	8.7
393.793	8.45
394	9.58
394.207	9.66
394.414	9.82
394.622	9.98
394.829	10.01
395.036	10.2
395.243	9.34
395.45	9.35
395.657	9.54
395.864	9.68
396.072	10.71
396.279	10.55
396.486	10.22
396.693	10.19
396.9	10.62
397.107	10.25
397.314	9.91
397.521	10.18
397.728	10.08
397.935	9.55
398.142	9.08
398.349	8.83
398.556	8.82
398.763	8.91
398.97	8.87
399.177	8.3
399.383	8.89
399.59	9.42
399.797	9.21
400.004	9.64
400.211	9.9
400.418	10.81
400.625	11.1
400.831	10.67
401.038	10.61
401.245	10.19
401.452	10.86
401.658	10.7
401.865	10.94
402.072	10.53
402.279	9.73
402.485	9.89
402.692	9.52
402.899	8.67
403.105	9.2
403.312	9.44
403.519	9.32
403.725	8.11
403.932	7.83
404.138	7.04
404.345	7.55
404.552	7.79
404.758	7.86
404.965	7.42
405.171	7.91
405.378	7.92
405.584	7.68
405.791	8.1
405.997	8.85
406.204	8.82
406.41	9.27
406.617	8.83
406.823	8.99
407.029	8.58
407.236	8.6
407.442	8.7
407.649	8.4
407.855	8.69
408.061	8.43
408.268	8.52
408.474	8.51
408.68	8
408.887	8.4
409.093	8.5
409.299	8.77
409.505	8.76
409.712	8.23
409.918	7.96
410.124	7.59
410.33	7.08
410.537	6.94
410.743	7.03
410.949	7.61
411.155	7.55
411.361	7.77
411.567	7.63
411.773	7.8
411.98	8.13
412.186	8.02
412.392	7.81
412.598	7.88
412.804	8.09
413.01	8.05
413.216	8.44
413.422	8.2
413.628	7.39
413.834	7.44
414.04	8.02
414.246	7.57
414.452	8.27
414.658	8.86
414.864	9.39
415.07	9.28
415.275	9.39
415.481	8.98
415.687	9.01
415.893	9.19
416.099	9.28
416.305	9.1
416.511	9.34
416.716	8.89
416.922	8.65
417.128	7.93
417.334	8.19
417.539	7.67
417.745	7.4
417.951	7.09
418.157	6.98
418.362	6.63
418.568	6.15
418.774	5.94
418.979	6.02
419.185	5.65
419.391	6.1
419.596	5.6
419.802	5.8
420.008	5.48
420.213	5.36
420.419	5.2
420.624	5.19
420.83	5.38
421.035	5.36
421.241	4.9
421.446	5.15
421.652	4.9
421.857	4.86
422.063	4.91
422.268	5.11
422.474	5.34
422.679	5.29
422.885	5.38
423.09	5.21
423.295	5.17
423.501	5.52
423.706	5.27
423.911	5.22
424.117	5.28
424.322	5.12
424.527	5.17
424.733	5.09
424.938	5.3
425.143	5.11
425.349	5.13
425.554	5.35
425.759	5.22
425.964	5.47
426.169	5.61
426.375	5.64
426.58	5.54
426.785	5.37
426.99	5.64
427.195	5.7
427.4	5.77
427.605	5.92
427.811	5.7
428.016	5.85
428.221	6.15
428.426	6.19
428.631	6.35
428.836	6.47
429.041	6.82
429.246	7.11
429.451	7.18
429.656	7.2
429.861	6.99
430.066	6.88
430.271	7.13
430.476	6.42
430.681	6.35
430.886	6.27
431.09	6.34
431.295	6.1
431.5	5.56
431.705	5.38
431.91	5.48
432.115	5.41
432.32	5.61
432.524	5.38
432.729	5.61
432.934	5.59
433.139	5.59
433.343	5.28
433.548	5.13
433.753	5.11
433.958	5.59
434.162	5.74
434.367	5.83
434.572	5.99
434.776	5.92
434.981	6.02
435.186	5.84
435.39	5.72
435.595	6.3
435.799	6.47
436.004	6.33
436.209	5.72
436.413	5.26
436.618	5.39
436.822	5.43
437.027	5.43
437.231	4.92
437.436	5.05
437.64	5.06
437.845	4.82
438.049	4.85
438.253	5.29
438.458	5.25
438.662	5.64
438.867	5.31
439.071	5.02
439.275	5.06
439.48	5.54
439.684	5.64
439.888	5.72
440.093	6
440.297	5.96
440.501	5.76
440.706	5.95
440.91	6.09
441.114	6.22
441.318	6.67
441.523	6.72
441.727	6.75
441.931	6.85
442.135	6.65
442.339	6.32
442.543	6.32
442.748	6.52
442.952	6.54
443.156	6.3
443.36	6.22
443.564	5.9
443.768	5.64
443.972	5.65
444.176	5.22
444.38	5.37
444.584	5.44
444.788	5.16
444.992	4.98
445.196	4.83
445.4	4.91
445.604	4.97
445.808	4.84
446.012	5.03
446.216	4.91
446.42	5.11
446.624	5.51
446.828	5.24
447.032	5.55
447.235	5.71
447.439	5.7
447.643	5.4
447.847	5.6
448.051	5.8
448.254	5.8
448.458	5.75
448.662	5.82
448.866	5.63
449.069	5.84
449.273	5.85
449.477	5.74
449.681	5.8
449.884	5.65
450.088	5.66
450.292	5.55
450.495	5.56
450.699	5.28
450.902	5.36
451.106	5.01
451.31	5.34
451.513	5.34
451.717	5.15
451.92	5.24
452.124	5.78
452.327	5.93
452.531	5.87
452.734	5.94
452.938	6.22
453.141	6.01
453.345	6.26
453.548	5.88
453.752	5.86
453.955	6.45
454.158	6.32
454.362	6.15
454.565	5.92
454.769	5.97
454.972	6.23
455.175	6.21
455.379	6.46
455.582	5.92
455.785	6.11
455.988	6.11
456.192	5.85
456.395	6.06
456.598	6.26
456.801	5.93
457.005	5.66
457.208	5.51
457.411	5.52
457.614	5.62
457.817	6.02
458.021	6.07
458.224	6.02
458.427	5.81
458.63	5.85
458.833	5.57
459.036	5.66
459.239	5.76
459.442	5.55
459.645	5.63
459.848	5.68
