Data from JASIL_2930_Reflection_1.txt Node
Date: Sat Nov 07 20:48:44 EST 2015
User: Geneva
Spectrometer: USB4E03002
Autoset integration time: false
Trigger mode: 4
Integration Time (sec): 1.000000E-1
Scans to average: 10
Electric dark correction enabled: true
Nonlinearity correction enabled: false
Boxcar width: 5
Stray light correction enabled: false
XAxis mode: Wavelengths
Stop averaging: false
Number of Pixels in Spectrum: 3648
>>>>>Begin Spectral Data<<<<<
177.575	-901.92
177.794	-101.38
178.014	-323.99
178.233	23.87
178.452	88.92
178.672	153.56
178.891	146.95
179.11	0
179.33	1071.08
179.549	-1398.46
179.768	481.67
179.987	-82.69
180.207	122.95
180.426	67.28
180.645	69.75
180.864	73.69
181.084	86.32
181.303	68.26
181.522	57.91
181.741	64.56
181.96	62.7
182.179	50.73
182.398	40.37
182.618	22.75
182.837	13.67
183.056	0.9
183.275	2.32
183.494	-8.87
183.713	13.57
183.932	8.81
184.151	-10.03
184.37	10.19
184.589	13.41
184.808	15.25
185.027	17.46
185.246	13.29
185.465	29.29
185.684	33.35
185.903	31.96
186.122	33.66
186.341	37.43
186.56	42.57
186.779	24.83
186.998	31.04
187.216	37.58
187.435	33.75
187.654	41.86
187.873	18.34
188.092	8.23
188.311	24.2
188.53	17.4
188.748	20.74
188.967	6.33
189.186	30.03
189.405	31.59
189.623	20.42
189.842	44.74
190.061	33.32
190.28	23.25
190.498	15.09
190.717	-1.86
190.936	-18.45
191.154	-62.21
191.373	-54.35
191.592	-81.12
191.81	-89.81
192.029	-65.89
192.248	-107
192.466	-53.84
192.685	-35.41
192.904	-20.71
193.122	-14.86
193.341	-13.85
193.559	13.01
193.778	11.08
193.996	22.46
194.215	23.23
194.433	20.62
194.652	18.34
194.87	18.5
195.089	23.58
195.307	29.74
195.526	34.12
195.744	41.2
195.963	38.17
196.181	40.32
196.399	21.25
196.618	34.99
196.836	25.63
197.055	29.31
197.273	31.88
197.491	49
197.71	44.43
197.928	32.36
198.146	32.14
198.365	34.28
198.583	23.79
198.801	48.94
199.019	30.03
199.238	41.83
199.456	30.38
199.674	19.74
199.892	10.11
200.111	0.9
200.329	25.94
200.547	32.9
200.765	20.63
200.983	13.7
201.202	12.96
201.42	30.64
201.638	17.14
201.856	27.82
202.074	40.27
202.292	42.57
202.51	38.15
202.728	25.57
202.946	6.83
203.165	16.99
203.383	17.55
203.601	10.35
203.819	9.98
204.037	18.13
204.255	21.86
204.473	21.44
204.691	12.07
204.909	5.82
205.127	21.78
205.345	30.78
205.562	26.34
205.78	30.6
205.998	36.91
206.216	33.45
206.434	33.94
206.652	33.16
206.87	26.81
207.088	26.43
207.306	29.52
207.523	28.84
207.741	25.19
207.959	25.26
208.177	15.04
208.395	-20.22
208.612	-43.48
208.83	-31.83
209.048	-22.13
209.266	-52.56
209.483	-61.63
209.701	-58.5
209.919	-64.23
210.136	-59.57
210.354	-22.27
210.572	-2.05
210.79	9.3
211.007	15.97
211.225	22.82
211.442	20.65
211.66	27.63
211.878	31.15
212.095	37.22
212.313	34.92
212.53	34.21
212.748	28.79
212.966	31.88
213.183	31.94
213.401	31
213.618	29.18
213.836	25.06
214.053	17.59
214.271	18.81
214.488	14.57
214.705	6.2
214.923	3.85
215.14	3.64
215.358	4.44
215.575	10.31
215.793	20.21
216.01	22.31
216.227	20.67
216.445	21.68
216.662	14.98
216.879	20.26
217.097	28.12
217.314	29.12
217.531	32.87
217.749	20.47
217.966	13.6
218.183	8.29
218.4	4.33
218.618	7.9
218.835	10.83
219.052	16.59
219.269	11.4
219.487	9.97
219.704	9.72
219.921	7.6
220.138	11.7
220.355	9.13
220.572	7.33
220.79	4.58
221.007	7.64
221.224	7.75
221.441	3.19
221.658	-0.91
221.875	-3.03
222.092	-6.41
222.309	-6.3
222.526	-9.58
222.743	-6.02
222.96	-5.86
223.177	-2.67
223.394	-4.27
223.611	-4.14
223.828	-2.69
224.045	3.93
224.262	7.39
224.479	7.58
224.696	9.37
224.913	12.1
225.13	13.18
225.347	12.2
225.564	9.33
225.781	8.12
225.997	10.12
226.214	9.72
226.431	9.5
226.648	8.82
226.865	9.03
227.082	8.22
227.298	8.74
227.515	8.3
227.732	7.95
227.949	8.43
228.165	8.62
228.382	7.44
228.599	7.63
228.816	7.15
229.032	6.54
229.249	6.69
229.466	6.7
229.682	6.09
229.899	6.03
230.116	6.86
230.332	7.6
230.549	9.26
230.765	10.68
230.982	10.93
231.199	10.67
231.415	11.39
231.632	11.34
231.848	11.54
232.065	11.62
232.281	11.85
232.498	10.94
232.714	10.34
232.931	8.31
233.147	8.56
233.364	7.83
233.58	8.74
233.797	8.98
234.013	9.44
234.23	8.95
234.446	9.17
234.662	9.44
234.879	9.92
235.095	9.58
235.312	10.72
235.528	10.42
235.744	10.1
235.961	10.22
236.177	10.33
236.393	10.01
236.61	10.14
236.826	9.36
237.042	8.7
237.258	8.15
237.475	8.76
237.691	7.42
237.907	7.11
238.123	8.09
238.339	7.43
238.556	7.88
238.772	7.45
238.988	7.71
239.204	8.16
239.42	8.12
239.636	8.73
239.853	8.42
240.069	8.68
240.285	8.78
240.501	8.74
240.717	8.96
240.933	8.57
241.149	8.68
241.365	9.11
241.581	9.01
241.797	8.81
242.013	8.54
242.229	8.93
242.445	8.89
242.661	8.53
242.877	8.67
243.093	8.75
243.309	8.79
243.525	8.56
243.741	8.14
243.957	8.46
244.173	8.93
244.388	9.1
244.604	8.74
244.82	8.77
245.036	8.8
245.252	8.6
245.468	8.49
245.683	8.72
245.899	8.82
246.115	8.58
246.331	8.48
246.547	8.26
246.762	8.16
246.978	8.08
247.194	7.89
247.409	8.01
247.625	7.87
247.841	7.55
248.057	7.22
248.272	7.11
248.488	7.2
248.703	7.05
248.919	6.87
249.135	6.85
249.35	6.84
249.566	6.63
249.782	6.27
249.997	6.68
250.213	6.94
250.428	7.31
250.644	7.17
250.859	7.02
251.075	7.05
251.29	7.13
251.506	6.91
251.721	6.81
251.937	6.97
252.152	7.07
252.368	6.91
252.583	6.84
252.798	6.17
253.014	5.88
253.229	6.34
253.445	6.18
253.66	6.49
253.875	6.39
254.091	5.64
254.306	5.62
254.521	5.44
254.737	5.75
254.952	5.34
255.167	5.93
255.383	6.73
255.598	6.58
255.813	6.08
256.028	5.97
256.244	6.31
256.459	6.31
256.674	6.74
256.889	6.71
257.104	6.48
257.32	6.76
257.535	6.7
257.75	6.33
257.965	6.21
258.18	6.38
258.395	6.35
258.61	6.07
258.826	6.31
259.041	6
259.256	6.01
259.471	5.97
259.686	5.98
259.901	6.02
260.116	6.18
260.331	6.05
260.546	6.02
260.761	6.06
260.976	6.15
261.191	6.09
261.406	6.1
261.621	6.03
261.836	5.8
262.05	5.71
262.265	5.25
262.48	4.9
262.695	5.07
262.91	5.18
263.125	4.94
263.34	5.34
263.555	5.44
263.769	5.62
263.984	5.51
264.199	5.73
264.414	5.86
264.629	5.91
264.843	5.82
265.058	5.66
265.273	5.73
265.488	5.92
265.702	5.78
265.917	5.79
266.132	5.95
266.346	6.11
266.561	5.9
266.776	5.63
266.99	5.78
267.205	5.84
267.42	5.69
267.634	5.61
267.849	5.57
268.063	5.3
268.278	4.96
268.492	4.93
268.707	4.82
268.922	4.75
269.136	4.93
269.351	4.66
269.565	4.97
269.78	4.97
269.994	4.66
270.209	4.5
270.423	4.89
270.637	5.07
270.852	4.95
271.066	4.91
271.281	5.1
271.495	5.16
271.709	5.3
271.924	4.87
272.138	4.83
272.353	5.13
272.567	4.98
272.781	4.75
272.996	4.72
273.21	4.83
273.424	4.77
273.638	4.73
273.853	4.59
274.067	4.45
274.281	4.82
274.495	4.88
274.71	4.62
274.924	4.75
275.138	4.73
275.352	4.6
275.566	4.58
275.781	4.86
275.995	4.94
276.209	4.84
276.423	4.87
276.637	4.45
276.851	4.42
277.065	4.53
277.279	4.71
277.493	4.79
277.707	4.68
277.921	4.54
278.135	4.63
278.349	4.56
278.563	4.42
278.777	4.46
278.991	4.99
279.205	5.41
279.419	5.51
279.633	5.35
279.847	5.3
280.061	5.48
280.275	5.55
280.489	5.46
280.703	5.43
280.917	5.59
281.131	5.71
281.344	5.47
281.558	5.1
281.772	4.99
281.986	4.94
282.2	4.86
282.414	4.87
282.627	4.84
282.841	4.69
283.055	4.7
283.269	4.69
283.482	4.59
283.696	4.38
283.91	4.56
284.123	4.44
284.337	4.39
284.551	4.47
284.764	4.43
284.978	4.53
285.192	4.54
285.405	4.59
285.619	4.68
285.833	4.46
286.046	4.68
286.26	4.69
286.473	4.69
286.687	4.81
286.9	4.78
287.114	4.8
287.327	4.92
287.541	4.94
287.754	4.87
287.968	4.62
288.181	4.78
288.395	4.87
288.608	4.77
288.822	4.76
289.035	4.92
289.248	4.93
289.462	5.19
289.675	5.06
289.889	5.07
290.102	5.23
290.315	5.37
290.529	5.43
290.742	5.31
290.955	5.3
291.169	5.48
291.382	5.27
291.595	5.29
291.808	5.08
292.022	4.97
292.235	4.8
292.448	4.9
292.661	4.88
292.875	5.08
293.088	5.1
293.301	5.14
293.514	5.09
293.727	5.26
293.94	5.4
294.153	5.41
294.367	5.46
294.58	5.54
294.793	5.3
295.006	5.24
295.219	5.36
295.432	5.33
295.645	5.51
295.858	5.43
296.071	5.48
296.284	5.31
296.497	5.26
296.71	5.32
296.923	5.34
297.136	5.51
297.349	5.73
297.562	5.62
297.775	5.72
297.988	5.66
298.201	5.82
298.414	5.63
298.626	5.82
298.839	5.79
299.052	5.75
299.265	5.63
299.478	5.49
299.691	5.18
299.903	5.14
300.116	5.05
300.329	4.9
300.542	4.92
300.755	5.06
300.967	5.18
301.18	5.25
301.393	5.18
301.605	5.31
301.818	5.21
302.031	5.43
302.243	5.43
302.456	5.71
302.669	5.7
302.881	5.68
303.094	5.74
303.307	5.7
303.519	5.85
303.732	6.11
303.944	6.33
304.157	6.36
304.37	6.55
304.582	6.68
304.795	6.38
305.007	6.54
305.22	6.69
305.432	6.57
305.645	6.64
305.857	6.7
306.069	6.56
306.282	6.38
306.494	6.6
306.707	6.43
306.919	6.37
307.132	6.33
307.344	6.22
307.556	6.21
307.769	6.39
307.981	6.36
308.193	6.49
308.406	6.35
308.618	6.46
308.83	6.19
309.043	6.3
309.255	6.34
309.467	6.46
309.679	6.6
309.892	6.63
310.104	6.61
310.316	6.57
310.528	6.4
310.74	6.68
310.953	6.83
311.165	7.17
311.377	7.01
311.589	7
311.801	7.01
312.013	7.12
312.225	7.01
312.437	7.14
312.649	7.2
312.862	7.28
313.074	7.15
313.286	7.01
313.498	6.93
313.71	7.31
313.922	7.26
314.134	7.5
314.346	7.41
314.558	7.49
314.77	7.36
314.982	7.16
315.193	7.18
315.405	7.15
315.617	7.11
315.829	7.1
316.041	7.06
316.253	7.07
316.465	6.91
316.677	6.81
316.888	6.95
317.1	7.06
317.312	7.54
317.524	7.61
317.736	7.79
317.947	7.95
318.159	8.1
318.371	8
318.583	8.15
318.794	8.24
319.006	8.54
319.218	8.43
319.43	8.24
319.641	8.04
319.853	8.16
320.064	8.33
320.276	8.53
320.488	8.51
320.699	8.69
320.911	8.69
321.123	9.17
321.334	9.25
321.546	9.55
321.757	9.69
321.969	9.91
322.18	10.03
322.392	9.81
322.603	9.67
322.815	9.96
323.026	9.96
323.238	9.98
323.449	9.88
323.661	9.92
323.872	9.92
324.083	10.1
324.295	10.18
324.506	10.18
324.718	10.45
324.929	10.85
325.14	10.82
325.352	11
325.563	11.4
325.774	11.47
325.986	11.61
326.197	11.85
326.408	12.19
326.62	12.31
326.831	12.8
327.042	13.02
327.253	13.11
327.464	13.41
327.676	13.43
327.887	13.62
328.098	13.73
328.309	13.9
328.52	14.02
328.732	14.34
328.943	14.66
329.154	14.76
329.365	14.7
329.576	14.91
329.787	14.99
329.998	15.37
330.209	15.43
330.42	15.75
330.631	15.78
330.842	16.01
331.053	15.9
331.264	15.86
331.475	15.79
331.686	16.19
331.897	16.31
332.108	16.36
332.319	16.39
332.53	16.45
332.741	16.45
332.952	16.68
333.163	16.9
333.374	17.17
333.585	17.21
333.795	17.35
334.006	17.36
334.217	17.26
334.428	17.45
334.639	17.52
334.849	17.59
335.06	17.7
335.271	17.78
335.482	17.69
335.692	17.6
335.903	17.64
336.114	17.51
336.325	17.72
336.535	17.8
336.746	17.63
336.957	17.61
337.167	17.57
337.378	17.59
337.589	17.58
337.799	17.66
338.01	17.72
338.22	17.81
338.431	17.89
338.642	17.7
338.852	17.5
339.063	17.6
339.273	17.75
339.484	17.82
339.694	17.7
339.905	17.6
340.115	17.24
340.326	17.02
340.536	17.08
340.746	17.16
340.957	17.07
341.167	17.28
341.378	17.31
341.588	17.23
341.799	17.16
342.009	17.16
342.219	17.37
342.43	17.52
342.64	17.61
342.85	17.38
343.061	17.34
343.271	17.47
343.481	17.46
343.691	17.36
343.902	17.26
344.112	17.42
344.322	17.6
344.532	17.47
344.743	17.53
344.953	17.47
345.163	17.51
345.373	17.52
345.583	17.5
345.793	17.44
346.004	17.4
346.214	17.57
346.424	17.53
346.634	17.37
346.844	17.42
347.054	17.43
347.264	17.66
347.474	17.66
347.684	17.56
347.894	17.57
348.104	17.49
348.314	17.6
348.524	17.53
348.734	17.44
348.944	17.54
349.154	17.41
349.364	17.31
349.574	16.99
349.784	16.97
349.994	17.12
350.204	16.93
350.413	16.86
350.623	16.9
350.833	16.79
351.043	16.74
351.253	16.74
351.463	16.84
351.672	16.83
351.882	17
352.092	17
352.302	16.94
352.511	16.99
352.721	17.01
352.931	16.95
353.141	16.88
353.35	16.9
353.56	16.79
353.77	16.79
353.979	16.94
354.189	16.88
354.399	16.97
354.608	16.82
354.818	16.85
355.027	16.97
355.237	16.92
355.447	17.06
355.656	17.05
355.866	17.13
356.075	16.9
356.285	16.8
356.494	16.79
356.704	16.75
356.913	16.83
357.123	16.7
357.332	16.65
357.542	16.69
357.751	16.54
357.96	16.43
358.17	16.35
358.379	16.47
358.589	16.35
358.798	16.38
359.007	16.39
359.217	16.27
359.426	16.34
359.635	16.27
359.845	16.24
360.054	16.23
360.263	16.17
360.472	16.08
360.682	16.06
360.891	16.11
361.1	16.05
361.309	15.95
361.519	15.93
361.728	16.03
361.937	16.03
362.146	15.94
362.355	15.88
362.564	15.89
362.774	15.93
362.983	15.87
363.192	15.82
363.401	15.77
363.61	15.76
363.819	15.82
364.028	15.66
364.237	15.55
364.446	15.58
364.655	15.61
364.864	15.61
365.073	15.57
365.282	15.58
365.491	15.56
365.7	15.52
365.909	15.56
366.118	15.63
366.327	15.68
366.536	15.75
366.745	15.63
366.954	15.54
367.162	15.6
367.371	15.55
367.58	15.5
367.789	15.43
367.998	15.35
368.207	15.38
368.415	15.24
368.624	15.08
368.833	15.06
369.042	15.11
369.25	15.18
369.459	15.18
369.668	15.16
369.877	15.11
370.085	15.18
370.294	15.11
370.503	15.06
370.711	14.98
370.92	14.89
371.129	14.82
371.337	14.83
371.546	14.69
371.754	14.56
371.963	14.64
372.171	14.61
372.38	14.55
372.589	14.66
372.797	14.56
373.006	14.64
373.214	14.54
373.423	14.56
373.631	14.54
373.84	14.67
374.048	14.64
374.256	14.43
374.465	14.39
374.673	14.22
374.882	14.1
375.09	14.11
375.298	14.04
375.507	14.16
375.715	14.06
375.923	13.95
376.132	13.81
376.34	13.64
376.548	13.64
376.757	13.68
376.965	13.81
377.173	13.92
377.381	13.82
377.59	13.76
377.798	13.71
378.006	13.68
378.214	13.69
378.423	13.75
378.631	13.87
378.839	13.83
379.047	13.76
379.255	13.55
379.463	13.47
379.671	13.34
379.879	13.21
380.088	13.21
380.296	13.22
380.504	13.21
380.712	13.2
380.92	13.29
381.128	13.25
381.336	13.26
381.544	13.41
381.752	13.26
381.96	13.38
382.168	13.42
382.376	13.39
382.584	13.34
382.791	13.31
382.999	13.14
383.207	13
383.415	13
383.623	12.97
383.831	12.89
384.039	12.98
384.247	12.98
384.454	13.04
384.662	13.02
384.87	12.93
385.078	12.96
385.285	13.16
385.493	13.14
385.701	13.13
385.909	13.02
386.116	12.96
386.324	13
386.532	12.9
386.739	12.78
386.947	12.72
387.155	12.69
387.362	12.66
387.57	12.51
387.778	12.51
387.985	12.58
388.193	12.56
388.4	12.64
388.608	12.41
388.816	12.33
389.023	12.37
389.231	12.26
389.438	12.27
389.646	12.1
389.853	12.04
390.061	11.99
390.268	11.9
390.475	11.91
390.683	11.75
390.89	11.84
391.098	11.91
391.305	11.83
391.512	11.82
391.72	11.88
391.927	11.9
392.135	11.83
392.342	11.89
392.549	11.81
392.756	11.8
392.964	11.81
393.171	11.75
393.378	11.71
393.586	11.75
393.793	11.76
394	11.67
394.207	11.68
394.414	11.73
394.622	11.64
394.829	11.66
395.036	11.56
395.243	11.56
395.45	11.58
395.657	11.5
395.864	11.39
396.072	11.47
396.279	11.49
396.486	11.43
396.693	11.37
396.9	11.44
397.107	11.29
397.314	11.31
397.521	11.24
397.728	11.25
397.935	11.27
398.142	11.26
398.349	11.16
398.556	11.11
398.763	11.14
398.97	11.1
399.177	11.05
399.383	11.12
399.59	11.06
399.797	11.03
400.004	10.91
400.211	10.88
400.418	10.85
400.625	10.86
400.831	10.82
401.038	10.79
401.245	10.75
401.452	10.62
401.658	10.65
401.865	10.69
402.072	10.74
402.279	10.78
402.485	10.76
402.692	10.71
402.899	10.65
403.105	10.72
403.312	10.64
403.519	10.64
403.725	10.74
403.932	10.76
404.138	10.75
404.345	10.68
404.552	10.63
404.758	10.67
404.965	10.7
405.171	10.73
405.378	10.6
405.584	10.68
405.791	10.68
405.997	10.63
406.204	10.51
406.41	10.48
406.617	10.51
406.823	10.52
407.029	10.51
407.236	10.52
407.442	10.43
407.649	10.61
407.855	10.66
408.061	10.64
408.268	10.58
408.474	10.64
408.68	10.66
408.887	10.58
409.093	10.58
409.299	10.5
409.505	10.48
409.712	10.57
409.918	10.43
410.124	10.34
410.33	10.34
410.537	10.35
410.743	10.36
410.949	10.38
411.155	10.44
411.361	10.42
411.567	10.43
411.773	10.35
411.98	10.29
412.186	10.3
412.392	10.26
412.598	10.25
412.804	10.25
413.01	10.13
413.216	10.05
413.422	10.08
413.628	10.12
413.834	10.12
414.04	10.14
414.246	10.09
414.452	9.99
414.658	10
414.864	9.98
415.07	9.96
415.275	10.01
415.481	10
415.687	9.83
415.893	9.74
416.099	9.71
416.305	9.75
416.511	9.74
416.716	9.74
416.922	9.72
417.128	9.7
417.334	9.71
417.539	9.69
417.745	9.69
417.951	9.74
418.157	9.78
418.362	9.79
418.568	9.77
418.774	9.77
418.979	9.79
419.185	9.82
419.391	9.87
419.596	9.81
419.802	9.82
420.008	9.78
420.213	9.76
420.419	9.73
420.624	9.72
420.83	9.71
421.035	9.72
421.241	9.72
421.446	9.74
421.652	9.71
421.857	9.71
422.063	9.66
422.268	9.69
422.474	9.72
422.679	9.73
422.885	9.75
423.09	9.74
423.295	9.69
423.501	9.67
423.706	9.61
423.911	9.59
424.117	9.57
424.322	9.59
424.527	9.59
424.733	9.57
424.938	9.59
425.143	9.53
425.349	9.5
425.554	9.52
425.759	9.52
425.964	9.5
426.169	9.5
426.375	9.52
426.58	9.51
426.785	9.5
426.99	9.46
427.195	9.37
427.4	9.37
427.605	9.39
427.811	9.44
428.016	9.43
428.221	9.49
428.426	9.45
428.631	9.4
428.836	9.39
429.041	9.39
429.246	9.47
429.451	9.55
429.656	9.57
429.861	9.56
430.066	9.53
430.271	9.49
430.476	9.46
430.681	9.46
430.886	9.48
431.09	9.57
431.295	9.54
431.5	9.51
431.705	9.51
431.91	9.5
432.115	9.52
432.32	9.5
432.524	9.56
432.729	9.51
432.934	9.53
433.139	9.55
433.343	9.52
433.548	9.57
433.753	9.6
433.958	9.6
434.162	9.59
434.367	9.56
434.572	9.58
434.776	9.59
434.981	9.66
435.186	9.6
435.39	9.6
435.595	9.6
435.799	9.51
436.004	9.44
436.209	9.38
436.413	9.38
436.618	9.4
436.822	9.39
437.027	9.37
437.231	9.33
437.436	9.32
437.64	9.3
437.845	9.26
438.049	9.25
438.253	9.25
438.458	9.27
438.662	9.29
438.867	9.28
439.071	9.31
439.275	9.32
439.48	9.35
439.684	9.36
439.888	9.37
440.093	9.37
440.297	9.4
440.501	9.42
440.706	9.43
440.91	9.46
441.114	9.45
441.318	9.45
441.523	9.44
441.727	9.39
441.931	9.47
442.135	9.43
442.339	9.45
442.543	9.44
442.748	9.4
442.952	9.35
443.156	9.3
443.36	9.31
443.564	9.29
443.768	9.24
443.972	9.26
444.176	9.2
444.38	9.21
444.584	9.18
444.788	9.15
444.992	9.18
445.196	9.18
445.4	9.21
445.604	9.17
445.808	9.15
446.012	9.16
446.216	9.11
446.42	9.07
446.624	9.09
446.828	9.07
447.032	9.05
447.235	9.05
447.439	9.09
447.643	9.06
447.847	9.11
448.051	9.11
448.254	9.13
448.458	9.15
448.662	9.19
448.866	9.14
449.069	9.15
449.273	9.21
449.477	9.18
449.681	9.14
449.884	9.13
450.088	9.08
450.292	9.06
450.495	9.08
450.699	9.14
450.902	9.14
451.106	9.18
451.31	9.19
451.513	9.18
451.717	9.15
451.92	9.16
452.124	9.09
452.327	9.13
452.531	9.16
452.734	9.15
452.938	9.11
453.141	9.1
453.345	9.16
453.548	9.16
453.752	9.16
453.955	9.21
454.158	9.16
454.362	9.19
454.565	9.13
454.769	9.08
454.972	9.06
455.175	9.07
455.379	9.08
455.582	9
455.785	8.96
455.988	8.96
456.192	8.91
456.395	8.93
456.598	8.97
456.801	9.01
457.005	9
457.208	8.97
457.411	8.97
457.614	8.97
457.817	8.97
458.021	8.95
458.224	8.95
458.427	8.94
458.63	8.97
458.833	8.96
459.036	8.95
459.239	8.97
459.442	9
459.645	9.01
459.848	8.99
460.051	8.96
460.254	8.99
460.457	8.99
460.66	9.02
460.863	9.02
461.066	9.03
461.269	9.04
461.472	9.05
461.675	9.06
461.878	9.1
462.081	9.1
462.284	9.18
462.486	9.18
462.689	9.18
462.892	9.22
463.095	9.21
463.298	9.21
463.5	9.22
463.703	9.18
463.906	9.14
464.109	9.13
464.311	9.21
464.514	9.21
464.717	9.2
464.92	9.2
465.122	9.19
465.325	9.21
465.528	9.22
465.73	9.21
465.933	9.26
466.135	9.28
466.338	9.26
466.541	9.24
