Data from JASIL_3197_Reflection_01.txt Node
Date: Fri Nov 13 14:02:05 EST 2015
User: Geneva
Spectrometer: USB4E03002
Autoset integration time: false
Trigger mode: 4
Integration Time (sec): 1.000000E-1
Scans to average: 10
Electric dark correction enabled: false
Nonlinearity correction enabled: false
Boxcar width: 5
Stray light correction enabled: false
XAxis mode: Wavelengths
Stop averaging: false
Number of Pixels in Spectrum: 3648
>>>>>Begin Spectral Data<<<<<
177.575	60.26
177.794	27.19
178.014	-35.48
178.233	-37.71
178.452	-53.3
178.672	-36.56
178.891	-36.75
179.11	861.29
179.33	-700
179.549	-451.85
179.768	-301.15
179.987	-7783.33
180.207	-282.07
180.426	-301.43
180.645	-214.35
180.864	-138.39
181.084	-105.01
181.303	-167.66
181.522	-42.01
181.741	-107.96
181.96	-340.24
182.179	1937.5
182.398	17100
182.618	175.69
182.837	-781.63
183.056	628.81
183.275	805.36
183.494	12200
183.713	-864.41
183.932	-1142.86
184.151	-69900
184.37	-294.29
184.589	-260.98
184.808	-120.95
185.027	-128.27
185.246	-173.35
185.465	-125.55
185.684	-170.61
185.903	-275.38
186.122	-1088.89
186.341	-1338.81
186.56	-1208.7
186.779	445.53
186.998	506.82
187.216	415.66
187.435	286.57
187.654	248.07
187.873	201.24
188.092	235.06
188.311	245.71
188.53	385.84
188.748	423.47
188.967	338.74
189.186	367.69
189.405	309.51
189.623	593.01
189.842	469.27
190.061	818.18
190.28	-3673.68
190.498	451.18
190.717	252.92
190.936	333.56
191.154	283.57
191.373	377.69
191.592	390
191.81	420.51
192.029	1181.63
192.248	-213.33
192.466	-436.99
192.685	-684.34
192.904	-141.08
193.122	-106.32
193.341	-178.69
193.559	-218.88
193.778	-301.05
193.996	-208.15
194.215	-295.54
194.433	-170.37
194.652	2148
194.87	528.57
195.089	-1197.06
195.307	261.87
195.526	359.83
195.744	-350
195.963	-2592.86
196.181	-161.22
196.399	-204.65
196.618	-124.37
196.836	4627.27
197.055	-397.71
197.273	-478.99
197.491	-151.32
197.71	-203.53
197.928	-312.44
198.146	-2125.81
198.365	826.87
198.583	258.93
198.801	220.34
199.019	394.63
199.238	593.6
199.456	-2207.14
199.674	-720.25
199.892	1715.38
200.111	-739.24
200.329	-427.19
200.547	-738.67
200.765	-87.85
200.983	-42.21
201.202	-48.4
201.42	-38.92
201.638	-94.4
201.856	-152.46
202.074	-209.81
202.292	-811.27
202.51	-2640.91
202.728	-755.13
202.946	-257.2
203.165	-314.51
203.383	-450.98
203.601	-442.75
203.819	-502.99
204.037	-126.83
204.255	-127
204.473	-182.89
204.691	-136.72
204.909	-108.3
205.127	-100.44
205.345	-22.65
205.562	-44.42
205.78	-63.37
205.998	-74.16
206.216	-72.94
206.434	-162.65
206.652	-233.2
206.87	-88.71
207.088	-655.56
207.306	-454.47
207.523	-461.78
207.741	2530.56
207.959	-941.56
208.177	-287.5
208.395	-1519.05
208.612	-209.81
208.83	-478.79
209.048	773.81
209.266	367.97
209.483	-282.39
209.701	-208.67
209.919	-78.05
210.136	0.64
210.354	-35.58
210.572	-44.38
210.79	-37.23
211.007	-143.59
211.225	-66.47
211.442	-32.21
211.66	-6.56
211.878	20.23
212.095	-416.01
212.313	-497.39
212.53	-716.31
212.748	-2097.62
212.966	2290.36
213.183	-4255.56
213.401	-1663.48
213.618	204300
213.836	-3268.66
214.053	2034.51
214.271	1693.57
214.488	2246.51
214.705	2896.55
214.923	8211.11
215.14	-679.35
215.358	-133.62
215.575	-172.82
215.793	-187.21
216.01	-95.11
216.227	-112.02
216.445	-16.92
216.662	7.27
216.879	-28.88
217.097	-13.38
217.314	-91.23
217.531	-77.29
217.749	-569.23
217.966	-51.16
218.183	-482.76
218.4	-271.84
218.618	-244.83
218.835	941.67
219.052	267.26
219.269	-2433.33
219.487	365.79
219.704	346.15
219.921	511.65
220.138	-289.51
220.355	-327.73
220.572	-224.55
220.79	-652.5
221.007	-275.72
221.224	-375.57
221.441	-507.19
221.658	-887.21
221.875	-235.11
222.092	-585.15
222.309	1445.24
222.526	199.77
222.743	158.32
222.96	140.85
223.177	172.09
223.394	142.39
223.611	119.01
223.828	120.82
224.045	96.1
224.262	142.47
224.479	121.55
224.696	104.34
224.913	128.73
225.13	124.16
225.347	120
225.564	110.84
225.781	103.22
225.997	105.37
226.214	98.56
226.431	125.04
226.648	68.01
226.865	60.89
227.082	68.49
227.298	48.95
227.515	45.27
227.732	38.58
227.949	29.23
228.165	37.71
228.382	37.5
228.599	36.9
228.816	23.11
229.032	25.94
229.249	20.61
229.466	16.44
229.682	4.08
229.899	14.45
230.116	-4.75
230.332	-8.67
230.549	-31.4
230.765	-43.75
230.982	-30.68
231.199	-18.46
231.415	-3.91
231.632	-7.13
231.848	13.4
232.065	55.24
232.281	32.05
232.498	58.26
232.714	56.43
232.931	44.54
233.147	51.52
233.364	69.05
233.58	76.19
233.797	44.67
234.013	25.78
234.23	16.51
234.446	-8.61
234.662	24.94
234.879	49.32
235.095	35.18
235.312	57.05
235.528	46.85
235.744	48.32
235.961	45.31
236.177	55.12
236.393	69.16
236.61	87.38
236.826	98.23
237.042	99.9
237.258	77.66
237.475	83.71
237.691	80.1
237.907	103.33
238.123	109.79
238.339	101.99
238.556	102.93
238.772	105.93
238.988	79.09
239.204	74.61
239.42	66.41
239.636	78.46
239.853	86.99
240.069	66.91
240.285	44.67
240.501	35.99
240.717	34.79
240.933	33.91
241.149	31.89
241.365	26.99
241.581	24.59
241.797	25.79
242.013	19.6
242.229	20
242.445	22.02
242.661	24.33
242.877	23.78
243.093	22.15
243.309	18.91
243.525	23.55
243.741	20.24
243.957	25.65
244.173	26.74
244.388	20.54
244.604	17
244.82	17.09
245.036	15.28
245.252	13.87
245.468	9.77
245.683	12.16
245.899	7.86
246.115	11.08
246.331	8.92
246.547	7.62
246.762	11.34
246.978	13.87
247.194	14.47
247.409	18.08
247.625	19.54
247.841	20.82
248.057	22.87
248.272	20.16
248.488	20.24
248.703	22
248.919	26.63
249.135	28.13
249.35	29.51
249.566	27.93
249.782	27.72
249.997	27.5
250.213	33.85
250.428	35.65
250.644	44.05
250.859	45.09
251.075	42.5
251.29	36.87
251.506	37.73
251.721	36.56
251.937	33.51
252.152	33.55
252.368	35.44
252.583	35.08
252.798	34.48
253.014	33.02
253.229	32.71
253.445	36.99
253.66	37.13
253.875	33.88
254.091	36.76
254.306	44.2
254.521	44.75
254.737	44.29
254.952	41.51
255.167	34.9
255.383	39.87
255.598	37.31
255.813	35.85
256.028	32.09
256.244	36.8
256.459	35.97
256.674	35.69
256.889	33.91
257.104	28.73
257.32	29.16
257.535	29.07
257.75	20.74
257.965	20.1
258.18	17.63
258.395	23.53
258.61	19.63
258.826	16.63
259.041	13.97
259.256	10.53
259.471	11.14
259.686	11.74
259.901	12.14
260.116	13.81
260.331	12.66
260.546	15.13
260.761	11.05
260.976	13.31
261.191	14.76
261.406	16.91
261.621	21.93
261.836	24.01
262.05	20.69
262.265	20.73
262.48	23.21
262.695	29.12
262.91	27.58
263.125	28.27
263.34	25.92
263.555	24.21
263.769	23.45
263.984	21.54
264.199	16.23
264.414	18.02
264.629	20.18
264.843	17.75
265.058	17.86
265.273	19.22
265.488	17.4
265.702	19.41
265.917	17.39
266.132	23.15
266.346	22.73
266.561	25.97
266.776	24.06
266.99	23.78
267.205	23.3
267.42	19.24
267.634	15.31
267.849	15.52
268.063	13.54
268.278	17.55
268.492	11.56
268.707	11.52
268.922	12.13
269.136	15.61
269.351	15.27
269.565	15.61
269.78	16.9
269.994	18.64
270.209	18.84
270.423	19.03
270.637	16.63
270.852	14.65
271.066	17.46
271.281	16.47
271.495	15.76
271.709	13.92
271.924	13.14
272.138	16.55
272.353	16.96
272.567	16.85
272.781	15.52
272.996	14.82
273.21	15.02
273.424	13.2
273.638	13.84
273.853	13.91
274.067	14.55
274.281	10.16
274.495	10.79
274.71	10.01
274.924	11.22
275.138	12.98
275.352	14.54
275.566	13.52
275.781	8.44
275.995	6.47
276.209	6.13
276.423	6.49
276.637	12.12
276.851	6.76
277.065	6.25
277.279	5.19
277.493	2.77
277.707	2.68
277.921	6.62
278.135	10.75
278.349	11.24
278.563	10.05
278.777	13.3
278.991	11.38
279.205	12.04
279.419	13.33
279.633	11.31
279.847	12.44
280.061	14.71
280.275	14.54
280.489	12.66
280.703	9.58
280.917	10.62
281.131	5.4
281.344	7.18
281.558	7.31
281.772	7.73
281.986	8.25
282.2	8.04
282.414	3.11
282.627	1.3
282.841	2.49
283.055	4.21
283.269	1.82
283.482	0.48
283.696	-0.78
283.91	1.49
284.123	2.61
284.337	3.07
284.551	1.35
284.764	2.55
284.978	2.17
285.192	2.59
285.405	4.04
285.619	4.46
285.833	8.07
286.046	9.14
286.26	6.25
286.473	4.14
286.687	5.64
286.9	8.69
287.114	8.65
287.327	11.31
287.541	12.72
287.754	12.16
287.968	12.85
288.181	13.82
288.395	11.71
288.608	12.23
288.822	13.02
289.035	11.22
289.248	10.64
289.462	14.22
289.675	14.13
289.889	14.27
290.102	14.96
290.315	13.62
290.529	11.54
290.742	12.81
290.955	15.07
291.169	15.46
291.382	15.95
291.595	18.6
291.808	14.97
292.022	14.81
292.235	13.11
292.448	12.63
292.661	15.15
292.875	15.61
293.088	17.82
293.301	18.41
293.514	15.38
293.727	18
293.94	15.24
294.153	17.89
294.367	15.44
294.58	15.2
294.793	15.19
295.006	15.54
295.219	15.12
295.432	13.41
295.645	12.67
295.858	12.51
296.071	11.01
296.284	9.08
296.497	9.89
296.71	9.82
296.923	10.89
297.136	10.29
297.349	9.21
297.562	9.24
297.775	8.08
297.988	6.48
298.201	7.8
298.414	7.15
298.626	11.04
298.839	8.35
299.052	7.27
299.265	8.19
299.478	9.95
299.691	8.91
299.903	8.83
300.116	9.88
300.329	11.22
300.542	13.04
300.755	13.87
300.967	9.9
301.18	10.12
301.393	12.29
301.605	10.14
301.818	9.63
302.031	9.95
302.243	10.17
302.456	13.28
302.669	13.96
302.881	13.48
303.094	13.62
303.307	17.44
303.519	19.45
303.732	20.82
303.944	22.85
304.157	22.75
304.37	23.62
304.582	25.66
304.795	22.12
305.007	21.97
305.22	22.87
305.432	21.98
305.645	21.25
305.857	20.62
306.069	19.58
306.282	18.79
306.494	18.07
306.707	18.74
306.919	17.53
307.132	19.29
307.344	21.29
307.556	21.22
307.769	21.76
307.981	18.76
308.193	17.49
308.406	16.01
308.618	15.99
308.83	16.51
309.043	17.74
309.255	18.7
309.467	18.1
309.679	15.08
309.892	14.77
310.104	14.96
310.316	17.45
310.528	17.74
310.74	17.51
310.953	18.36
311.165	17.47
311.377	17.02
311.589	15.58
311.801	15.13
312.013	21.91
312.225	19.77
312.437	18.97
312.649	16.65
312.862	17.95
313.074	18.11
313.286	15.59
313.498	15.72
313.71	15.9
313.922	16.33
314.134	17.2
314.346	11.85
314.558	15.86
314.77	17.62
314.982	18.31
315.193	16.68
315.405	17.86
315.617	19.46
315.829	21.14
316.041	18.72
316.253	19.51
316.465	20.79
316.677	19.78
316.888	20.1
317.1	19.18
317.312	19.25
317.524	18.97
317.736	19.6
317.947	20.28
318.159	19.85
318.371	20.56
318.583	20.6
318.794	20.08
319.006	20.24
319.218	16.86
319.43	18.58
319.641	19.96
319.853	21.77
320.064	20.65
320.276	19.8
320.488	17.77
320.699	17.76
320.911	16.75
321.123	18.69
321.334	19.27
321.546	18.69
321.757	15.21
321.969	13.86
322.18	12.23
322.392	13.74
322.603	11.05
322.815	15.13
323.026	18.63
323.238	20.51
323.449	19.95
323.661	18.88
323.872	22.24
324.083	25.42
324.295	25.14
324.506	24.41
324.718	25.29
324.929	28.09
325.14	28.43
325.352	28.29
325.563	26.12
325.774	27.24
325.986	28.51
326.197	28.39
326.408	28.57
326.62	30.7
326.831	32.71
327.042	32
327.253	33.32
327.464	33.14
327.676	32.56
327.887	34.45
328.098	33.93
328.309	33.71
328.52	34.31
328.732	34.8
328.943	36.87
329.154	37.18
329.365	39.47
329.576	37.91
329.787	40.09
329.998	43.54
330.209	42.56
330.42	42.14
330.631	43.41
330.842	42.41
331.053	42.24
331.264	38.92
331.475	37.35
331.686	38.41
331.897	38.47
332.108	35.65
332.319	33.19
332.53	34.97
332.741	35.94
332.952	36.82
333.163	36.51
333.374	34.27
333.585	36.13
333.795	37.41
334.006	35.14
334.217	36.22
334.428	36.5
334.639	37.5
334.849	37.68
335.06	38.1
335.271	36.41
335.482	38.9
335.692	41.92
335.903	41.23
336.114	42
336.325	43.55
336.535	43.31
336.746	43.33
336.957	43
337.167	43.22
337.378	42.67
337.589	43.38
337.799	41.72
338.01	41.31
338.22	41.8
338.431	41.42
338.642	41.62
338.852	42.2
339.063	43.43
339.273	43.64
339.484	44.16
339.694	44.13
339.905	43.51
340.115	44.36
340.326	43.33
340.536	43.43
340.746	42.82
340.957	41.85
341.167	41.11
341.378	38.92
341.588	39.87
341.799	38.64
342.009	37.5
342.219	36.53
342.43	38.32
342.64	37.62
342.85	38.66
343.061	39.06
343.271	40.06
343.481	39.61
343.691	40.42
343.902	38.25
344.112	38.81
344.322	40.96
344.532	43.18
344.743	41.01
344.953	41.55
345.163	40.54
345.373	41.47
345.583	39.94
345.793	40.31
346.004	40.64
346.214	41.08
346.424	40.47
346.634	38.57
346.844	37.29
347.054	37.28
347.264	38.89
347.474	38.46
347.684	38.75
347.894	37.9
348.104	37.44
348.314	36.77
348.524	36.67
348.734	36.58
348.944	38.03
349.154	38.24
349.364	38.06
349.574	36.37
349.784	36.33
349.994	36.05
350.204	38.19
350.413	38.71
350.623	37.95
350.833	36.45
351.043	35.22
351.253	33.46
351.463	34.14
351.672	32.09
351.882	32.84
352.092	32.87
352.302	33.15
352.511	32.6
352.721	30.94
352.931	30.49
353.141	31.43
353.35	32.1
353.56	31.91
353.77	30.49
353.979	32.54
354.189	33.19
354.399	33.05
354.608	33.49
354.818	33.23
355.027	35.72
355.237	36.08
355.447	35.64
355.656	35.26
355.866	35.71
356.075	36.03
356.285	36.15
356.494	35.61
356.704	35.27
356.913	34.02
357.123	33.5
357.332	32.8
357.542	33.52
357.751	33.81
357.96	34.56
358.17	33.8
358.379	34.23
358.589	34.55
358.798	33.52
359.007	34.45
359.217	35.31
359.426	35.03
359.635	34.22
359.845	34.9
360.054	34.32
360.263	33.82
360.472	35.12
360.682	34.97
360.891	33.88
361.1	34.59
361.309	33.95
361.519	32.84
361.728	32.86
361.937	32.94
362.146	32.2
362.355	32.33
362.564	31.94
362.774	31.61
362.983	30.78
363.192	30.71
363.401	31.16
363.61	30.89
363.819	31.58
364.028	31.47
364.237	30.92
364.446	30.67
364.655	31.06
364.864	32.23
365.073	32.14
365.282	33.56
365.491	33.24
365.7	31.86
365.909	31.16
366.118	30.53
366.327	30.73
366.536	31.76
366.745	31.91
366.954	32.11
367.162	31.93
367.371	31.04
367.58	31.19
367.789	32.1
367.998	33.02
368.207	34.2
368.415	33.35
368.624	34.05
368.833	32.97
369.042	33.8
369.25	33.07
369.459	32.15
369.668	32.04
369.877	31.7
370.085	32.11
370.294	31.87
370.503	30.91
370.711	31.57
370.92	29.47
371.129	30.78
371.337	29.31
371.546	28.66
371.754	28.98
371.963	28.59
372.171	27.58
372.38	26.95
372.589	26.95
372.797	26.26
373.006	26.99
373.214	27.75
373.423	27.31
373.631	29.22
373.84	29.38
374.048	28.5
374.256	29.83
374.465	30.94
374.673	30.16
374.882	30.35
375.09	31.36
375.298	31.1
375.507	31.75
375.715	31.2
375.923	28.65
376.132	27.8
376.34	28.67
376.548	28.57
376.757	27.68
376.965	27.87
377.173	27.55
377.381	27.6
377.59	26.8
377.798	26.94
378.006	26.94
378.214	28.65
378.423	30.36
378.631	29.4
378.839	28.87
379.047	29.33
379.255	29.43
379.463	29.22
379.671	30.21
379.879	31.2
380.088	30.11
380.296	30.6
380.504	32.57
380.712	31.83
380.92	32.6
381.128	32.76
381.336	31.51
381.544	32.35
381.752	32.54
381.96	32.85
382.168	32.29
382.376	31.61
382.584	29.68
382.791	27.54
382.999	26.62
383.207	26.28
383.415	26.22
383.623	26.89
383.831	26.65
384.039	27.2
384.247	25.34
384.454	25.83
384.662	26.44
384.87	26.61
385.078	26.86
385.285	27.47
385.493	27.23
385.701	27.73
385.909	27.32
386.116	26.3
386.324	26.08
386.532	26.93
386.739	26.52
386.947	27.94
387.155	28.88
387.362	30
387.57	29.78
387.778	29.96
387.985	28.84
388.193	29.83
388.4	30.2
388.608	29.13
388.816	28.16
389.023	27.77
389.231	26.83
389.438	27.2
389.646	27.07
389.853	27.41
390.061	27.17
390.268	27.17
390.475	26.37
390.683	25.9
390.89	27.06
391.098	27.31
391.305	28.23
391.512	28.7
391.72	28.3
391.927	27.22
392.135	26.71
392.342	27.11
392.549	27.65
392.756	27.9
392.964	28.41
393.171	28.28
393.378	28.51
393.586	26.58
393.793	26.12
394	26.15
394.207	26
394.414	26.27
394.622	26.62
394.829	26.56
395.036	26.54
395.243	26.54
395.45	26.15
395.657	25.44
395.864	27.3
396.072	27.18
396.279	27.26
396.486	26.55
396.693	27.04
396.9	25.76
397.107	25.17
397.314	24.96
397.521	25.5
397.728	24.5
397.935	24.58
398.142	23.14
398.349	22.76
398.556	22.31
398.763	23.4
398.97	23.09
399.177	24.66
399.383	24.62
399.59	24.2
399.797	24.21
400.004	24.74
400.211	25.03
400.418	25.48
400.625	26.16
400.831	26.33
401.038	26.25
401.245	26.65
401.452	25.73
401.658	26.01
401.865	26.54
402.072	26.65
402.279	26.63
402.485	25.49
402.692	26.13
402.899	26
403.105	25.21
403.312	24.99
403.519	24.72
403.725	24.68
403.932	24.29
404.138	24.21
404.345	23.48
404.552	23.78
404.758	25.64
404.965	25.21
405.171	25.05
405.378	26.33
405.584	26.3
405.791	25.97
405.997	26.25
406.204	26.67
406.41	25.63
406.617	25.79
406.823	25.61
407.029	25.07
407.236	24.9
407.442	24.48
407.649	24.92
407.855	25.21
408.061	24.59
408.268	24.34
408.474	25.26
408.68	26.18
408.887	26.16
409.093	26.2
409.299	25.99
409.505	25.77
409.712	26.94
409.918	24.87
410.124	24.23
410.33	24.43
410.537	23.63
410.743	23.13
410.949	23.69
411.155	23.72
411.361	23.24
411.567	22.94
411.773	23.1
411.98	21.91
412.186	23.29
412.392	22.87
412.598	22.83
412.804	24.11
413.01	23.12
413.216	22.03
413.422	21.57
413.628	21.81
413.834	22.27
414.04	21.89
414.246	22.46
414.452	21.99
414.658	22.42
414.864	22.51
415.07	22.22
415.275	22.94
415.481	23.69
415.687	23.97
415.893	23.91
416.099	23.75
416.305	23.99
416.511	23.69
416.716	23.07
416.922	23.26
417.128	22.96
417.334	22.49
417.539	22.23
417.745	22.17
417.951	22.03
418.157	22.1
418.362	22.12
418.568	21.1
418.774	20.82
418.979	21.37
419.185	21.07
419.391	21.26
419.596	21.74
419.802	21.96
420.008	21.5
420.213	22.08
420.419	22.08
420.624	22.15
420.83	23.11
421.035	23.29
421.241	23
421.446	22.79
421.652	23.26
421.857	22.93
422.063	22.71
422.268	22.91
422.474	22.39
422.679	22.36
422.885	22.51
423.09	22.23
423.295	22.07
423.501	22.22
423.706	22.19
423.911	21.56
424.117	21.41
424.322	21.39
424.527	21.89
424.733	21.82
424.938	21.35
425.143	21
425.349	21.07
425.554	21.05
425.759	21.46
425.964	21.47
426.169	21.71
426.375	21.92
426.58	21.93
426.785	20.83
426.99	20.88
427.195	21.28
427.4	21.32
427.605	21.17
427.811	21.61
428.016	21.05
428.221	21.47
428.426	21.44
428.631	20.94
428.836	20.52
429.041	20.43
429.246	20.12
429.451	20.36
429.656	20.29
429.861	20.47
430.066	20.1
430.271	20.51
430.476	20.57
430.681	21.25
430.886	21.26
431.09	21.25
431.295	21.79
431.5	21.88
431.705	21.41
431.91	21.52
432.115	21.03
432.32	20.8
432.524	20.23
432.729	19.72
432.934	19.08
433.139	19.72
433.343	19.49
433.548	19.29
433.753	19.32
433.958	18.93
434.162	18.32
434.367	18.4
434.572	18.19
434.776	18.1
434.981	17.93
435.186	17.36
435.39	17.09
435.595	17.67
435.799	17.89
436.004	16.99
436.209	17.71
436.413	18.19
436.618	17.98
436.822	18.65
437.027	18.38
437.231	19
437.436	19.19
437.64	19.12
437.845	18.97
438.049	19.58
438.253	20.29
438.458	20.86
438.662	20.46
438.867	20.71
439.071	20.28
439.275	20.62
439.48	20.32
439.684	20.67
439.888	20.9
440.093	21.19
440.297	20.31
440.501	20.08
440.706	19.06
440.91	19.13
441.114	19.3
441.318	19.01
441.523	18.8
441.727	18.74
441.931	18.81
442.135	18.06
442.339	17.9
442.543	18.09
442.748	18.47
442.952	18.75
443.156	19.01
443.36	18.82
443.564	18.7
443.768	19
443.972	19.39
444.176	19.01
444.38	19.06
444.584	19.21
444.788	19.16
444.992	19.29
445.196	19.27
445.4	19.25
445.604	19.01
445.808	19.4
446.012	19.18
446.216	18.73
446.42	18.84
446.624	19.2
446.828	19.24
447.032	19
447.235	18.9
447.439	18.84
447.643	18.79
447.847	18.82
448.051	19.18
448.254	19.21
448.458	19.76
448.662	19.82
448.866	19.08
449.069	18.49
449.273	18.99
449.477	18.65
449.681	18.95
449.884	18.83
450.088	19.13
450.292	18.46
450.495	18.92
450.699	18.44
450.902	18.94
451.106	19.53
451.31	20.01
451.513	19.53
451.717	19.52
451.92	19.38
452.124	19.39
452.327	19.91
452.531	19.63
452.734	19.76
452.938	19.56
