Data from JASIL_2996_Reflection_02.txt Node
Date: Mon Nov 09 09:54:43 EST 2015
User: Geneva
Spectrometer: USB4E03002
Autoset integration time: false
Trigger mode: 4
Integration Time (sec): 1.000000E-1
Scans to average: 10
Electric dark correction enabled: false
Nonlinearity correction enabled: false
Boxcar width: 5
Stray light correction enabled: false
XAxis mode: Wavelengths
Stop averaging: false
Number of Pixels in Spectrum: 3648
>>>>>Begin Spectral Data<<<<<
177.575	46.62
177.794	24.26
178.014	30.5
178.233	9.53
178.452	12.76
178.672	12.16
178.891	-1.3
179.11	-31.32
179.33	-72.36
179.549	-131.42
179.768	-206.9
179.987	-142.25
180.207	-63.88
180.426	-92.48
180.645	-86.47
180.864	-102.11
181.084	-92.37
181.303	-82.71
181.522	-82.17
181.741	-67.44
181.96	-37.2
182.179	-37.12
182.398	-63.31
182.618	-60.37
182.837	-32.67
183.056	-8.57
183.275	-19.47
183.494	-9.66
183.713	5.97
183.932	17.49
184.151	30.97
184.37	-0.66
184.589	-5.37
184.808	0.92
185.027	-12.45
185.246	-58.23
185.465	-32.98
185.684	-8.16
185.903	-23.1
186.122	-40.1
186.341	-61.37
186.56	-140.06
186.779	-72.06
186.998	-32.58
187.216	-10.7
187.435	-15.19
187.654	-6.98
187.873	-23.85
188.092	-97.21
188.311	-113.7
188.53	-85.09
188.748	-33.04
188.967	-62.94
189.186	-54.94
189.405	-77.08
189.623	-82.86
189.842	-85
190.061	-113.55
190.28	-152.36
190.498	-191.63
190.717	-160.58
190.936	-171.64
191.154	-399.18
191.373	-82.13
191.592	-159.25
191.81	-100.61
192.029	-268.28
192.248	-335.81
192.466	-154.62
192.685	-127.25
192.904	-48.25
193.122	-76.15
193.341	-124.47
193.559	-180.19
193.778	-175.5
193.996	-55.13
194.215	-58.89
194.433	-85.6
194.652	-67.31
194.87	-71.91
195.089	-119.02
195.307	-155.95
195.526	-96.13
195.744	-94.29
195.963	-59.14
196.181	-84.01
196.399	-131.95
196.618	-113.93
196.836	-93.91
197.055	-97.87
197.273	-139.02
197.491	-145.48
197.71	-100
197.928	-105.31
198.146	-89.51
198.365	-152.66
198.583	-92.95
198.801	-61.17
199.019	-102.59
199.238	-115.51
199.456	-89.53
199.674	-50.74
199.892	-22.95
200.111	-103.08
200.329	-132.62
200.547	-36.01
200.765	-35.95
200.983	-146.27
201.202	-360
201.42	-300
201.638	-207.46
201.856	-766.2
202.074	1659.46
202.292	1104.88
202.51	-115.76
202.728	-57.94
202.946	-237.01
203.165	-131.42
203.383	-77.06
203.601	-183.22
203.819	-355.81
204.037	-213.52
204.255	-144.33
204.473	-55.96
204.691	-86.67
204.909	-180.77
205.127	-193.95
205.345	-224.89
205.562	-668.54
205.78	-193.36
205.998	-92.68
206.216	-124.79
206.434	-159.26
206.652	-157.24
206.87	-207.59
207.088	-241.96
207.306	-161.98
207.523	-220.23
207.741	-130.67
207.959	-69.33
208.177	-174.31
208.395	-107.42
208.612	-32.76
208.83	-32.91
209.048	-29.17
209.266	-69.01
209.483	-53.3
209.701	-19.93
209.919	-4.09
210.136	-103.32
210.354	-79.83
210.572	-22.43
210.79	-75.29
211.007	-23.04
211.225	-31.88
211.442	-32.89
211.66	-17.47
211.878	-9.39
212.095	-13.32
212.313	-11.13
212.53	11.23
212.748	9.21
212.966	9.09
213.183	8.32
213.401	0.33
213.618	6.91
213.836	12.65
214.053	15.67
214.271	13.62
214.488	23.99
214.705	15.31
214.923	-2.82
215.14	6.39
215.358	-19.81
215.575	12.85
215.793	3.27
216.01	-10.24
216.227	-20
216.445	-34.22
216.662	-31.68
216.879	-28.94
217.097	-48.48
217.314	-23.22
217.531	-79.07
217.749	-44.24
217.966	-56.28
218.183	-54.63
218.4	-162.79
218.618	-174
218.835	-170.18
219.052	-617.14
219.269	-1647.37
219.487	-523.98
219.704	-1426.98
219.921	1596.49
220.138	2112.82
220.355	1400
220.572	0
220.79	-3181.82
221.007	-558.33
221.224	-384.56
221.441	-106.69
221.658	-82.45
221.875	-81.93
222.092	-60.65
222.309	-24.78
222.526	3.8
222.743	18.34
222.96	30.51
223.177	40.59
223.394	9.05
223.611	-3.81
223.828	-86.45
224.045	-92.4
224.262	-37.08
224.479	-47.92
224.696	-52.65
224.913	-84.93
225.13	-100.72
225.347	-97.02
225.564	-84.91
225.781	-64.41
225.997	-52.3
226.214	-28.76
226.431	-8.21
226.648	-24.84
226.865	-20.59
227.082	-28.22
227.298	-36.13
227.515	-32.12
227.732	-33.4
227.949	-32.24
228.165	-24.97
228.382	-18.31
228.599	-16.86
228.816	-27.97
229.032	-35.4
229.249	-34.46
229.466	-31.44
229.682	-26.03
229.899	-23.48
230.116	-32.67
230.332	-35.32
230.549	-43.46
230.765	-96.45
230.982	-88.55
231.199	-59.48
231.415	-24.55
231.632	-24.93
231.848	-23.53
232.065	-17.92
232.281	-30.11
232.498	-21.22
232.714	-9.4
232.931	-14.27
233.147	-1.24
233.364	-5.93
233.58	-10.58
233.797	-3.69
234.013	-0.39
234.23	-2.29
234.446	1.33
234.662	16.84
234.879	20.11
235.095	15.03
235.312	16.79
235.528	6.26
235.744	7.29
235.961	9.88
236.177	-2.52
236.393	-4.05
236.61	-6.49
236.826	-17.01
237.042	-15.15
237.258	-19.58
237.475	-11.15
237.691	-10.74
237.907	3.4
238.123	-3.13
238.339	-11.11
238.556	-12.94
238.772	-24.67
238.988	-18.85
239.204	-12
239.42	-18.02
239.636	0.71
239.853	0.35
240.069	1.94
240.285	2.66
240.501	9.66
240.717	4.8
240.933	4.14
241.149	6.44
241.365	6.8
241.581	2.56
241.797	2.04
242.013	-5.81
242.229	-13.16
242.445	-11.52
242.661	-12.34
242.877	-19.14
243.093	-20.49
243.309	-23.19
243.525	-29.64
243.741	-29.7
243.957	-26.5
244.173	-17.44
244.388	-19.45
244.604	-9.92
244.82	-11.58
245.036	-12.23
245.252	-9.03
245.468	-2.67
245.683	-3.28
245.899	-2.39
246.115	-3.38
246.331	-1.13
246.547	-2.67
246.762	-1.49
246.978	-4.3
247.194	-5.34
247.409	-8.81
247.625	-10.96
247.841	-13.19
248.057	-7.81
248.272	-5.08
248.488	-1.66
248.703	-0.32
248.919	-2.61
249.135	-6.82
249.35	-3.98
249.566	1.22
249.782	4.54
249.997	6.24
250.213	1.44
250.428	-4.35
250.644	-9.6
250.859	-8.45
251.075	-11.37
251.29	-12.09
251.506	-5.04
251.721	-5.03
251.937	-6.93
252.152	-3.53
252.368	-5.72
252.583	-2.71
252.798	0.53
253.014	8.74
253.229	4.97
253.445	6.12
253.66	9.02
253.875	-0.39
254.091	-2.57
254.306	-1.97
254.521	1.08
254.737	2.94
254.952	-0.49
255.167	-3.72
255.383	-6.32
255.598	-7.16
255.813	-5.2
256.028	-4.39
256.244	-3.33
256.459	-3.42
256.674	-0.31
256.889	-2.24
257.104	-4.78
257.32	-2.58
257.535	-1.81
257.75	-2.16
257.965	-0.91
258.18	-0.93
258.395	-0.71
258.61	0.04
258.826	-0.57
259.041	-1.85
259.256	-5.34
259.471	-3.03
259.686	-1.57
259.901	-3.1
260.116	-5.05
260.331	-8.48
260.546	-7.88
260.761	-10.1
260.976	-12.18
261.191	-12.66
261.406	-14.63
261.621	-6.85
261.836	-8.32
262.05	-13.4
262.265	-12.92
262.48	-10.33
262.695	-8.86
262.91	-10.52
263.125	-12.81
263.34	-15.03
263.555	-15.52
263.769	-12.49
263.984	-17.48
264.199	-22.12
264.414	-16.45
264.629	-11.32
264.843	-12.68
265.058	-11.42
265.273	-11
265.488	-7.9
265.702	-6.41
265.917	-5.5
266.132	-6.41
266.346	-1.9
266.561	5.44
266.776	0.46
266.99	0.6
267.205	7.39
267.42	9.25
267.634	10.04
267.849	9.52
268.063	12.95
268.278	15.04
268.492	14.36
268.707	12.36
268.922	9.74
269.136	9.11
269.351	6.45
269.565	4.64
269.78	2.5
269.994	3.11
270.209	1.56
270.423	-0.37
270.637	-1.42
270.852	-1.15
271.066	-2.13
271.281	-1.41
271.495	0.9
271.709	2.93
271.924	0.14
272.138	1.03
272.353	0.21
272.567	-0.49
272.781	-0.26
272.996	-0.48
273.21	-2.56
273.424	-6.15
273.638	-11.86
273.853	-10.8
274.067	-8.3
274.281	-7.78
274.495	-7.18
274.71	-6.37
274.924	-3.7
275.138	-4.67
275.352	-2.78
275.566	-1.46
275.781	2.51
275.995	7.18
276.209	6.45
276.423	2.31
276.637	2.66
276.851	0.54
277.065	-3.21
277.279	-5.56
277.493	-4.91
277.707	-6.22
277.921	-9.99
278.135	-10.08
278.349	-15.5
278.563	-23.05
278.777	-22.4
278.991	-23.95
279.205	-23.76
279.419	-22.99
279.633	-23.02
279.847	-25.43
280.061	-26.38
280.275	-21.63
280.489	-21.08
280.703	-16.57
280.917	-11.85
281.131	-9.79
281.344	-7.88
281.558	-7.99
281.772	-7.62
281.986	-4.67
282.2	-2.82
282.414	-2.33
282.627	-2.18
282.841	-1.08
283.055	-2.2
283.269	-0.21
283.482	-2
283.696	-1.17
283.91	0.25
284.123	-1.26
284.337	-0.85
284.551	2.77
284.764	3.35
284.978	4.65
285.192	3.13
285.405	3.64
285.619	0.39
285.833	1.87
286.046	-0.55
286.26	-2.82
286.473	-1.48
286.687	-4.2
286.9	-7.25
287.114	-8.14
287.327	-9.61
287.541	-10.21
287.754	-16.76
287.968	-14.28
288.181	-17.56
288.395	-18.4
288.608	-17.32
288.822	-16.32
289.035	-15.89
289.248	-17.56
289.462	-17.51
289.675	-18.57
289.889	-19.66
290.102	-13.46
290.315	-11.54
290.529	-10.99
290.742	-8.84
290.955	-7.73
291.169	-8.82
291.382	-11.36
291.595	-13.49
291.808	-13.03
292.022	-11.89
292.235	-10.53
292.448	-11.04
292.661	-14.56
292.875	-14.77
293.088	-14.2
293.301	-11.81
293.514	-11.76
293.727	-9.24
293.94	-7.73
294.153	-6.93
294.367	-8.12
294.58	-7.07
294.793	-9.3
295.006	-8.55
295.219	-3.67
295.432	-4.23
295.645	-4.08
295.858	-2.7
296.071	-1.37
296.284	-1.35
296.497	-4.76
296.71	-3.76
296.923	-3.22
297.136	-3.07
297.349	0.49
297.562	-1.71
297.775	-1.61
297.988	-1.84
298.201	-1.16
298.414	-1.61
298.626	0.51
298.839	2.98
299.052	4.65
299.265	5.58
299.478	6.93
299.691	3.85
299.903	4.92
300.116	4.81
300.329	3.39
300.542	1.67
300.755	2.05
300.967	4.07
301.18	4.01
301.393	2.09
301.605	2.36
301.818	1.21
302.031	2.64
302.243	1.14
302.456	1.86
302.669	4.26
302.881	4.69
303.094	2.98
303.307	1.87
303.519	-0.9
303.732	-0.09
303.944	-4.71
304.157	-2.67
304.37	-3.88
304.582	-5.44
304.795	-4.65
305.007	-6.4
305.22	-7.24
305.432	-8.33
305.645	-11.47
305.857	-8.96
306.069	-6.99
306.282	-3.2
306.494	-4.96
306.707	-8.44
306.919	-8.17
307.132	-9.11
307.344	-10.2
307.556	-9.31
307.769	-5.94
307.981	-4.21
308.193	-6.15
308.406	-7.79
308.618	-6.85
308.83	-4.13
309.043	0.65
309.255	1.44
309.467	0.22
309.679	-0.69
309.892	-0.35
310.104	-0.16
310.316	-0.09
310.528	4.67
310.74	4.07
310.953	3.13
311.165	3.88
311.377	1.73
311.589	1.28
311.801	3.78
312.013	7.42
312.225	8.77
312.437	7.59
312.649	6.7
312.862	2.95
313.074	2.9
313.286	6.11
313.498	4.96
313.71	4.8
313.922	5.62
314.134	4.72
314.346	3.43
314.558	1.6
314.77	1.67
314.982	4.76
315.193	8.23
315.405	7.42
315.617	5.97
315.829	3.46
316.041	1.08
316.253	0.72
316.465	1.02
316.677	0.6
316.888	2.52
317.1	2.43
317.312	-3.15
317.524	-2.74
317.736	-0.83
317.947	-3.06
318.159	-0.83
318.371	3.34
318.583	1.47
318.794	-0.11
319.006	-0.43
319.218	-3.53
319.43	0.12
319.641	4.4
319.853	1.94
320.064	-1.73
320.276	-3.04
320.488	-4.58
320.699	-7.3
320.911	-4.77
321.123	-2.65
321.334	-2.34
321.546	-1.3
321.757	-4.99
321.969	-8.68
322.18	-7.61
322.392	-6.04
322.603	-7.87
322.815	-5.19
323.026	-2.23
323.238	-0.67
323.449	-3.24
323.661	-5.05
323.872	-8.09
324.083	-7.47
324.295	-6.65
324.506	-8.32
324.718	-6.35
324.929	-3.18
325.14	-5.62
325.352	-5.14
325.563	-3.78
325.774	-3.23
325.986	-2.56
326.197	0.12
326.408	0.4
326.62	-1.31
326.831	0.11
327.042	-2.03
327.253	-3.26
327.464	-0.24
327.676	-1.8
327.887	-4.68
328.098	-1.53
328.309	0.43
328.52	-0.71
328.732	-1.86
328.943	1.36
329.154	-2.38
329.365	-3.27
329.576	-1.59
329.787	-1.89
329.998	-5.39
330.209	-6.31
330.42	-7.76
330.631	-10.19
330.842	-10.87
331.053	-7.73
331.264	-7.96
331.475	-3.64
331.686	-0.34
331.897	1.04
332.108	-0.71
332.319	1.36
332.53	-1.36
332.741	0.17
332.952	2.88
333.163	4.54
333.374	4.66
333.585	4.55
333.795	3.96
334.006	4.11
334.217	4.21
334.428	6.03
334.639	5.75
334.849	6.4
335.06	5.23
335.271	4.85
335.482	5.45
335.692	4
335.903	5.42
336.114	5.9
336.325	6.38
336.535	4.4
336.746	3.57
336.957	4.5
337.167	5.88
337.378	6.13
337.589	4.33
337.799	4.82
338.01	4.12
338.22	3.81
338.431	1.11
338.642	-0.79
338.852	-1.75
339.063	-2.88
339.273	1.09
339.484	1.05
339.694	0.84
339.905	0.28
340.115	2.77
340.326	2.41
340.536	1.56
340.746	2.19
340.957	2.03
341.167	3.41
341.378	4.93
341.588	0.28
341.799	1.56
342.009	2.08
342.219	1.82
342.43	-2
342.64	-1.31
342.85	0.07
343.061	1.19
343.271	2.6
343.481	1.09
343.691	0.58
343.902	2.93
344.112	1.73
344.322	0.88
344.532	3.43
344.743	4.03
344.953	3.65
345.163	4.04
345.373	3.6
345.583	3.47
345.793	3.93
346.004	3.65
346.214	2.17
346.424	3.57
346.634	3.22
346.844	2.85
347.054	3.32
347.264	2.51
347.474	1.15
347.684	1.86
347.894	1.75
348.104	2.49
348.314	1.89
348.524	0.8
348.734	1.45
348.944	2.21
349.154	0.57
349.364	0.65
349.574	1.88
349.784	1.53
349.994	4.36
350.204	3.82
350.413	5.31
350.623	7.12
350.833	9.56
351.043	8.22
351.253	7.75
351.463	8.13
351.672	5.83
351.882	6.91
352.092	7.42
352.302	4.84
352.511	5.29
352.721	2.83
352.931	3.37
353.141	1.68
353.35	3.48
353.56	3.95
353.77	3.15
353.979	4.9
354.189	5.34
354.399	4.24
354.608	5.48
354.818	3.99
355.027	4.41
355.237	3.81
355.447	6.42
355.656	5.23
355.866	5.32
356.075	6.45
356.285	4.9
356.494	1.77
356.704	1.6
356.913	-0.44
357.123	0.61
357.332	-1.02
357.542	-1.08
357.751	-2.65
357.96	-3.59
358.17	-4.29
358.379	-4.69
358.589	-2.8
358.798	-1.57
359.007	-0.63
359.217	-2.15
359.426	-3
359.635	-1.44
359.845	-1.95
360.054	-4.39
360.263	-3.38
360.472	-1.55
360.682	-2.41
360.891	-1.85
361.1	-1.27
361.309	-2.04
361.519	-0.21
361.728	1.38
361.937	2.71
362.146	3.31
362.355	5.75
362.564	4.94
362.774	3.36
362.983	4.6
363.192	4.18
363.401	5.45
363.61	5.9
363.819	5.32
364.028	3.81
364.237	2.17
364.446	2.26
364.655	1.24
364.864	2.9
365.073	2.53
365.282	1.19
365.491	-0.05
365.7	-0.17
365.909	-0.79
366.118	-0.44
366.327	-0.51
366.536	1.27
366.745	0.9
366.954	3.09
367.162	3.58
367.371	3.11
367.58	4.86
367.789	6.99
367.998	7.67
368.207	9.76
368.415	9.8
368.624	9.06
368.833	7.81
369.042	6.89
369.25	5.38
369.459	3.29
369.668	4.61
369.877	3.96
370.085	3.11
370.294	2.3
370.503	1.85
370.711	1.58
370.92	3.11
371.129	2.77
371.337	3.41
371.546	3.96
371.754	3.66
371.963	2.87
372.171	1.54
372.38	0.85
372.589	0.32
372.797	-2.52
373.006	-1.86
373.214	-3.11
373.423	-1.77
373.631	-2.24
373.84	-2.48
374.048	-0.99
374.256	-0.1
374.465	1.92
374.673	1.74
374.882	1.87
375.09	4.61
375.298	4.46
375.507	5.58
375.715	4.61
375.923	5.26
376.132	5.11
376.34	4.84
376.548	4.72
376.757	4.24
376.965	3.57
377.173	4.35
377.381	3.05
377.59	2.35
377.798	2.73
378.006	1.19
378.214	0.87
378.423	1.02
378.631	0.85
378.839	-0.09
379.047	-0.22
379.255	0.78
379.463	-0.53
379.671	0.6
379.879	0.63
380.088	-1.01
380.296	-0.6
380.504	-0.08
380.712	-0.71
380.92	0.07
381.128	0.72
381.336	1.17
381.544	2.67
381.752	3.65
381.96	3.66
382.168	3.23
382.376	4.22
382.584	4.44
382.791	3.85
382.999	2.78
383.207	2.26
383.415	2.5
383.623	2.28
383.831	1.81
384.039	0.57
384.247	0.54
384.454	1.74
384.662	1.49
384.87	2.13
385.078	2.3
385.285	3.32
385.493	3.34
385.701	2.8
385.909	2.01
386.116	1.59
386.324	2.75
386.532	1.27
386.739	1.31
386.947	1.33
387.155	2.4
387.362	3.56
387.57	3.57
387.778	4.24
387.985	5.33
388.193	6.31
388.4	7.02
388.608	6.49
388.816	7.57
389.023	5.62
389.231	5.84
389.438	5.44
389.646	5.87
389.853	6.53
390.061	6.17
390.268	5.33
390.475	5.47
390.683	3.55
390.89	3.79
391.098	3.82
391.305	6.09
391.512	6.79
391.72	6.24
391.927	4.5
392.135	4.19
392.342	3.38
392.549	4.05
392.756	3.82
392.964	4.29
393.171	3.91
393.378	4.51
393.586	3.88
393.793	3.2
394	3.52
394.207	5.37
394.414	6.03
394.622	6.19
394.829	6.48
395.036	6.74
395.243	7.83
395.45	8.68
395.657	6.52
395.864	6.09
396.072	5.79
396.279	6.65
396.486	4.6
396.693	4.11
396.9	5.12
397.107	5.71
397.314	5.64
397.521	5.02
397.728	4.19
397.935	5.34
398.142	5.75
398.349	5.87
398.556	4.45
398.763	3.88
398.97	4.03
399.177	3.8
399.383	2.58
399.59	1.17
399.797	1.01
400.004	2.32
400.211	1.64
400.418	1.98
400.625	2.63
400.831	3.7
401.038	4.09
401.245	3.36
401.452	2.9
401.658	2.86
401.865	4.58
402.072	4.75
402.279	3.05
402.485	3.77
402.692	3.36
402.899	3.12
403.105	2.91
403.312	3.7
403.519	4.24
403.725	4.06
403.932	4.25
404.138	3.61
404.345	2.6
404.552	3.51
404.758	2.97
404.965	4.1
405.171	4.49
405.378	4.59
405.584	4.85
405.791	5.86
405.997	6.03
406.204	4.68
406.41	4.96
406.617	5.83
406.823	4.92
407.029	6.3
407.236	5.25
407.442	6.17
407.649	6.68
407.855	5.07
408.061	3.99
408.268	4.48
408.474	5.69
408.68	5.5
408.887	5.02
409.093	5.02
409.299	4.99
409.505	4.52
409.712	2.67
409.918	1.99
410.124	2.78
410.33	2.67
410.537	3.34
410.743	3.22
410.949	2.91
411.155	3.78
411.361	4.56
411.567	4.09
411.773	4.76
411.98	3.84
412.186	4.85
412.392	5.15
412.598	5.79
412.804	4.38
413.01	4.01
413.216	4
413.422	4.13
413.628	4.29
413.834	4.9
414.04	3.75
414.246	5.81
414.452	5.22
414.658	3.55
414.864	2.17
415.07	2.21
415.275	2.73
415.481	3.17
415.687	2.85
415.893	3.59
416.099	2.87
416.305	4.14
416.511	4.11
416.716	3.3
416.922	4.7
417.128	5.25
417.334	4.83
417.539	5.08
417.745	5.28
417.951	4.87
418.157	3.78
418.362	4.17
418.568	3.09
418.774	2.4
418.979	3.22
419.185	3.46
419.391	3.57
419.596	4.06
419.802	4.14
420.008	4.12
420.213	4.12
420.419	4.27
420.624	3.92
420.83	4.41
421.035	4.97
421.241	4.74
421.446	3.95
421.652	4.1
421.857	3.85
422.063	3.76
422.268	3.59
422.474	3.62
422.679	3.78
422.885	3.58
423.09	3.83
423.295	3.27
423.501	3.14
423.706	3.43
423.911	3.4
424.117	3.65
424.322	3.17
424.527	3.03
424.733	3.51
424.938	3.42
425.143	3.48
425.349	3.7
425.554	4.57
425.759	4.44
425.964	4.59
426.169	4.37
426.375	4.36
426.58	4.77
426.785	4.64
426.99	4.27
427.195	4.79
427.4	5.38
427.605	4.69
427.811	4.05
428.016	4.16
428.221	4.8
428.426	4.72
428.631	4.29
428.836	4.16
429.041	4.75
429.246	4.79
429.451	4.26
429.656	4.13
429.861	4.17
430.066	3.95
430.271	4.61
430.476	3.87
430.681	4.21
430.886	4.8
431.09	5.19
431.295	5.44
431.5	5.75
431.705	6.08
431.91	6.48
432.115	5.96
432.32	5.86
432.524	5.44
432.729	5.9
432.934	5.18
433.139	4.91
433.343	4.76
433.548	5.32
433.753	5.28
433.958	5.03
434.162	4.79
434.367	5.1
434.572	4.97
434.776	5.3
434.981	4.37
435.186	4.72
435.39	5.58
435.595	4.96
435.799	3.29
436.004	2.9
436.209	3.5
436.413	3.3
436.618	3.75
436.822	3.83
437.027	2.92
437.231	3.61
437.436	3.64
437.64	3.16
437.845	2.98
438.049	3.97
438.253	3.96
438.458	3.3
438.662	3.07
438.867	3.04
439.071	2.93
439.275	3.26
439.48	3.03
439.684	2.89
439.888	2.23
440.093	2.6
440.297	2.4
440.501	2.95
440.706	3.14
440.91	3.12
441.114	3.26
441.318	3.37
441.523	3.48
441.727	3.47
441.931	4.08
442.135	4.42
442.339	4.44
442.543	4.38
442.748	3.97
442.952	3.66
443.156	3.43
443.36	3.68
443.564	3.88
443.768	3.91
443.972	3.06
444.176	3.11
444.38	3.04
444.584	3.26
444.788	2.9
444.992	3.06
445.196	3.1
445.4	3.77
445.604	3.45
445.808	3.43
446.012	3.53
446.216	4.33
446.42	3.98
446.624	4
446.828	3.78
447.032	3.87
447.235	3.2
447.439	3.45
447.643	3.47
447.847	3.7
448.051	3.17
448.254	3.02
448.458	3.34
448.662	3.93
448.866	4.06
449.069	4.35
449.273	3.95
449.477	4.68
449.681	4.73
449.884	4.4
450.088	4.03
450.292	4.48
450.495	5.4
450.699	5.61
450.902	5.23
451.106	5.45
451.31	5.18
451.513	6
451.717	6.64
451.92	6.23
452.124	6.1
452.327	5.74
452.531	5.9
452.734	5.52
452.938	5.34
453.141	5.54
453.345	4.87
453.548	4.87
453.752	5.18
453.955	5.58
454.158	5.45
454.362	5.9
454.565	6.45
454.769	6.96
454.972	6.52
455.175	5.51
455.379	4.52
455.582	5.26
455.785	4.97
455.988	3.6
456.192	2.35
456.395	2.73
456.598	1.88
456.801	1.32
457.005	1.03
457.208	0.72
457.411	1.74
457.614	1.85
457.817	1.8
458.021	1.75
458.224	2.31
458.427	1.99
458.63	2
458.833	2.09
459.036	2.19
459.239	1.9
459.442	2.99
459.645	2.87
459.848	3.03
460.051	3.2
460.254	4.02
460.457	4.03
460.66	4.24
460.863	4.37
461.066	5.12
461.269	5.16
461.472	5.45
461.675	3.83
461.878	3.96
