Data from JASIL_3052_Reflection_02.txt Node
Date: Mon Nov 09 11:21:16 EST 2015
User: Geneva
Spectrometer: USB4E03002
Autoset integration time: false
Trigger mode: 4
Integration Time (sec): 1.000000E-1
Scans to average: 10
Electric dark correction enabled: false
Nonlinearity correction enabled: false
Boxcar width: 5
Stray light correction enabled: false
XAxis mode: Wavelengths
Stop averaging: false
Number of Pixels in Spectrum: 3648
>>>>>Begin Spectral Data<<<<<
177.575	383.33
177.794	4066.67
178.014	-48300
178.233	-922.64
178.452	-572.73
178.672	-2882.35
178.891	1069.44
179.11	460.27
179.33	498.44
179.549	-1192.31
179.768	-1140.62
179.987	-207.93
180.207	-5800
180.426	1205.88
180.645	298.85
180.864	467.59
181.084	494.85
181.303	-70800
181.522	-655.77
181.741	-727.63
181.96	-304.94
182.179	-100.33
182.398	-144.31
182.618	-124.5
182.837	-124.68
183.056	-84.82
183.275	-73.44
183.494	-38.04
183.713	-38.32
183.932	-17.53
184.151	1.38
184.37	-30.3
184.589	342.37
184.808	176.36
185.027	213.48
185.246	235.96
185.465	227.1
185.684	-64.71
185.903	-295.45
186.122	-13.93
186.341	-56.85
186.56	-78.42
186.779	-53.83
186.998	-12.91
187.216	-5.95
187.435	-6.14
187.654	9.28
187.873	25.9
188.092	22
188.311	7.28
188.53	-28.16
188.748	-8.78
188.967	-8.06
189.186	-41.27
189.405	-70.99
189.623	-274.59
189.842	-121.04
190.061	-122.39
190.28	-256
190.498	-223.36
190.717	-214.05
190.936	-186.33
191.154	-311.36
191.373	-13833.33
191.592	23400
191.81	-250
192.029	30.77
192.248	-34.07
192.466	-51.22
192.685	450
192.904	21.05
193.122	-43.64
193.341	-15.25
193.559	952.63
193.778	121.05
193.996	-2460
194.215	155.86
194.433	1009.52
194.652	1314.29
194.87	481.93
195.089	505.75
195.307	787.1
195.526	6885.71
195.744	659.09
195.963	-20300
196.181	-943.04
196.399	-343.59
196.618	-445.45
196.836	-232.2
197.055	-89.94
197.273	-129.7
197.491	-83.03
197.71	-22.7
197.928	-6.25
198.146	63.13
198.365	63.44
198.583	6.57
198.801	-446.55
199.019	-61.76
199.238	-102.53
199.456	-110.08
199.674	-168.23
199.892	-247.64
200.111	-1103.57
200.329	-314.89
200.547	-1544.68
200.765	-1106.67
200.983	861.04
201.202	-841.67
201.42	1018.87
201.638	308.85
201.856	194.17
202.074	105.88
202.292	114.86
202.51	184.62
202.728	125
202.946	175.76
203.165	131.75
203.383	305.83
203.601	468.75
203.819	405.71
204.037	305.94
204.255	273.21
204.473	801.2
204.691	1873.17
204.909	-2828.13
205.127	1641.38
205.345	1058.82
205.562	610.45
205.78	3237.04
205.998	-3757.89
206.216	-1482.93
206.434	-425.4
206.652	-500.84
206.87	-388.75
207.088	-472.92
207.306	-2733.33
207.523	-164.79
207.741	-108.3
207.959	-173.49
208.177	-180.9
208.395	-5846.15
208.612	580
208.83	747.89
209.048	412.93
209.266	342.06
209.483	268.85
209.701	-54.41
209.919	152.35
210.136	123.74
210.354	191.14
210.572	108.57
210.79	-32.46
211.007	71.54
211.225	154.95
211.442	101.24
211.66	85.99
211.878	111.62
212.095	535.59
212.313	1475.34
212.53	719.23
212.748	867.65
212.966	1126.42
213.183	-888.98
213.401	3470.27
213.618	-963.24
213.836	-377.46
214.053	-249.34
214.271	-308.49
214.488	-147.17
214.705	-421.9
214.923	-360.76
215.14	-124.22
215.358	-56.8
215.575	-49.81
215.793	-52.32
216.01	-39.54
216.227	-17.63
216.445	-69.78
216.662	-143.84
216.879	-203.23
217.097	-183.53
217.314	-148.28
217.531	766
217.749	592.59
217.966	223.31
218.183	349.47
218.4	888.73
218.618	-26366.67
218.835	-954.43
219.052	-1718.75
219.269	-1395.08
219.487	-339.49
219.704	-675.73
219.921	-594.64
220.138	748.19
220.355	-8187.5
220.572	-8883.33
220.79	-508.43
221.007	465.67
221.224	223.36
221.441	306.67
221.658	608.7
221.875	164.29
222.092	312.03
222.309	263.36
222.526	5744.44
222.743	1160.61
222.96	-394.57
223.177	2075
223.394	1303.85
223.611	-324.42
223.828	-287.64
224.045	5.26
224.262	-236.25
224.479	245.28
224.696	-5.26
224.913	59.88
225.13	68.51
225.347	38.95
225.564	61.79
225.781	73.27
225.997	71.1
226.214	71.57
226.431	72.33
226.648	44.16
226.865	24.2
227.082	14.76
227.298	15.27
227.515	16.54
227.732	17.03
227.949	18.45
228.165	21.53
228.382	19.12
228.599	14.96
228.816	10.85
229.032	16.89
229.249	27.86
229.466	34.2
229.682	31.51
229.899	30.29
230.116	20.79
230.332	24.14
230.549	-1.33
230.765	-13.11
230.982	-22.37
231.199	-26.9
231.415	-44.73
231.632	-84.39
231.848	-29.53
232.065	-11.68
232.281	-14.17
232.498	0.47
232.714	-9.68
232.931	3.21
233.147	6.97
233.364	26.18
233.58	22.05
233.797	37.07
234.013	31.76
234.23	24.17
234.446	20.23
234.662	29.68
234.879	35.61
235.095	37.94
235.312	40.36
235.528	36.2
235.744	23.44
235.961	27.52
236.177	5.56
236.393	18.43
236.61	18.8
236.826	26.93
237.042	22.66
237.258	20.43
237.475	17.63
237.691	22.94
237.907	41.09
238.123	50.44
238.339	49.3
238.556	38.39
238.772	38.88
238.988	33.42
239.204	20.45
239.42	20.09
239.636	13.3
239.853	17.9
240.069	13.84
240.285	11.25
240.501	8.62
240.717	4.42
240.933	5.25
241.149	4.01
241.365	5.42
241.581	7.25
241.797	7.92
242.013	8.13
242.229	9.97
242.445	15.92
242.661	16.42
242.877	21.16
243.093	23.76
243.309	23.9
243.525	27.36
243.741	25.06
243.957	27.02
244.173	24.92
244.388	26.98
244.604	21.15
244.82	15.47
245.036	13.6
245.252	12.01
245.468	10.93
245.683	8.9
245.899	7.59
246.115	5.24
246.331	3.89
246.547	4.63
246.762	2.41
246.978	2.32
247.194	2.62
247.409	4.4
247.625	2.07
247.841	3.8
248.057	6.35
248.272	3.77
248.488	4.12
248.703	4.16
248.919	-3.07
249.135	-6.95
249.35	-9.6
249.566	-0.33
249.782	-14.71
249.997	-9.56
250.213	-13.58
250.428	-14.32
250.644	-7.49
250.859	-1.9
251.075	-1.28
251.29	4.27
251.506	8.71
251.721	9.71
251.937	1.29
252.152	7.31
252.368	7.84
252.583	7.81
252.798	13.01
253.014	16.43
253.229	17.36
253.445	13.92
253.66	9.58
253.875	14.34
254.091	12.41
254.306	9.88
254.521	7.45
254.737	7.92
254.952	1.01
255.167	-1.36
255.383	-9.61
255.598	-2.8
255.813	-1.47
256.028	3.57
256.244	3.8
256.459	3.86
256.674	9.28
256.889	12.51
257.104	10.41
257.32	14.6
257.535	12.25
257.75	9.82
257.965	8.17
258.18	8.15
258.395	6.92
258.61	6.72
258.826	8.32
259.041	9.37
259.256	8.4
259.471	9.28
259.686	9.47
259.901	11.89
260.116	12.86
260.331	10.18
260.546	10.36
260.761	12.04
260.976	7.83
261.191	5.77
261.406	2.98
261.621	4.76
261.836	4.3
262.05	2.8
262.265	-2.19
262.48	1.98
262.695	7.51
262.91	11.39
263.125	10.58
263.34	14.39
263.555	15.54
263.769	12.42
263.984	8.57
264.199	6.81
264.414	6.22
264.629	4.82
264.843	3.42
265.058	4.35
265.273	6.65
265.488	9.7
265.702	11.74
265.917	10.72
266.132	16.01
266.346	17.79
266.561	17.55
266.776	18.45
266.99	22.48
267.205	20.83
267.42	18.62
267.634	13.73
267.849	8.74
268.063	9.51
268.278	7.5
268.492	1.37
268.707	2.34
268.922	3.73
269.136	3.67
269.351	0.68
269.565	4.35
269.78	7.15
269.994	6.91
270.209	9.5
270.423	7.81
270.637	9.88
270.852	12.48
271.066	10.89
271.281	13.18
271.495	12.56
271.709	12.84
271.924	11.84
272.138	11.77
272.353	12.8
272.567	12.43
272.781	15.81
272.996	16.11
273.21	12.94
273.424	15.02
273.638	10.97
273.853	8.71
274.067	9.99
274.281	14.54
274.495	16.36
274.71	15.1
274.924	16.95
275.138	11.37
275.352	10.89
275.566	13.18
275.781	6.12
275.995	7.29
276.209	10.14
276.423	7.03
276.637	2.76
276.851	-0.88
277.065	1.62
277.279	-3.03
277.493	-0.55
277.707	-1.23
277.921	-1.9
278.135	3.98
278.349	6.46
278.563	4.22
278.777	8.14
278.991	9.45
279.205	9.02
279.419	6.27
279.633	6.61
279.847	5.02
280.061	8.38
280.275	8.62
280.489	7.06
280.703	6.26
280.917	9.13
281.131	8.38
281.344	4.69
281.558	5.34
281.772	7.01
281.986	6.25
282.2	10.32
282.414	7.96
282.627	6.32
282.841	7.64
283.055	7.88
283.269	3.72
283.482	1.99
283.696	3.32
283.91	3.51
284.123	1.74
284.337	0.82
284.551	-1.07
284.764	-2.81
284.978	-1.09
285.192	0.87
285.405	0.12
285.619	2.48
285.833	1.86
286.046	3.11
286.26	3.2
286.473	4.42
286.687	5.92
286.9	5.12
287.114	6.06
287.327	5.55
287.541	5.06
287.754	2.98
287.968	3.68
288.181	5.4
288.395	2.31
288.608	1.65
288.822	3.1
289.035	6.89
289.248	6.98
289.462	7.57
289.675	6.24
289.889	5.87
290.102	6.26
290.315	4.71
290.529	6.91
290.742	5.85
290.955	6.11
291.169	3.28
291.382	2.62
291.595	4.4
291.808	6.31
292.022	7.25
292.235	6.09
292.448	7.82
292.661	9.86
292.875	6.61
293.088	10.7
293.301	10.04
293.514	14.33
293.727	14.44
293.94	11.45
294.153	8.72
294.367	10.66
294.58	9.13
294.793	6.77
295.006	5.76
295.219	6.99
295.432	6.95
295.645	5.53
295.858	4.34
296.071	2.88
296.284	4.26
296.497	3.99
296.71	2.72
296.923	3.41
297.136	3.88
297.349	4.6
297.562	0.36
297.775	-1.93
297.988	1.05
298.201	0.05
298.414	-0.9
298.626	-2.89
298.839	-2.04
299.052	1.36
299.265	3.68
299.478	5.79
299.691	3.82
299.903	6.46
300.116	10.4
300.329	11.48
300.542	12.89
300.755	10.95
300.967	11.58
301.18	14.35
301.393	10.36
301.605	10
301.818	11.34
302.031	11.18
302.243	12.9
302.456	12.09
302.669	11.59
302.881	11.39
303.094	14.79
303.307	17.75
303.519	16.27
303.732	16.21
303.944	15.32
304.157	13.7
304.37	13.6
304.582	14.22
304.795	11.29
305.007	12.05
305.22	10.29
305.432	9.82
305.645	6.13
305.857	2.84
306.069	3.52
306.282	3.16
306.494	3.87
306.707	4.61
306.919	4.8
307.132	4.92
307.344	7.41
307.556	7.68
307.769	6.66
307.981	7.49
308.193	9.84
308.406	9.33
308.618	9.41
308.83	7.59
309.043	7.79
309.255	9.18
309.467	10.22
309.679	6.6
309.892	8.07
310.104	8.97
310.316	8.56
310.528	7.9
310.74	11.1
310.953	10.19
311.165	11.63
311.377	14.85
311.589	13.52
311.801	15.02
312.013	13.51
312.225	9.35
312.437	10.88
312.649	11.51
312.862	11.19
313.074	9.76
313.286	10.51
313.498	12.83
313.71	13.29
313.922	10.98
314.134	10.38
314.346	11.45
314.558	11.29
314.77	7.99
314.982	6.78
315.193	7.92
315.405	6.86
315.617	7.88
315.829	7.09
316.041	4.44
316.253	7.65
316.465	6.72
316.677	6.28
316.888	10.17
317.1	7.26
317.312	8.75
317.524	9.72
317.736	8.84
317.947	7.74
318.159	7.35
318.371	6.67
318.583	4.71
318.794	4.31
319.006	4.99
319.218	5.42
319.43	8.22
319.641	6.71
319.853	4.9
320.064	6.67
320.276	7.01
320.488	4.73
320.699	5.09
320.911	7.52
321.123	9.87
321.334	8.91
321.546	8.43
321.757	11.42
321.969	10.99
322.18	11.09
322.392	8.85
322.603	8.6
322.815	10.11
323.026	9.98
323.238	6.52
323.449	4.92
323.661	8.29
323.872	7.92
324.083	9.53
324.295	9.82
324.506	10.12
324.718	10.39
324.929	10.02
325.14	9.71
325.352	8.85
325.563	9.53
325.774	11.62
325.986	9.57
326.197	9.41
326.408	7.06
326.62	5
326.831	5.86
327.042	6.32
327.253	3.49
327.464	5
327.676	6.05
327.887	6.63
328.098	4.09
328.309	1.61
328.52	0.16
328.732	-0.12
328.943	3.42
329.154	2.12
329.365	0.96
329.576	2.93
329.787	1.91
329.998	4.21
330.209	7.82
330.42	4.54
330.631	6.94
330.842	10.33
331.053	6.25
331.264	7.54
331.475	6.96
331.686	9.28
331.897	13.62
332.108	12.23
332.319	10.04
332.53	8.07
332.741	13.13
332.952	13.8
333.163	12.81
333.374	17.8
333.585	16.97
333.795	15.1
334.006	11.51
334.217	7.1
334.428	9.3
334.639	8.39
334.849	10.77
335.06	9.39
335.271	7.27
335.482	6.51
335.692	4.22
335.903	3.59
336.114	5.29
336.325	10.11
336.535	9.96
336.746	10.11
336.957	12.55
337.167	9.46
337.378	9.64
337.589	11.5
337.799	13.23
338.01	14.02
338.22	13.39
338.431	12.93
338.642	10.06
338.852	12.35
339.063	13.2
339.273	11.54
339.484	13.01
339.694	13.85
339.905	14.62
340.115	12.46
340.326	12.28
340.536	14.99
340.746	14.76
340.957	14.45
341.167	15.19
341.378	10.07
341.588	10.39
341.799	8.94
342.009	5.22
342.219	4.11
342.43	4.5
342.64	4.6
342.85	1.4
343.061	0.95
343.271	2.73
343.481	2.43
343.691	3.99
343.902	2.63
344.112	5.48
344.322	7.4
344.532	5.45
344.743	6.49
344.953	7.54
345.163	7.23
345.373	9.12
345.583	8.84
345.793	7.74
346.004	6.97
346.214	7.8
346.424	3.31
346.634	3.17
346.844	7.68
347.054	6.88
347.264	6.07
347.474	8.27
347.684	7.87
347.894	8.19
348.104	8.11
348.314	7.49
348.524	7.66
348.734	9.93
348.944	9.23
349.154	6.86
349.364	4.71
349.574	5.11
349.784	4.98
349.994	4.7
350.204	0.59
350.413	-0.03
350.623	4.26
350.833	5.03
351.043	3.49
351.253	7.17
351.463	5.75
351.672	8.21
351.882	6
352.092	5.17
352.302	4.44
352.511	6.9
352.721	5.37
352.931	2.24
353.141	2.78
353.35	2.06
353.56	0.35
353.77	-0.41
353.979	0
354.189	0.97
354.399	1.07
354.608	2.27
354.818	0.85
355.027	2.47
355.237	4.75
355.447	4.98
355.656	5.35
355.866	5.13
356.075	7.42
356.285	7.55
356.494	8.22
356.704	7.9
356.913	5.5
357.123	6.93
357.332	6.84
357.542	7.14
357.751	6.9
357.96	6.58
358.17	6.17
358.379	6.38
358.589	4.64
358.798	3.62
359.007	4.82
359.217	7
359.426	7.39
359.635	9.32
359.845	7.72
360.054	8.64
360.263	10.6
360.472	11.2
360.682	12.14
360.891	11.51
361.1	13.18
361.309	13.86
361.519	13.39
361.728	12.65
361.937	10.99
362.146	12.58
362.355	8.66
362.564	7.95
362.774	7.81
362.983	8.36
363.192	9.41
363.401	8.4
363.61	5.6
363.819	5.62
364.028	6.71
364.237	5.84
364.446	4.58
364.655	7.6
364.864	7.56
365.073	6.45
365.282	4.6
365.491	3.87
365.7	3.93
365.909	5.7
366.118	5.77
366.327	4.45
366.536	4.73
366.745	5.66
366.954	4.87
367.162	5.75
367.371	6.05
367.58	5.69
367.789	6.85
367.998	6.98
368.207	7.12
368.415	5.95
368.624	7.59
368.833	9.13
369.042	8.91
369.25	10.21
369.459	7.96
369.668	9.9
369.877	9.62
370.085	9.13
370.294	8.73
370.503	7.69
370.711	9.64
370.92	8.29
371.129	9.36
371.337	8.76
371.546	8.56
371.754	10.25
371.963	9.28
372.171	8.9
372.38	9.75
372.589	9.7
372.797	9.53
373.006	11.72
373.214	13.01
373.423	12.3
373.631	12.59
373.84	10.94
374.048	10.15
374.256	9.78
374.465	10.47
374.673	9.64
374.882	9.99
375.09	12.11
375.298	9.25
375.507	8.89
375.715	9.43
375.923	9.58
376.132	10.2
376.34	10.36
376.548	10.26
376.757	11.18
376.965	11.09
377.173	9.51
377.381	7.32
377.59	8.92
377.798	9.41
378.006	5.81
378.214	5.1
378.423	4.6
378.631	2.4
378.839	2.14
379.047	0
379.255	1.91
379.463	4.62
379.671	5.44
379.879	5.2
380.088	5.57
380.296	7.8
380.504	8.29
380.712	9.71
380.92	12.06
381.128	13.23
381.336	13.76
381.544	11.99
381.752	11.03
381.96	12.19
382.168	11.35
382.376	10.85
382.584	10.24
382.791	9.55
382.999	7.79
383.207	7.34
383.415	5.13
383.623	6.05
383.831	6.25
384.039	6.53
384.247	5.76
384.454	5.71
384.662	5.4
384.87	6.34
385.078	7.12
385.285	8.1
385.493	9.16
385.701	10.35
385.909	8.79
386.116	9.48
386.324	8.11
386.532	6.74
386.739	5.48
386.947	5.36
387.155	4.51
387.362	4.6
387.57	4.93
387.778	4.5
387.985	4.6
388.193	5.6
388.4	5.03
388.608	6.17
388.816	6.32
389.023	8.41
389.231	9.04
389.438	9.24
389.646	8.24
389.853	7.76
390.061	7.25
390.268	7.3
390.475	7.61
390.683	6.93
390.89	6.18
391.098	6.09
391.305	4.76
391.512	4.14
391.72	5.94
391.927	5.58
392.135	5.33
392.342	4.94
392.549	5.38
392.756	5.33
392.964	5.88
393.171	5.87
393.378	5.4
393.586	5.48
393.793	5.85
394	4.38
394.207	4.74
394.414	4.55
394.622	4.56
394.829	3.68
395.036	3.21
395.243	3.87
395.45	3.48
395.657	4.82
395.864	3.64
396.072	2.98
396.279	1.7
396.486	1.96
396.693	2.46
396.9	2.64
397.107	3.23
397.314	3.11
397.521	3.16
397.728	4.82
397.935	5.09
398.142	6.6
398.349	7.65
398.556	8.67
398.763	8.96
398.97	9.75
399.177	9.65
399.383	8.03
399.59	8.19
399.797	8.48
400.004	7.71
400.211	8.01
400.418	7.61
400.625	7.59
400.831	7.84
401.038	8.55
401.245	8.6
401.452	9.02
401.658	10.44
401.865	11.69
402.072	11.54
402.279	11.22
402.485	10.85
402.692	11.31
402.899	10.18
403.105	10.13
403.312	9.24
403.519	9.92
403.725	9.85
403.932	9.52
404.138	8.63
404.345	8.1
404.552	7.39
404.758	7.16
404.965	7.7
405.171	8.65
405.378	8.11
405.584	8.76
405.791	7.78
405.997	8.48
406.204	7.91
406.41	8.81
406.617	8.19
406.823	9.65
407.029	9.13
407.236	8.61
407.442	8.59
407.649	9.33
407.855	9.51
408.061	9.05
408.268	7.83
408.474	8.88
408.68	8.45
408.887	8.34
409.093	8.2
409.299	8.64
409.505	8.33
409.712	7.86
409.918	7.61
410.124	7.13
410.33	7.09
410.537	6.2
410.743	5.92
410.949	6.64
411.155	6.37
411.361	4.62
411.567	4.77
411.773	4.46
411.98	4.77
412.186	4.15
412.392	4.84
412.598	5.26
412.804	6.46
413.01	6.51
413.216	4.64
413.422	5.65
413.628	7.39
413.834	7.3
414.04	7.61
414.246	7.2
414.452	8
414.658	7.35
414.864	7.31
415.07	7.06
415.275	6.42
415.481	7.05
415.687	7.04
415.893	5.71
416.099	5.47
416.305	5.52
416.511	5.35
416.716	4.6
416.922	4.73
417.128	3.74
417.334	3.92
417.539	4.64
417.745	4.33
417.951	4.49
418.157	5.28
418.362	5.25
418.568	5.46
418.774	5.34
418.979	5.73
419.185	5.27
419.391	5.89
419.596	5.72
419.802	5.69
420.008	6.22
420.213	1.77
420.419	2.04
420.624	2.36
420.83	2.11
421.035	2.62
421.241	2.34
421.446	2.86
421.652	3.13
421.857	3.14
422.063	2.58
422.268	2.42
422.474	6.28
422.679	5.74
422.885	5.31
423.09	5.15
423.295	4.79
423.501	4.76
423.706	4.74
423.911	4.29
424.117	4.39
424.322	4.83
424.527	4.68
424.733	5.25
424.938	5.37
425.143	6.08
425.349	6.34
425.554	6.43
425.759	6.12
425.964	5.97
426.169	6.51
426.375	6.88
426.58	7.39
426.785	7.08
426.99	6.72
427.195	6.75
427.4	6
427.605	5.75
427.811	5.49
428.016	5.75
428.221	5.87
428.426	6.23
428.631	5.98
428.836	5.19
429.041	5.63
429.246	6.2
429.451	6.22
429.656	6.62
429.861	7.19
430.066	7.88
430.271	8.4
430.476	8.38
430.681	7.11
430.886	5.93
431.09	6.58
431.295	6.71
431.5	6.53
431.705	6.69
431.91	6.58
432.115	5.88
432.32	5.66
432.524	4.86
432.729	4.64
432.934	4.58
433.139	5.55
433.343	4.86
433.548	4.57
433.753	4.56
433.958	4.17
434.162	4.13
434.367	5.24
434.572	5.49
434.776	6.22
434.981	6.69
435.186	7.44
435.39	7.46
435.595	7.04
435.799	7.11
436.004	6.84
436.209	6.99
436.413	6.61
436.618	6.31
436.822	6.3
437.027	6.46
437.231	5.54
437.436	5.46
437.64	5.63
437.845	6.18
438.049	5.8
438.253	5.58
438.458	5.54
438.662	5.27
438.867	4.55
439.071	4.45
439.275	4.31
439.48	4.42
439.684	3.89
439.888	3.77
440.093	3.95
440.297	4.17
440.501	4.89
440.706	4.58
440.91	4.45
441.114	4.54
441.318	4.06
441.523	3.96
441.727	4.16
441.931	4.15
442.135	3.55
442.339	3.06
442.543	2.92
442.748	2.19
442.952	2.68
443.156	3.29
443.36	3.28
443.564	3.54
443.768	3.48
443.972	3.64
444.176	4.04
444.38	4.47
444.584	4.72
444.788	4.41
444.992	4.8
445.196	5.03
445.4	4.7
445.604	5.06
445.808	4.64
446.012	5
446.216	5.03
446.42	5.34
446.624	5.65
446.828	5.51
447.032	6.13
447.235	6.05
447.439	5.26
447.643	6.03
447.847	6.13
448.051	6.27
448.254	6.27
448.458	6.79
448.662	6.5
448.866	5.89
449.069	6.52
449.273	6.37
449.477	6.41
449.681	7.08
449.884	6.48
450.088	6.09
450.292	6.76
450.495	5.95
450.699	5.15
450.902	5.29
451.106	6.26
451.31	5.42
451.513	6
451.717	5.87
451.92	5
452.124	4.76
452.327	5.25
452.531	5.56
452.734	5.79
452.938	6.76
453.141	6.64
453.345	5.74
453.548	5.71
453.752	5.21
453.955	5.62
454.158	6.31
454.362	7
454.565	7.19
454.769	6.79
454.972	7.29
455.175	6.24
455.379	6.22
455.582	6.86
455.785	7.02
455.988	6.49
456.192	6.71
456.395	6.39
456.598	5.97
456.801	5.03
457.005	5.8
457.208	5.79
457.411	6.36
457.614	5.79
457.817	5.55
458.021	5.82
458.224	6.23
458.427	5.63
458.63	6
458.833	5.99
459.036	6.24
459.239	5.77
459.442	5.57
459.645	5.45
459.848	5.81
460.051	5.38
460.254	5.14
460.457	5.35
460.66	5.66
460.863	5.44
461.066	6.08
461.269	6.55
461.472	6.51
461.675	6.43
461.878	6.61
462.081	6.31
462.284	7.28
462.486	7.17
462.689	7
462.892	6.56
463.095	6.44
463.298	6.17
463.5	5.96
463.703	6.07
463.906	6.72
464.109	6.47
464.311	6.79
464.514	6.6
