Data from JASIL_3080_Reflection_04.txt Node
Date: Mon Nov 09 11:57:23 EST 2015
User: Geneva
Spectrometer: USB4E03002
Autoset integration time: false
Trigger mode: 4
Integration Time (sec): 1.000000E-1
Scans to average: 10
Electric dark correction enabled: false
Nonlinearity correction enabled: false
Boxcar width: 5
Stray light correction enabled: false
XAxis mode: Wavelengths
Stop averaging: false
Number of Pixels in Spectrum: 3648
>>>>>Begin Spectral Data<<<<<
177.575	97.64
177.794	-1057.89
178.014	442.86
178.233	190.75
178.452	281.16
178.672	228.34
178.891	179.54
179.11	364.58
179.33	239.11
179.549	181.02
179.768	292.19
179.987	181.32
180.207	129.55
180.426	152.74
180.645	196.25
180.864	159.06
181.084	194.98
181.303	246.92
181.522	220.93
181.741	3072.73
181.96	-240.79
182.179	-355.38
182.398	-72.05
182.618	-23.31
182.837	-73.53
183.056	-68.25
183.275	-561.11
183.494	139.13
183.713	2550
183.932	690.91
184.151	56.86
184.37	32.39
184.589	38.12
184.808	32.93
185.027	24.35
185.246	27.77
185.465	46.94
185.684	44.28
185.903	29.79
186.122	152.83
186.341	279.07
186.56	494.74
186.779	-75.35
186.998	-292.13
187.216	-948
187.435	-226.09
187.654	3085.71
187.873	443.14
188.092	255
188.311	204.55
188.53	151.67
188.748	126.42
188.967	153.06
189.186	143.53
189.405	116.59
189.623	151.4
189.842	141.79
190.061	280.54
190.28	336.41
190.498	1230.3
190.717	540.6
190.936	298.33
191.154	203.15
191.373	173.04
191.592	165.73
191.81	387.36
192.029	129.23
192.248	111.32
192.466	68.8
192.685	61.5
192.904	41.13
193.122	45.83
193.341	64.94
193.559	80.03
193.778	113.66
193.996	168.71
194.215	178.03
194.433	246.61
194.652	221.21
194.87	213.69
195.089	271.31
195.307	550.52
195.526	840.74
195.744	1585.71
195.963	425.87
196.181	554.84
196.399	200.75
196.618	215.1
196.836	170.18
197.055	189.83
197.273	223.79
197.491	180.25
197.71	162.15
197.928	175.2
198.146	193.37
198.365	210.39
198.583	205.16
198.801	201.09
199.019	218.29
199.238	635.19
199.456	738.53
199.674	1922.92
199.892	-7481.82
200.111	-932.47
200.329	32466.67
200.547	518.75
200.765	308.82
200.983	303.31
201.202	331.14
201.42	241.95
201.638	184.14
201.856	140.55
202.074	104.57
202.292	106.49
202.51	98.17
202.728	62.35
202.946	59.92
203.165	65.81
203.383	71.21
203.601	49.86
203.819	39.34
204.037	10.47
204.255	47.06
204.473	70.44
204.691	101.97
204.909	128.08
205.127	110
205.345	112.93
205.562	129.68
205.78	99.02
205.998	111.84
206.216	191.61
206.434	156.63
206.652	95.21
206.87	103.18
207.088	72.11
207.306	48.87
207.523	74.46
207.741	103.62
207.959	384.85
208.177	-126.56
208.395	443.75
208.612	-533.33
208.83	254.88
209.048	350.49
209.266	11800
209.483	-451.14
209.701	-181.1
209.919	-126.3
210.136	-178.44
210.354	811.29
210.572	1254.9
210.79	-450.43
211.007	-720.31
211.225	-210.1
211.442	-104.62
211.66	-146.12
211.878	-115.87
212.095	-677.42
212.313	612.82
212.53	1996.97
212.748	-671.11
212.966	-1471.43
213.183	4450
213.401	-355.94
213.618	-145.7
213.836	-153.27
214.053	-240.6
214.271	-826.92
214.488	-88.79
214.705	-35.54
214.923	-2.08
215.14	-44.78
215.358	-0.3
215.575	-7.14
215.793	-21.72
216.01	-91.6
216.227	-90.73
216.445	-19.67
216.662	-54.59
216.879	-195.51
217.097	-160.4
217.314	-290.18
217.531	484.09
217.749	1175
217.966	-2440
218.183	45200
218.4	-423.15
218.618	561.76
218.835	-1517.65
219.052	-182.27
219.269	-146.73
219.487	-209.09
219.704	-1528
219.921	-563.64
220.138	492.98
220.355	1100
220.572	275.12
220.79	203.76
221.007	251.2
221.224	204.8
221.441	171.82
221.658	147.61
221.875	132.35
222.092	148.19
222.309	181.23
222.526	140.76
222.743	109.73
222.96	102.77
223.177	79.77
223.394	55.61
223.611	62.62
223.828	71.46
224.045	70.82
224.262	63.16
224.479	56.21
224.696	28.69
224.913	38.72
225.13	26.22
225.347	28.13
225.564	25.06
225.781	30.64
225.997	34.37
226.214	34.56
226.431	39.55
226.648	38.51
226.865	35.45
227.082	44.49
227.298	39.9
227.515	44.74
227.732	45.03
227.949	44.87
228.165	40.26
228.382	41.36
228.599	42.54
228.816	40.26
229.032	42.66
229.249	47
229.466	44.39
229.682	47.23
229.899	38.71
230.116	41.18
230.332	34.86
230.549	36.48
230.765	35.27
230.982	34.43
231.199	48.77
231.415	45.05
231.632	48.37
231.848	46.52
232.065	40.35
232.281	48.01
232.498	35.64
232.714	41.01
232.931	43.9
233.147	32.9
233.364	39.48
233.58	24.98
233.797	22.87
234.013	18.18
234.23	13.51
234.446	22.78
234.662	23.03
234.879	22.83
235.095	16.49
235.312	9.52
235.528	19.43
235.744	8.85
235.961	2.23
236.177	15.22
236.393	21.13
236.61	23.55
236.826	14.62
237.042	11.54
237.258	20.58
237.475	32.97
237.691	43.05
237.907	40.98
238.123	35.37
238.339	36.41
238.556	22.51
238.772	12.43
238.988	8.1
239.204	7.69
239.42	10.27
239.636	14.48
239.853	10.59
240.069	11.85
240.285	11.07
240.501	14.45
240.717	14.87
240.933	14.41
241.149	11.02
241.365	13.48
241.581	11.11
241.797	11.24
242.013	7.32
242.229	8.14
242.445	4.5
242.661	3.15
242.877	1.27
243.093	3.6
243.309	6.3
243.525	13.67
243.741	14.3
243.957	15.08
244.173	14.3
244.388	19.63
244.604	14.4
244.82	13.7
245.036	15.05
245.252	13.87
245.468	11.92
245.683	10.38
245.899	10.65
246.115	9.07
246.331	11.3
246.547	10.79
246.762	9.47
246.978	10.01
247.194	9.13
247.409	7.69
247.625	9.75
247.841	10.07
248.057	10.53
248.272	10.33
248.488	7.91
248.703	1.65
248.919	5.56
249.135	6.6
249.35	6.26
249.566	17.84
249.782	17.46
249.997	12.16
250.213	9.13
250.428	10.29
250.644	11.63
250.859	15.61
251.075	16.84
251.29	16.13
251.506	12.53
251.721	17.15
251.937	13.09
252.152	16.13
252.368	17.97
252.583	21.73
252.798	26.41
253.014	27.78
253.229	24.17
253.445	26.45
253.66	16.73
253.875	19.66
254.091	19.62
254.306	21.11
254.521	15.46
254.737	13.67
254.952	12.49
255.167	8.12
255.383	10.38
255.598	17.39
255.813	18.94
256.028	23.78
256.244	21.72
256.459	18.45
256.674	12.29
256.889	12.66
257.104	17.2
257.32	17.09
257.535	13.25
257.75	9.9
257.965	8.42
258.18	8.45
258.395	9.2
258.61	10.12
258.826	10.21
259.041	10.27
259.256	9.32
259.471	6.76
259.686	6.71
259.901	11.28
260.116	10.7
260.331	10.56
260.546	9.35
260.761	9.29
260.976	7.78
261.191	7.46
261.406	11.83
261.621	16
261.836	18.57
262.05	14.44
262.265	11.72
262.48	15.06
262.695	13.94
262.91	17.47
263.125	20.23
263.34	20.96
263.555	21.41
263.769	19.5
263.984	19.03
264.199	17.66
264.414	22.19
264.629	19.88
264.843	20.66
265.058	20.63
265.273	18.81
265.488	19.83
265.702	18.83
265.917	19.1
266.132	17.17
266.346	15.54
266.561	16.6
266.776	17.47
266.99	16.04
267.205	14.93
267.42	15.54
267.634	12.24
267.849	9.82
268.063	6.01
268.278	3.15
268.492	4.08
268.707	5.73
268.922	6.32
269.136	0.96
269.351	3.6
269.565	7.64
269.78	9.49
269.994	11.18
270.209	11.98
270.423	16.42
270.637	17.19
270.852	14.38
271.066	14.96
271.281	15.5
271.495	17.82
271.709	15.31
271.924	11.92
272.138	10.46
272.353	11.07
272.567	10.03
272.781	9.74
272.996	11.33
273.21	16.99
273.424	14.31
273.638	13.52
273.853	10.62
274.067	14.7
274.281	14.12
274.495	14.68
274.71	15.65
274.924	14.44
275.138	14.11
275.352	7.12
275.566	4.37
275.781	4.24
275.995	3.6
276.209	7.91
276.423	9.23
276.637	11.75
276.851	9.23
277.065	9.84
277.279	7.98
277.493	7.58
277.707	12.3
277.921	11.95
278.135	13.77
278.349	13.53
278.563	11.42
278.777	11.18
278.991	9.68
279.205	10.18
279.419	5.5
279.633	6.42
279.847	5.67
280.061	8.04
280.275	9.66
280.489	10.16
280.703	9.43
280.917	12.46
281.131	10.01
281.344	9.66
281.558	7.73
281.772	8.52
281.986	10
282.2	7.18
282.414	4
282.627	1.23
282.841	-2
283.055	-2.11
283.269	-3.07
283.482	-1.34
283.696	-1.42
283.91	2.3
284.123	2.37
284.337	1.48
284.551	2.38
284.764	1.76
284.978	3.23
285.192	3.33
285.405	4.83
285.619	1.72
285.833	1.14
286.046	4.52
286.26	2.61
286.473	3.26
286.687	2.86
286.9	7.64
287.114	6.84
287.327	5.65
287.541	5.32
287.754	4.71
287.968	4.82
288.181	4.23
288.395	2.95
288.608	4.46
288.822	4.51
289.035	3.77
289.248	0.61
289.462	1.73
289.675	3.92
289.889	5
290.102	3.62
290.315	7.64
290.529	5.6
290.742	3.58
290.955	4.18
291.169	6.18
291.382	8.47
291.595	8.02
291.808	7.34
292.022	5.81
292.235	8.19
292.448	8.2
292.661	5.51
292.875	6.32
293.088	7.69
293.301	6.4
293.514	7.12
293.727	8.6
293.94	9.6
294.153	11.09
294.367	11.14
294.58	11.03
294.793	11.7
295.006	10.53
295.219	10.83
295.432	10.22
295.645	12.73
295.858	9.97
296.071	8.88
296.284	7.41
296.497	8.72
296.71	9.74
296.923	7.43
297.136	7.79
297.349	9.25
297.562	11.19
297.775	9.95
297.988	7.91
298.201	8.76
298.414	7.56
298.626	9.59
298.839	8.42
299.052	7.21
299.265	8.67
299.478	6.37
299.691	6.66
299.903	3.27
300.116	6.1
300.329	6.28
300.542	6
300.755	6.34
300.967	3.22
301.18	2.45
301.393	3.26
301.605	3.97
301.818	6.07
302.031	6.58
302.243	8.35
302.456	5.13
302.669	4.75
302.881	6.78
303.094	4.5
303.307	7.45
303.519	10.13
303.732	6.96
303.944	8.51
304.157	9.12
304.37	8.53
304.582	7.18
304.795	10.85
305.007	9.42
305.22	9.07
305.432	13.77
305.645	13.35
305.857	8.99
306.069	10.82
306.282	10.22
306.494	11.22
306.707	10.02
306.919	13.13
307.132	10.95
307.344	11.48
307.556	10.95
307.769	8.98
307.981	8.03
308.193	10.43
308.406	11.8
308.618	8.97
308.83	8.67
309.043	9.43
309.255	8.77
309.467	8.53
309.679	10.31
309.892	10.19
310.104	14.15
310.316	14.87
310.528	15.49
310.74	15.6
310.953	16.41
311.165	15.94
311.377	15.96
311.589	15.6
311.801	13.51
312.013	11.08
312.225	11.79
312.437	5.48
312.649	5.99
312.862	1.52
313.074	-3.41
313.286	-4.27
313.498	-3.39
313.71	-0.79
313.922	1.97
314.134	7.06
314.346	8.51
314.558	9.47
314.77	13.42
314.982	14.42
315.193	16.82
315.405	17.33
315.617	17.38
315.829	16.98
316.041	15.05
316.253	15.58
316.465	14.24
316.677	13.91
316.888	9.92
317.1	9.89
317.312	8.95
317.524	9.17
317.736	12.18
317.947	15.07
318.159	13.08
318.371	11.99
318.583	9.03
318.794	11.51
319.006	11.42
319.218	13.57
319.43	11.61
319.641	9.96
319.853	10.66
320.064	11.97
320.276	12.03
320.488	13.25
320.699	14.05
320.911	12.56
321.123	9.67
321.334	11.46
321.546	13.42
321.757	13.31
321.969	13.28
322.18	12.99
322.392	12.98
322.603	12.32
322.815	11.42
323.026	12.67
323.238	15.73
323.449	17.17
323.661	15.47
323.872	15.53
324.083	16.18
324.295	14.73
324.506	15.16
324.718	14.03
324.929	16.28
325.14	18.38
325.352	17.78
325.563	18.35
325.774	18.72
325.986	19.19
326.197	18.77
326.408	19.18
326.62	22.61
326.831	22.46
327.042	24.28
327.253	22.63
327.464	20.87
327.676	23.56
327.887	20.09
328.098	18.52
328.309	18.02
328.52	16.84
328.732	12.99
328.943	14.34
329.154	13.25
329.365	12.15
329.576	11.27
329.787	11.68
329.998	8.03
330.209	11.24
330.42	11.52
330.631	12.08
330.842	14.32
331.053	17.96
331.264	13.13
331.475	13.42
331.686	14.28
331.897	16.8
332.108	16.06
332.319	17.19
332.53	16.79
332.741	17.75
332.952	17.34
333.163	17.05
333.374	18.88
333.585	22.48
333.795	23.44
334.006	21.21
334.217	20.14
334.428	21.25
334.639	19.19
334.849	18.47
335.06	16.79
335.271	17.58
335.482	13.99
335.692	12.48
335.903	12.78
336.114	12.3
336.325	13.01
336.535	10.49
336.746	11.29
336.957	12.72
337.167	12.1
337.378	13.94
337.589	13.86
337.799	16.95
338.01	14.17
338.22	12.61
338.431	12.52
338.642	13.22
338.852	12.81
339.063	12.11
339.273	10.95
339.484	13.89
339.694	13.99
339.905	14.74
340.115	16.38
340.326	17.03
340.536	15.55
340.746	15.47
340.957	14.42
341.167	14.69
341.378	12.1
341.588	13.54
341.799	10.97
342.009	10.79
342.219	8.91
342.43	5.94
342.64	6.5
342.85	7.36
343.061	7.16
343.271	8.25
343.481	9.98
343.691	11.31
343.902	10.34
344.112	9.58
344.322	10.63
344.532	11.09
344.743	10.18
344.953	11.14
345.163	13.37
345.373	13.52
345.583	11.64
345.793	10.69
346.004	11.34
346.214	10.83
346.424	10.81
346.634	9.47
346.844	11.06
347.054	11.92
347.264	11.47
347.474	8.2
347.684	8.18
347.894	9.06
348.104	7.38
348.314	6.86
348.524	6.77
348.734	6.58
348.944	4.77
349.154	5.15
349.364	7.78
349.574	6.44
349.784	6.58
349.994	6.16
350.204	7.45
350.413	9.1
350.623	8.54
350.833	8.77
351.043	10.77
351.253	14.17
351.463	12.15
351.672	8.89
351.882	10
352.092	12.55
352.302	12.35
352.511	12.03
352.721	11.31
352.931	11.58
353.141	12.68
353.35	11.15
353.56	9
353.77	10.13
353.979	10.5
354.189	9.56
354.399	9.72
354.608	8.82
354.818	9.43
355.027	12.04
355.237	12.98
355.447	12.92
355.656	13.88
355.866	15.35
356.075	14.65
356.285	15.65
356.494	16.57
356.704	15.56
356.913	15.73
357.123	14.71
357.332	12.49
357.542	11.69
357.751	10.4
357.96	9.49
358.17	7.49
358.379	6.76
358.589	6.57
358.798	6
359.007	6.33
359.217	7.51
359.426	7.9
359.635	9.53
359.845	10.51
360.054	10.54
360.263	10.62
360.472	10.88
360.682	12.13
360.891	11.35
361.1	10.45
361.309	9.55
361.519	8.76
361.728	8.76
361.937	6.6
362.146	5.23
362.355	6.18
362.564	7.08
362.774	5.83
362.983	6.52
363.192	7.08
363.401	8.26
363.61	9.28
363.819	11.54
364.028	12.39
364.237	12.3
364.446	12.2
364.655	12.22
364.864	11.5
365.073	13.21
365.282	11.77
365.491	11.79
365.7	11.54
365.909	12.02
366.118	10.48
366.327	9.97
366.536	12.01
366.745	11.97
366.954	11.81
367.162	12.88
367.371	13.49
367.58	12.49
367.789	12.28
367.998	12.57
368.207	12.35
368.415	12.01
368.624	10.25
368.833	8.23
369.042	7.7
369.25	8.01
369.459	6.68
369.668	6.48
369.877	6.12
370.085	4.8
370.294	4.31
370.503	4.87
370.711	4.74
370.92	6.26
371.129	6.52
371.337	7.47
371.546	6.33
371.754	6.82
371.963	6.72
372.171	8.53
372.38	11
372.589	11.99
372.797	9.87
373.006	9.64
373.214	9.93
373.423	10.64
373.631	10.79
373.84	9.64
374.048	8.95
374.256	8.63
374.465	6.79
374.673	6.56
374.882	5.49
375.09	7.41
375.298	8.03
375.507	6.67
375.715	7.1
375.923	7.54
376.132	9.09
376.34	11.01
376.548	10.63
376.757	11.41
376.965	9.84
377.173	10.95
377.381	10.56
377.59	11.54
377.798	12.97
378.006	12.23
378.214	11.85
378.423	12.37
378.631	11.19
378.839	12.37
379.047	13.12
379.255	15.05
379.463	14.23
379.671	14.1
379.879	13.58
380.088	11.71
380.296	11.73
380.504	11.7
380.712	11.58
380.92	10.03
381.128	8.18
381.336	7.41
381.544	5.3
381.752	4.99
381.96	4.79
382.168	3.98
382.376	5.49
382.584	5.44
382.791	5.74
382.999	5.1
383.207	5.72
383.415	5.94
383.623	5.11
383.831	6.49
384.039	7.56
384.247	7.88
384.454	5.92
384.662	7.16
384.87	7.93
385.078	7.91
385.285	7.81
385.493	7.61
385.701	7.25
385.909	8.91
386.116	9.52
386.324	9.18
386.532	7.91
386.739	9.7
386.947	8.59
387.155	7.63
387.362	8.33
387.57	8.3
387.778	8.29
387.985	8.45
388.193	8.08
388.4	6.88
388.608	7.11
388.816	7.01
389.023	8.69
389.231	8.42
389.438	9.49
389.646	8.68
389.853	8.14
390.061	9.54
390.268	10.64
390.475	10.15
390.683	10.22
390.89	9.32
391.098	9.29
391.305	8.12
391.512	8.07
391.72	7.45
391.927	7.12
392.135	8.19
392.342	7.98
392.549	7.18
392.756	6.7
392.964	6.9
393.171	6.88
393.378	8.63
393.586	8.68
393.793	8.61
394	7.82
394.207	7.66
394.414	8.51
394.622	8.98
394.829	9.25
395.036	10.08
395.243	9.32
395.45	9.64
395.657	8.57
395.864	8
396.072	8.06
396.279	8.8
396.486	8.84
396.693	7.72
396.9	7.54
397.107	8.24
397.314	8.06
397.521	9.51
397.728	9.32
397.935	8.34
398.142	8.96
398.349	9.3
398.556	9.91
398.763	10.01
398.97	10.26
399.177	10.03
399.383	9.46
399.59	9.75
399.797	8.83
400.004	8.91
400.211	10.23
400.418	10.47
400.625	9.63
400.831	9.62
401.038	10.01
401.245	10.58
401.452	10.13
401.658	10.28
401.865	10.51
402.072	11.12
402.279	10.7
402.485	10.96
402.692	10.51
402.899	11.14
403.105	10.7
403.312	10.53
403.519	9.53
403.725	10.35
403.932	9.73
404.138	10.52
404.345	10.64
404.552	11.17
404.758	10.47
404.965	10.92
405.171	11.45
405.378	12.03
405.584	13.11
405.791	13.41
405.997	13.26
406.204	14.55
406.41	13.53
406.617	12.1
406.823	11.95
407.029	12.16
407.236	11.64
407.442	11.36
407.649	10.78
407.855	9.47
408.061	9.49
408.268	9.71
408.474	9.36
408.68	10
408.887	11.25
409.093	11.13
409.299	11.08
409.505	11.39
409.712	11.3
409.918	11.42
410.124	12.41
410.33	12.26
410.537	11.27
410.743	11.49
410.949	11.3
411.155	11.08
411.361	11.49
411.567	11.99
411.773	12.57
411.98	13.16
412.186	13.15
412.392	12.48
412.598	13.56
412.804	13.91
413.01	13.66
413.216	13.23
413.422	13.95
413.628	14.08
413.834	14.11
414.04	13.13
414.246	12.64
414.452	12.74
414.658	12.43
414.864	11.58
415.07	11.63
415.275	12.01
415.481	12.11
415.687	12.05
415.893	12.39
416.099	12
416.305	12.4
416.511	11.89
416.716	12.1
416.922	12.88
417.128	13.34
417.334	13.7
417.539	13.36
417.745	12.82
417.951	12.25
418.157	12.26
418.362	12.23
418.568	11.72
418.774	11.19
418.979	10.73
419.185	9.82
419.391	9.12
419.596	8.76
419.802	9.1
420.008	9.86
420.213	5.12
420.419	5.08
420.624	5.66
420.83	5.98
421.035	6.82
421.241	7.19
421.446	7.46
421.652	7.89
421.857	7.9
422.063	7.63
422.268	7.43
422.474	12.13
422.679	12.07
422.885	11.42
423.09	11.13
423.295	10.82
423.501	10.59
423.706	10.67
423.911	10.42
424.117	10.38
424.322	10.51
424.527	10.79
424.733	11.35
424.938	11.17
425.143	11.89
425.349	12.79
425.554	13.13
425.759	13.42
425.964	13.17
426.169	13.86
426.375	13.92
426.58	13.5
426.785	13.35
426.99	13.11
427.195	13.26
427.4	12.88
427.605	12.49
427.811	12.34
428.016	12.42
428.221	13.42
428.426	13.25
428.631	13.01
428.836	13.71
429.041	13.23
429.246	13.83
429.451	13.82
429.656	13.86
429.861	14.17
430.066	13.95
430.271	13.87
430.476	13.83
430.681	13.33
430.886	14.18
431.09	13.73
431.295	14.46
431.5	13.6
431.705	14.04
431.91	13.57
432.115	13.2
432.32	13.33
432.524	13.27
432.729	13.1
432.934	13.7
433.139	13.6
433.343	13.78
433.548	13.16
433.753	13.81
433.958	13.98
434.162	14.09
434.367	13.97
434.572	14.16
434.776	14.83
434.981	14.53
435.186	14.22
435.39	14.51
435.595	14.75
435.799	14.91
436.004	14.31
436.209	13.73
436.413	14.03
436.618	14.08
436.822	13.85
437.027	13.38
437.231	13.93
437.436	14.71
437.64	14.13
437.845	13.87
438.049	14.12
438.253	14.23
438.458	13.94
438.662	14.64
438.867	14.9
439.071	15.23
439.275	15.08
439.48	14.97
439.684	14.51
439.888	14.96
440.093	15.28
440.297	15.2
440.501	15.55
440.706	15.51
440.91	15.2
441.114	14.95
441.318	15.53
441.523	15.59
441.727	15.38
441.931	14.77
442.135	14.34
442.339	14.43
442.543	14.5
442.748	14.05
442.952	14.57
443.156	13.96
443.36	13.76
443.564	13.08
443.768	12.52
443.972	13.03
444.176	13.79
444.38	13.96
444.584	13.46
444.788	13.46
444.992	13.75
445.196	13.34
445.4	13.82
445.604	13.73
445.808	13.81
446.012	14.58
446.216	14.61
446.42	14.65
446.624	14.43
446.828	14.99
447.032	14.98
447.235	15.21
447.439	15.61
447.643	15.39
447.847	15.97
448.051	15.59
448.254	15.48
448.458	15.56
448.662	15.37
448.866	15.83
449.069	15.48
449.273	15.85
449.477	15.3
449.681	15.15
449.884	15.4
450.088	15.42
450.292	16.18
450.495	15.98
450.699	15.82
450.902	14.72
451.106	14.09
451.31	13.97
451.513	14.25
451.717	14.39
451.92	14.91
452.124	14.23
452.327	14.16
452.531	13.96
452.734	14.02
452.938	14.08
453.141	14.87
453.345	15.59
453.548	15.4
453.752	14.51
453.955	14.55
454.158	14.71
454.362	14.57
454.565	14.72
454.769	14.34
454.972	14.25
455.175	14.32
455.379	14.67
455.582	14.26
455.785	14.3
455.988	14.07
456.192	13.62
456.395	13.3
456.598	14.03
456.801	14.49
457.005	14.76
457.208	15.04
457.411	14.61
457.614	14.17
457.817	13.76
458.021	13.98
458.224	14.69
458.427	15.26
458.63	15.33
458.833	15.05
459.036	14.71
459.239	14.88
