Data from JASIL_2931_Reflection_2.txt Node
Date: Sat Nov 07 20:50:43 EST 2015
User: Geneva
Spectrometer: USB4E03002
Autoset integration time: false
Trigger mode: 4
Integration Time (sec): 1.000000E-1
Scans to average: 10
Electric dark correction enabled: true
Nonlinearity correction enabled: false
Boxcar width: 5
Stray light correction enabled: false
XAxis mode: Wavelengths
Stop averaging: false
Number of Pixels in Spectrum: 3648
>>>>>Begin Spectral Data<<<<<
177.575	-36.06
177.794	13.54
178.014	-42.12
178.233	80.95
178.452	64.73
178.672	127.73
178.891	101.89
179.11	0
179.33	815.69
179.549	-139.49
179.768	-61.99
179.987	-216.45
180.207	76.13
180.426	77.61
180.645	73.25
180.864	76.12
181.084	80.28
181.303	51.54
181.522	49.85
181.741	63.52
181.96	64
182.179	62.71
182.398	63.5
182.618	49.16
182.837	41.05
183.056	48.13
183.275	37.48
183.494	53.62
183.713	85.96
183.932	89.45
184.151	96.6
184.37	80.31
184.589	59.64
184.808	61.7
185.027	67.07
185.246	68.81
185.465	63.63
185.684	62.96
185.903	59.72
186.122	56.85
186.341	59.62
186.56	56.1
186.779	59.37
186.998	57.05
187.216	63.91
187.435	66.17
187.654	61.23
187.873	59.89
188.092	59.4
188.311	54.54
188.53	63.22
188.748	63.58
188.967	55.76
189.186	64.54
189.405	76.34
189.623	74.69
189.842	72.69
190.061	68.84
190.28	59.59
190.498	68.41
190.717	47.71
190.936	29.34
191.154	20.86
191.373	33.4
191.592	9.25
191.81	14.13
192.029	24.17
192.248	-4.04
192.466	19.01
192.685	25.29
192.904	19.68
193.122	29.49
193.341	26.75
193.559	33.14
193.778	32.23
193.996	36.4
194.215	33.55
194.433	33.91
194.652	37.14
194.87	33.56
195.089	46.2
195.307	51.39
195.526	58.78
195.744	65.42
195.963	67.49
196.181	65.51
196.399	55.21
196.618	66.93
196.836	51.13
197.055	46.85
197.273	63.14
197.491	69.42
197.71	85.91
197.928	85.06
198.146	91.92
198.365	78.68
198.583	92.63
198.801	101.1
199.019	88.5
199.238	110.63
199.456	114.35
199.674	74.37
199.892	56.47
200.111	18.57
200.329	32.61
200.547	16.86
200.765	15.73
200.983	11.35
201.202	15.59
201.42	35.7
201.638	18.75
201.856	23.42
202.074	45.6
202.292	47.26
202.51	58.55
202.728	57.42
202.946	42.46
203.165	49.4
203.383	51.42
203.601	53.79
203.819	55.93
204.037	52.22
204.255	54.52
204.473	56.77
204.691	47.24
204.909	40.52
205.127	46.73
205.345	52.56
205.562	49.87
205.78	48.91
205.998	44.74
206.216	36.19
206.434	37.35
206.652	42.8
206.87	43.34
207.088	47.72
207.306	54.94
207.523	52.3
207.741	55.02
207.959	58.52
208.177	53.78
208.395	35.89
208.612	58.03
208.83	59.99
209.048	31.8
209.266	19.73
209.483	20.88
209.701	-2.85
209.919	-9.09
210.136	-2.64
210.354	19.18
210.572	30.38
210.79	49.09
211.007	48.44
211.225	42.97
211.442	50.54
211.66	47.35
211.878	40.89
212.095	50.31
212.313	51.7
212.53	41.04
212.748	32.02
212.966	23.99
213.183	16.39
213.401	16.13
213.618	25.61
213.836	27.61
214.053	22.71
214.271	32.95
214.488	27.84
214.705	25.29
214.923	28.44
215.14	32.15
215.358	35.81
215.575	44.25
215.793	42.38
216.01	26.38
216.227	21.73
216.445	23.35
216.662	15.45
216.879	16.56
217.097	15.12
217.314	21.23
217.531	17.48
217.749	10.77
217.966	6.34
218.183	7.02
218.4	10.25
218.618	6.75
218.835	10.75
219.052	17.77
219.269	16.21
219.487	12.88
219.704	7.58
219.921	7.78
220.138	15.91
220.355	16.85
220.572	15.28
220.79	14.03
221.007	19.47
221.224	22.8
221.441	18.96
221.658	15.61
221.875	21.2
222.092	21.89
222.309	23.55
222.526	19.22
222.743	17.86
222.96	14.5
223.177	16.12
223.394	13.33
223.611	10.48
223.828	11.81
224.045	13.23
224.262	10.83
224.479	12.55
224.696	11.61
224.913	12.2
225.13	14.29
225.347	14.49
225.564	12.66
225.781	10.71
225.997	11.5
226.214	10.67
226.431	10.8
226.648	10.19
226.865	10.04
227.082	9.65
227.298	9.92
227.515	8.27
227.732	7.85
227.949	7.98
228.165	8.34
228.382	7.46
228.599	7.11
228.816	7.07
229.032	6.6
229.249	6.38
229.466	6.45
229.682	5.46
229.899	6.94
230.116	8.13
230.332	9.09
230.549	10.8
230.765	11.93
230.982	13.71
231.199	14.6
231.415	15.26
231.632	15.51
231.848	16.48
232.065	17.44
232.281	17.25
232.498	16.78
232.714	16.1
232.931	14.11
233.147	13.84
233.364	12.41
233.58	12.9
233.797	13.25
234.013	12.83
234.23	12.75
234.446	12.8
234.662	13.59
234.879	14.55
235.095	14.31
235.312	14.79
235.528	14.85
235.744	14.7
235.961	13.59
236.177	13.48
236.393	13.47
236.61	12.83
236.826	12.15
237.042	11.05
237.258	10.55
237.475	11.27
237.691	12.1
237.907	11.99
238.123	11.88
238.339	11.67
238.556	11.04
238.772	10.21
238.988	10.29
239.204	10.7
239.42	10.31
239.636	9.31
239.853	8.92
240.069	8.06
240.285	8.15
240.501	8.23
240.717	8.1
240.933	8.45
241.149	8.84
241.365	8.79
241.581	8.6
241.797	8.62
242.013	8.47
242.229	8.68
242.445	8.73
242.661	8.55
242.877	8.64
243.093	8.8
243.309	8.84
243.525	8.78
243.741	8.62
243.957	8.66
244.173	8.93
244.388	8.62
244.604	8.31
244.82	8.39
245.036	7.65
245.252	7.42
245.468	7.11
245.683	6.93
245.899	6.98
246.115	7.07
246.331	7.15
246.547	6.87
246.762	6.96
246.978	6.99
247.194	6.7
247.409	6.95
247.625	6.86
247.841	6.88
248.057	7
248.272	7.01
248.488	6.94
248.703	6.63
248.919	6.77
249.135	6.84
249.35	6.76
249.566	6.88
249.782	6.91
249.997	7.45
250.213	7.69
250.428	7.66
250.644	7.12
250.859	7.05
251.075	7.11
251.29	7.08
251.506	7
251.721	7.02
251.937	7.11
252.152	6.94
252.368	6.64
252.583	6.52
252.798	6.12
253.014	6.4
253.229	6.36
253.445	6
253.66	5.81
253.875	5.65
254.091	5.01
254.306	5
254.521	5.31
254.737	5.51
254.952	5.75
255.167	6.05
255.383	5.97
255.598	6.24
255.813	6.5
256.028	6.39
256.244	7.19
256.459	6.99
256.674	6.94
256.889	6.82
257.104	6.81
257.32	6.56
257.535	6.21
257.75	6.23
257.965	6.11
258.18	6.23
258.395	6.04
258.61	5.65
258.826	5.89
259.041	5.84
259.256	5.72
259.471	5.64
259.686	5.74
259.901	5.94
260.116	5.97
260.331	5.92
260.546	5.76
260.761	5.88
260.976	6.16
261.191	5.89
261.406	5.69
261.621	5.98
261.836	5.8
262.05	5.62
262.265	5.19
262.48	5.01
262.695	5.01
262.91	5.31
263.125	5.01
263.34	4.86
263.555	5.49
263.769	5.58
263.984	5.64
264.199	5.97
264.414	5.92
264.629	6.13
264.843	6.1
265.058	5.9
265.273	5.71
265.488	6
265.702	5.92
265.917	5.73
266.132	5.87
266.346	6.02
266.561	5.9
266.776	5.95
266.99	6.15
267.205	6.02
267.42	5.97
267.634	5.91
267.849	5.72
268.063	5.65
268.278	5.49
268.492	5.4
268.707	5.17
268.922	4.98
269.136	5.04
269.351	4.79
269.565	5.06
269.78	5.11
269.994	4.94
270.209	5.04
270.423	5.48
270.637	5.32
270.852	5.39
271.066	5.33
271.281	5.44
271.495	5.45
271.709	5.54
271.924	5.44
272.138	5.39
272.353	5.62
272.567	5.47
272.781	5.07
272.996	5.08
273.21	4.94
273.424	4.88
273.638	4.88
273.853	4.73
274.067	4.51
274.281	4.48
274.495	4.6
274.71	4.41
274.924	4.6
275.138	4.69
275.352	4.98
275.566	5.1
275.781	5.25
275.995	5.51
276.209	5.68
276.423	5.56
276.637	5.43
276.851	5.29
277.065	5.4
277.279	5.34
277.493	5.48
277.707	5.02
277.921	5.14
278.135	5.09
278.349	4.72
278.563	4.51
278.777	4.56
278.991	4.71
279.205	4.91
279.419	4.95
279.633	5.12
279.847	4.93
280.061	5.2
280.275	5.11
280.489	5.09
280.703	5.18
280.917	5.05
281.131	5.31
281.344	5.17
281.558	4.97
281.772	4.89
281.986	4.75
282.2	4.79
282.414	4.81
282.627	4.8
282.841	4.7
283.055	4.62
283.269	4.6
283.482	4.45
283.696	4.53
283.91	4.67
284.123	4.7
284.337	4.52
284.551	4.55
284.764	4.34
284.978	4.43
285.192	4.24
285.405	4.34
285.619	4.37
285.833	4.27
286.046	4.23
286.26	4.13
286.473	3.85
286.687	3.98
286.9	3.76
287.114	3.62
287.327	3.58
287.541	3.92
287.754	3.62
287.968	3.53
288.181	3.67
288.395	3.82
288.608	3.95
288.822	4.12
289.035	4.28
289.248	4.45
289.462	4.84
289.675	4.67
289.889	4.38
290.102	4.65
290.315	4.73
290.529	4.81
290.742	4.52
290.955	4.39
291.169	4.57
291.382	4.41
291.595	4.26
291.808	3.9
292.022	3.99
292.235	4.16
292.448	4.25
292.661	4.34
292.875	4.35
293.088	4.4
293.301	4.29
293.514	4.14
293.727	4.26
293.94	4.35
294.153	4.58
294.367	4.49
294.58	4.4
294.793	4.06
295.006	3.98
295.219	3.94
295.432	4.06
295.645	4.12
295.858	4.02
296.071	3.98
296.284	3.85
296.497	3.81
296.71	3.86
296.923	4.03
297.136	4.17
297.349	4.22
297.562	4.07
297.775	4.14
297.988	4.24
298.201	4.24
298.414	4.09
298.626	4.22
298.839	4.29
299.052	4.33
299.265	4.03
299.478	4.17
299.691	3.96
299.903	4
300.116	3.89
300.329	3.83
300.542	3.9
300.755	3.89
300.967	4.05
301.18	4
301.393	3.9
301.605	4
301.818	3.72
302.031	4.01
302.243	4.09
302.456	4.21
302.669	4.04
302.881	4.09
303.094	4.13
303.307	4.28
303.519	4.43
303.732	4.54
303.944	4.75
304.157	4.64
304.37	4.72
304.582	4.72
304.795	4.56
305.007	4.67
305.22	4.64
305.432	4.67
305.645	4.41
305.857	4.41
306.069	4.41
306.282	4.28
306.494	4.59
306.707	4.46
306.919	4.56
307.132	4.51
307.344	4.43
307.556	4.55
307.769	4.73
307.981	4.84
308.193	4.84
308.406	4.59
308.618	4.63
308.83	4.51
309.043	4.48
309.255	4.36
309.467	4.6
309.679	4.73
309.892	4.66
310.104	4.62
310.316	4.46
310.528	4.3
310.74	4.6
310.953	4.67
311.165	4.75
311.377	4.66
311.589	4.65
311.801	4.45
312.013	4.46
312.225	4.67
312.437	4.7
312.649	4.83
312.862	5.02
313.074	4.97
313.286	4.84
313.498	4.94
313.71	5.23
313.922	5.42
314.134	5.58
314.346	5.68
314.558	5.55
314.77	5.52
314.982	5.26
315.193	5.26
315.405	4.93
315.617	4.89
315.829	4.76
316.041	4.74
316.253	4.68
316.465	4.76
316.677	4.73
316.888	4.71
317.1	4.83
317.312	5.24
317.524	5.22
317.736	5.54
317.947	5.87
318.159	5.9
318.371	5.77
318.583	5.8
318.794	5.71
319.006	5.78
319.218	5.74
319.43	5.52
319.641	5.39
319.853	5.36
320.064	5.4
320.276	5.34
320.488	5.4
320.699	5.56
320.911	5.72
321.123	6
321.334	5.91
321.546	5.86
321.757	6.19
321.969	6.21
322.18	6.24
322.392	6.11
322.603	6.05
322.815	6.23
323.026	6.33
323.238	6.25
323.449	6.28
323.661	6.25
323.872	6.51
324.083	6.58
324.295	6.55
324.506	6.6
324.718	6.7
324.929	7.03
325.14	7.21
325.352	7.14
325.563	7.43
325.774	7.3
325.986	7.41
326.197	7.36
326.408	7.3
326.62	7.5
326.831	7.76
327.042	7.97
327.253	7.9
327.464	7.9
327.676	7.96
327.887	7.93
328.098	8.23
328.309	8.32
328.52	8.55
328.732	8.79
328.943	9.05
329.154	9.2
329.365	9.35
329.576	9.61
329.787	9.69
329.998	9.94
330.209	10.04
330.42	10.02
330.631	10.19
330.842	10.17
331.053	10.29
331.264	10.27
331.475	10.39
331.686	10.55
331.897	10.61
332.108	10.66
332.319	10.63
332.53	10.82
332.741	10.93
332.952	10.9
333.163	11.24
333.374	11.32
333.585	11.27
333.795	11.32
334.006	11.16
334.217	11.04
334.428	10.95
334.639	11.03
334.849	10.98
335.06	11.04
335.271	11.14
335.482	10.94
335.692	10.82
335.903	10.76
336.114	10.54
336.325	10.8
336.535	10.79
336.746	10.85
336.957	10.92
337.167	10.88
337.378	10.8
337.589	10.76
337.799	10.82
338.01	10.95
338.22	11.25
338.431	11.41
338.642	11.4
338.852	11.32
339.063	11.28
339.273	11.28
339.484	11.33
339.694	11.49
339.905	11.48
340.115	11.17
340.326	11.12
340.536	11.12
340.746	10.98
340.957	10.84
341.167	10.91
341.378	11
341.588	11.17
341.799	11.09
342.009	10.96
342.219	11.01
342.43	11.33
342.64	11.35
342.85	11.24
343.061	11.36
343.271	11.33
343.481	11.44
343.691	11.36
343.902	11.12
344.112	11.03
344.322	11.06
344.532	11.09
344.743	11.1
344.953	10.94
345.163	11.02
345.373	10.93
345.583	11.01
345.793	10.88
346.004	10.89
346.214	10.95
346.424	11.18
346.634	11.18
346.844	11.33
347.054	11.23
347.264	11.54
347.474	11.41
347.684	11.28
347.894	11.37
348.104	11.33
348.314	11.33
348.524	11.41
348.734	11.31
348.944	11.36
349.154	11.19
349.364	11.16
349.574	11.12
349.784	11.14
349.994	11.29
350.204	11.08
350.413	11.11
350.623	11.07
350.833	10.89
351.043	10.88
351.253	10.88
351.463	10.81
351.672	10.72
351.882	10.6
352.092	10.54
352.302	10.4
352.511	10.48
352.721	10.54
352.931	10.55
353.141	10.67
353.35	10.59
353.56	10.47
353.77	10.57
353.979	10.74
354.189	10.62
354.399	10.72
354.608	10.79
354.818	10.79
355.027	10.69
355.237	10.73
355.447	10.61
355.656	10.6
355.866	10.65
356.075	10.52
356.285	10.43
356.494	10.47
356.704	10.37
356.913	10.43
357.123	10.35
357.332	10.31
357.542	10.41
357.751	10.4
357.96	10.44
358.17	10.42
358.379	10.49
358.589	10.58
358.798	10.52
359.007	10.51
359.217	10.26
359.426	10.28
359.635	10.22
359.845	10.03
360.054	10
360.263	9.85
360.472	9.77
360.682	9.74
360.891	9.66
361.1	9.64
361.309	9.63
361.519	9.68
361.728	9.76
361.937	9.87
362.146	9.9
362.355	9.98
362.564	10.06
362.774	10.14
362.983	10.14
363.192	10.16
363.401	10.19
363.61	10.2
363.819	10.27
364.028	10.19
364.237	10.12
364.446	10.2
364.655	10.18
364.864	10.11
365.073	10.23
365.282	10.15
365.491	10.12
365.7	10.24
365.909	10.17
366.118	10.26
366.327	10.24
366.536	10.23
366.745	10.2
366.954	10.1
367.162	10.18
367.371	9.95
367.58	10
367.789	9.94
367.998	9.85
368.207	9.92
368.415	9.88
368.624	9.82
368.833	9.84
369.042	9.83
369.25	9.88
369.459	9.89
369.668	9.86
369.877	9.88
370.085	9.92
370.294	9.88
370.503	9.9
370.711	9.83
370.92	9.79
371.129	9.79
371.337	9.72
371.546	9.5
371.754	9.46
371.963	9.49
372.171	9.46
372.38	9.37
372.589	9.4
372.797	9.31
373.006	9.21
373.214	9.13
373.423	9.05
373.631	9.09
373.84	9.47
374.048	9.43
374.256	9.39
374.465	9.32
374.673	9.35
374.882	9.17
375.09	9.14
375.298	9.21
375.507	9.26
375.715	9.24
375.923	9.07
376.132	8.91
376.34	8.82
376.548	8.82
376.757	8.88
376.965	8.88
377.173	9.07
377.381	9.15
377.59	9.06
377.798	9.1
378.006	9.17
378.214	9.35
378.423	9.41
378.631	9.54
378.839	9.55
379.047	9.45
379.255	9.36
379.463	9.19
379.671	9.01
379.879	9.04
380.088	8.98
380.296	8.98
380.504	8.96
380.712	8.81
380.92	8.89
381.128	8.79
381.336	8.85
381.544	8.83
381.752	8.95
381.96	8.99
382.168	8.96
382.376	8.96
382.584	8.9
382.791	8.81
382.999	8.81
383.207	8.64
383.415	8.65
383.623	8.6
383.831	8.57
384.039	8.46
384.247	8.42
384.454	8.43
384.662	8.48
384.87	8.48
385.078	8.51
385.285	8.56
385.493	8.63
385.701	8.68
385.909	8.73
386.116	8.8
386.324	8.86
386.532	8.83
386.739	8.73
386.947	8.61
387.155	8.48
387.362	8.5
387.57	8.56
387.778	8.52
387.985	8.59
388.193	8.63
388.4	8.65
388.608	8.56
388.816	8.61
389.023	8.68
389.231	8.71
389.438	8.71
389.646	8.5
389.853	8.39
390.061	8.27
390.268	8.19
390.475	8.07
390.683	7.95
390.89	7.97
391.098	7.93
391.305	7.96
391.512	7.87
391.72	7.95
391.927	7.97
392.135	7.95
392.342	7.99
392.549	7.93
392.756	7.88
392.964	7.9
393.171	7.88
393.378	7.85
393.586	7.8
393.793	7.89
394	7.76
394.207	7.8
394.414	7.81
394.622	7.88
394.829	7.89
395.036	7.82
395.243	7.84
395.45	7.87
395.657	7.91
395.864	7.85
396.072	7.83
396.279	7.84
396.486	7.76
396.693	7.84
396.9	7.75
397.107	7.67
397.314	7.61
397.521	7.64
397.728	7.51
397.935	7.57
398.142	7.6
398.349	7.61
398.556	7.66
398.763	7.73
398.97	7.61
399.177	7.64
399.383	7.73
399.59	7.85
399.797	7.78
400.004	7.82
400.211	7.65
400.418	7.63
400.625	7.57
400.831	7.49
401.038	7.44
401.245	7.35
401.452	7.2
401.658	7.2
401.865	7.25
402.072	7.23
402.279	7.23
402.485	7.26
402.692	7.2
402.899	7.15
403.105	7.23
403.312	7.26
403.519	7.27
403.725	7.36
403.932	7.34
404.138	7.3
404.345	7.24
404.552	7.21
404.758	7.19
404.965	7.11
405.171	7.14
405.378	7.03
405.584	7.03
405.791	7.07
405.997	7.06
406.204	7.01
406.41	6.96
406.617	7
406.823	7.01
407.029	7.05
407.236	7.19
407.442	7.16
407.649	7.27
407.855	7.34
408.061	7.37
408.268	7.36
408.474	7.27
408.68	7.36
408.887	7.31
409.093	7.31
409.299	7.3
409.505	7.3
409.712	7.25
409.918	7.14
410.124	7.02
410.33	7.01
410.537	6.97
410.743	6.99
410.949	6.91
411.155	7
411.361	7.04
411.567	6.96
411.773	6.84
411.98	6.92
412.186	6.92
412.392	6.91
412.598	6.86
412.804	6.92
413.01	6.88
413.216	6.84
413.422	6.76
413.628	6.7
413.834	6.72
414.04	6.75
414.246	6.61
414.452	6.58
414.658	6.56
414.864	6.53
415.07	6.42
415.275	6.49
415.481	6.49
415.687	6.36
415.893	6.33
416.099	6.31
416.305	6.35
416.511	6.42
416.716	6.37
416.922	6.37
417.128	6.32
417.334	6.33
417.539	6.26
417.745	6.23
417.951	6.3
418.157	6.33
418.362	6.31
418.568	6.22
418.774	6.18
418.979	6.16
419.185	6.09
419.391	6.06
419.596	6.04
419.802	6.04
420.008	6
420.213	6.31
420.419	6.23
420.624	6.26
420.83	6.25
421.035	6.22
421.241	6.26
421.446	6.32
421.652	6.33
421.857	6.32
422.063	6.32
422.268	6.33
422.474	6.03
422.679	6.02
422.885	5.99
423.09	5.98
423.295	5.98
423.501	5.91
423.706	5.88
423.911	5.88
424.117	5.9
424.322	5.87
424.527	5.88
424.733	5.85
424.938	5.9
425.143	5.9
425.349	5.92
425.554	5.94
425.759	5.97
425.964	5.95
426.169	5.96
426.375	5.93
426.58	5.92
426.785	5.92
426.99	5.91
427.195	5.87
427.4	5.9
427.605	5.91
427.811	5.94
428.016	6.03
428.221	6.11
428.426	6.13
428.631	6.15
428.836	6.15
429.041	6.12
429.246	6.16
429.451	6.21
429.656	6.14
429.861	6.16
430.066	6.16
430.271	6.08
430.476	5.97
430.681	5.92
430.886	5.92
431.09	5.99
431.295	5.98
431.5	5.95
431.705	5.91
431.91	5.92
432.115	5.92
432.32	5.88
432.524	5.88
432.729	5.93
432.934	5.95
433.139	5.95
433.343	5.93
433.548	5.97
433.753	6.01
433.958	6.02
434.162	6.05
434.367	6.07
434.572	6.05
434.776	6.05
434.981	6.05
435.186	6.06
435.39	6.07
435.595	6.13
435.799	6.08
436.004	6.02
436.209	6.01
436.413	5.94
436.618	5.88
436.822	5.87
437.027	5.83
437.231	5.79
437.436	5.76
437.64	5.72
437.845	5.65
438.049	5.61
438.253	5.59
438.458	5.57
438.662	5.6
438.867	5.62
439.071	5.64
439.275	5.69
439.48	5.69
439.684	5.68
439.888	5.66
440.093	5.62
440.297	5.65
440.501	5.69
440.706	5.74
440.91	5.75
441.114	5.7
441.318	5.72
441.523	5.73
441.727	5.79
441.931	5.84
442.135	5.83
442.339	5.89
442.543	5.9
442.748	5.86
442.952	5.8
443.156	5.74
443.36	5.74
443.564	5.7
443.768	5.65
443.972	5.61
444.176	5.56
444.38	5.62
444.584	5.57
444.788	5.57
444.992	5.54
445.196	5.56
445.4	5.58
445.604	5.58
445.808	5.61
446.012	5.61
446.216	5.59
446.42	5.58
446.624	5.57
446.828	5.57
447.032	5.56
447.235	5.57
447.439	5.58
447.643	5.62
447.847	5.67
448.051	5.64
448.254	5.66
448.458	5.66
448.662	5.68
448.866	5.64
449.069	5.67
449.273	5.71
449.477	5.76
449.681	5.72
449.884	5.7
450.088	5.66
450.292	5.66
450.495	5.69
450.699	5.76
450.902	5.74
451.106	5.74
451.31	5.72
451.513	5.71
451.717	5.66
451.92	5.67
452.124	5.61
452.327	5.6
452.531	5.58
452.734	5.55
452.938	5.53
453.141	5.51
453.345	5.56
453.548	5.58
453.752	5.54
453.955	5.59
454.158	5.59
454.362	5.61
454.565	5.61
454.769	5.64
454.972	5.64
455.175	5.6
455.379	5.61
455.582	5.55
455.785	5.53
455.988	5.59
456.192	5.53
456.395	5.48
456.598	5.51
456.801	5.53
457.005	5.51
457.208	5.46
457.411	5.44
457.614	5.43
457.817	5.42
458.021	5.39
458.224	5.36
458.427	5.38
458.63	5.4
458.833	5.4
459.036	5.4
459.239	5.38
459.442	5.37
459.645	5.4
459.848	5.43
460.051	5.4
460.254	5.39
460.457	5.4
460.66	5.4
460.863	5.43
461.066	5.44
461.269	5.42
461.472	5.47
461.675	5.53
461.878	5.57
462.081	5.55
462.284	5.67
462.486	5.76
462.689	5.76
462.892	5.82
463.095	5.8
463.298	5.76
463.5	5.77
463.703	5.73
463.906	5.74
464.109	5.67
464.311	5.72
464.514	5.67
464.717	5.62
464.92	5.63
465.122	5.61
465.325	5.65
465.528	5.63
465.73	5.58
465.933	5.6
466.135	5.6
466.338	5.62
466.541	5.56
466.743	5.57
466.946	5.59
467.148	5.6
467.351	5.58
467.553	5.53
467.756	5.61
467.958	5.69
468.161	5.69
468.363	5.69
468.566	5.65
468.768	5.64
468.971	5.61
469.173	5.61
469.375	5.59
469.578	5.66
469.78	5.68
469.983	5.64
470.185	5.6
