Data from JASIL_3059_Reflection_01.txt Node
Date: Mon Nov 09 11:28:45 EST 2015
User: Geneva
Spectrometer: USB4E03002
Autoset integration time: false
Trigger mode: 4
Integration Time (sec): 1.000000E-1
Scans to average: 10
Electric dark correction enabled: false
Nonlinearity correction enabled: false
Boxcar width: 5
Stray light correction enabled: false
XAxis mode: Wavelengths
Stop averaging: false
Number of Pixels in Spectrum: 3648
>>>>>Begin Spectral Data<<<<<
177.575	14.49
177.794	53.66
178.014	59.49
178.233	50.34
178.452	60.67
178.672	53.75
178.891	40.16
179.11	50.1
179.33	37.98
179.549	47.99
179.768	47.47
179.987	42.2
180.207	26.8
180.426	66.13
180.645	37.84
180.864	117.24
181.084	36.96
181.303	79.39
181.522	-50
181.741	-29.41
181.96	160.81
182.179	34.37
182.398	42.27
182.618	48.65
182.837	300
183.056	53.33
183.275	38.56
183.494	35.88
183.713	34.55
183.932	3.79
184.151	-19.49
184.37	7.14
184.589	-658.06
184.808	318.71
185.027	-566.67
185.246	-683.82
185.465	483.81
185.684	381.82
185.903	198.1
186.122	224.53
186.341	165.5
186.56	191.53
186.779	62.08
186.998	72.22
187.216	-35.37
187.435	9.92
187.654	87.9
187.873	118.92
188.092	213.82
188.311	250.81
188.53	154.7
188.748	239.38
188.967	156.05
189.186	513.19
189.405	-10250
189.623	1257.89
189.842	158.19
190.061	84.75
190.28	49.66
190.498	69.23
190.717	-89.19
190.936	38.83
191.154	32.11
191.373	2.78
191.592	-16.74
191.81	0.56
192.029	-9.09
192.248	8.53
192.466	-10.68
192.685	-4.1
192.904	10
193.122	15.05
193.341	63.72
193.559	335.56
193.778	-1233.33
193.996	117.52
194.215	83.8
194.433	55.96
194.652	45.78
194.87	38.96
195.089	-28.8
195.307	73.8
195.526	-212.12
195.744	1007.69
195.963	141.05
196.181	167.2
196.399	48.88
196.618	88.7
196.836	259.52
197.055	69.91
197.273	9.49
197.491	21.48
197.71	56.18
197.928	92
198.146	179.81
198.365	89
198.583	86.01
198.801	20.05
199.019	-26.98
199.238	2.25
199.456	-70.21
199.674	8.94
199.892	32.78
200.111	31.15
200.329	30
200.547	57.31
200.765	33.63
200.983	29.76
201.202	64.66
201.42	83.26
201.638	-10.08
201.856	140
202.074	276.58
202.292	164.46
202.51	-7900
202.728	-522.73
202.946	343.64
203.165	4611.11
203.383	-1395
203.601	351.88
203.819	482.11
204.037	2417.65
204.255	-530
204.473	-493.65
204.691	-216.89
204.909	-95.4
205.127	-1317.86
205.345	-238.85
205.562	286
205.78	3758.33
205.998	-209.74
206.216	-1218.18
206.434	641.94
206.652	-485.11
206.87	322.99
207.088	143.08
207.306	179.86
207.523	622.5
207.741	375.62
207.959	3314.29
208.177	317.65
208.395	179.64
208.612	231.34
208.83	158.72
209.048	81.98
209.266	89.06
209.483	61.48
209.701	55.11
209.919	71.27
210.136	78.96
210.354	121.54
210.572	204.04
210.79	-503.57
211.007	6900
211.225	865.52
211.442	-16100
211.66	-110.36
211.878	-12.1
212.095	20.4
212.313	47.73
212.53	61.76
212.748	78.27
212.966	105.88
213.183	1031.82
213.401	-807.41
213.618	143.82
213.836	111.49
214.053	121.85
214.271	-933.33
214.488	266.67
214.705	-170.27
214.923	-1
215.14	17.74
215.358	3.31
215.575	11.68
215.793	3.51
216.01	-6.73
216.227	13.46
216.445	-10.13
216.662	8.61
216.879	9.09
217.097	-14.81
217.314	-506.82
217.531	613.73
217.749	195.97
217.966	90.69
218.183	52.43
218.4	18.08
218.618	153.67
218.835	87.46
219.052	70.39
219.269	91.77
219.487	1162.5
219.704	496.3
219.921	142.5
220.138	142.47
220.355	171.33
220.572	258.37
220.79	340.29
221.007	269.12
221.224	-710.94
221.441	-4800
221.658	676.29
221.875	279.48
222.092	241.34
222.309	690
222.526	-7514.29
222.743	430.16
222.96	200.4
223.177	116.03
223.394	145.58
223.611	105.77
223.828	104.34
224.045	79.59
224.262	61.07
224.479	36.32
224.696	50.4
224.913	37
225.13	32.84
225.347	27.4
225.564	32.85
225.781	24.32
225.997	23.41
226.214	23.3
226.431	17.79
226.648	20.52
226.865	26.99
227.082	18.26
227.298	21.66
227.515	19.1
227.732	24.56
227.949	27.89
228.165	21.57
228.382	17.12
228.599	15.56
228.816	23.84
229.032	24.68
229.249	29.64
229.466	32.87
229.682	22.21
229.899	23.75
230.116	27.01
230.332	23.29
230.549	34.38
230.765	37.69
230.982	43.84
231.199	42.49
231.415	43.43
231.632	42.99
231.848	47.47
232.065	66.19
232.281	78.69
232.498	65.94
232.714	63.22
232.931	61.55
233.147	51.56
233.364	44.27
233.58	43.71
233.797	49.91
234.013	44.74
234.23	43.98
234.446	39.38
234.662	10.43
234.879	31.76
235.095	25.05
235.312	31.89
235.528	43.58
235.744	51.74
235.961	61.05
236.177	52.51
236.393	47.97
236.61	40.21
236.826	33.19
237.042	40.83
237.258	41.66
237.475	52.43
237.691	58.57
237.907	64.32
238.123	64.57
238.339	56.53
238.556	45.84
238.772	40.49
238.988	43.38
239.204	44.41
239.42	40.54
239.636	40.45
239.853	32.56
240.069	22.28
240.285	15.08
240.501	13.26
240.717	10.04
240.933	13.09
241.149	13.48
241.365	17.47
241.581	14.46
241.797	14.66
242.013	11.95
242.229	11.57
242.445	11.69
242.661	12.49
242.877	10.31
243.093	9.82
243.309	4.1
243.525	6.4
243.741	2.53
243.957	15.85
244.173	15.61
244.388	15.64
244.604	18.39
244.82	18.83
245.036	19.04
245.252	19.6
245.468	18.85
245.683	20.06
245.899	17.63
246.115	15.74
246.331	8.63
246.547	9.62
246.762	8.74
246.978	4.6
247.194	-0.33
247.409	-5.96
247.625	-7.24
247.841	-10.68
248.057	-7.22
248.272	-4.89
248.488	-1.62
248.703	2.57
248.919	-0.26
249.135	-1.69
249.35	9.07
249.566	21.01
249.782	23.56
249.997	19.57
250.213	23.34
250.428	19.55
250.644	22.58
250.859	22.16
251.075	19.67
251.29	20.06
251.506	25.53
251.721	26.82
251.937	24.75
252.152	30.58
252.368	31.74
252.583	28.61
252.798	31.49
253.014	31.1
253.229	26.9
253.445	32.57
253.66	38.06
253.875	29.35
254.091	23.57
254.306	26.25
254.521	20.33
254.737	21.2
254.952	28.28
255.167	31.51
255.383	27.64
255.598	27.75
255.813	31.51
256.028	25.57
256.244	26.24
256.459	25.27
256.674	16.5
256.889	15.42
257.104	18.12
257.32	13.88
257.535	8.6
257.75	6.33
257.965	6.13
258.18	2.24
258.395	5.15
258.61	4.87
258.826	3.62
259.041	5.57
259.256	5.62
259.471	3.15
259.686	2.04
259.901	1.07
260.116	2.59
260.331	1.4
260.546	2.71
260.761	0.6
260.976	2.57
261.191	3.04
261.406	6.47
261.621	11.39
261.836	13.11
262.05	10.12
262.265	9.93
262.48	12.8
262.695	14.23
262.91	15.54
263.125	10.23
263.34	8
263.555	9.75
263.769	0.91
263.984	-3.16
264.199	-3.53
264.414	5.27
264.629	7.36
264.843	3.87
265.058	7.64
265.273	5.32
265.488	8.94
265.702	11.91
265.917	13.07
266.132	15.78
266.346	16.42
266.561	17.3
266.776	16.85
266.99	15.55
267.205	14.73
267.42	12.6
267.634	14.93
267.849	15.16
268.063	11.85
268.278	7.91
268.492	10.52
268.707	12.46
268.922	9.85
269.136	5.18
269.351	3.54
269.565	2.01
269.78	3.2
269.994	3.39
270.209	1.87
270.423	1.45
270.637	3.97
270.852	0.96
271.066	-0.38
271.281	0.8
271.495	4.91
271.709	6.46
271.924	8.31
272.138	8.02
272.353	5.85
272.567	7.13
272.781	8.74
272.996	6.08
273.21	8.94
273.424	8.36
273.638	9.65
273.853	6.79
274.067	4.89
274.281	7.62
274.495	5.91
274.71	9.52
274.924	7.55
275.138	9.16
275.352	13.13
275.566	11.17
275.781	11.23
275.995	10.97
276.209	8.22
276.423	8.28
276.637	6.67
276.851	6.73
277.065	5.02
277.279	10.49
277.493	7.52
277.707	5.88
277.921	2.13
278.135	4.26
278.349	3.66
278.563	4.87
278.777	8.1
278.991	8.43
279.205	8.79
279.419	11.42
279.633	9.61
279.847	11.46
280.061	9.38
280.275	12.95
280.489	9.82
280.703	9.42
280.917	10.28
281.131	9.16
281.344	10.23
281.558	11.49
281.772	8.15
281.986	9.95
282.2	6.71
282.414	5.97
282.627	5.3
282.841	6.9
283.055	5.72
283.269	8.65
283.482	7.56
283.696	4.8
283.91	3.07
284.123	4.79
284.337	3.32
284.551	5.62
284.764	6.4
284.978	3.17
285.192	-0.19
285.405	-0.08
285.619	0.8
285.833	1.77
286.046	3.85
286.26	4.54
286.473	4.01
286.687	-0.29
286.9	-0.58
287.114	-0.02
287.327	1.57
287.541	5.08
287.754	8.12
287.968	7.54
288.181	9.74
288.395	8.08
288.608	7.71
288.822	8.79
289.035	11.52
289.248	8.34
289.462	6.4
289.675	9.9
289.889	10.06
290.102	7.73
290.315	3.63
290.529	0.39
290.742	-1.91
290.955	-2.83
291.169	-3.37
291.382	-3.15
291.595	0.49
291.808	5.63
292.022	9.56
292.235	11.14
292.448	11.73
292.661	15.19
292.875	18.98
293.088	19.92
293.301	21.55
293.514	20.93
293.727	20.35
293.94	19.19
294.153	15.17
294.367	11.82
294.58	7.7
294.793	6.99
295.006	5.13
295.219	2.31
295.432	3.9
295.645	1.79
295.858	1.56
296.071	1.61
296.284	1.61
296.497	3.74
296.71	3.94
296.923	4.48
297.136	4.88
297.349	4.4
297.562	4.16
297.775	4.47
297.988	7.27
298.201	7.95
298.414	6.17
298.626	8.15
298.839	4.13
299.052	2.64
299.265	5.55
299.478	6.98
299.691	6.24
299.903	7.07
300.116	6.17
300.329	4.38
300.542	4.1
300.755	5.63
300.967	4.75
301.18	9.34
301.393	9.32
301.605	9.93
301.818	6.46
302.031	8.23
302.243	8.19
302.456	8.5
302.669	9.77
302.881	7.35
303.094	9.99
303.307	8.84
303.519	6.57
303.732	7.25
303.944	5.49
304.157	8.19
304.37	8.83
304.582	9.26
304.795	9.32
305.007	5.08
305.22	7.2
305.432	4.4
305.645	4.47
305.857	5.09
306.069	5.04
306.282	3.47
306.494	3.47
306.707	1.15
306.919	0.83
307.132	0.71
307.344	3.99
307.556	4.95
307.769	9.24
307.981	11.49
308.193	11.06
308.406	11.78
308.618	12.44
308.83	12.59
309.043	11.87
309.255	13.41
309.467	11.92
309.679	12.56
309.892	11.65
310.104	9.45
310.316	10.4
310.528	10.84
310.74	9.98
310.953	9.74
311.165	7.34
311.377	8.99
311.589	4.85
311.801	7.84
312.013	4.95
312.225	4.96
312.437	6.51
312.649	5.33
312.862	4.42
313.074	8.57
313.286	9.29
313.498	12.78
313.71	14.17
313.922	17.27
314.134	14.94
314.346	15.93
314.558	19.47
314.77	17.93
314.982	18.95
315.193	17.06
315.405	14.52
315.617	13.66
315.829	12.71
316.041	11.33
316.253	9.11
316.465	8.33
316.677	10.22
316.888	6.53
317.1	6.99
317.312	4.08
317.524	5.63
317.736	4.68
317.947	5.46
318.159	5.29
318.371	4.36
318.583	2.8
318.794	6.86
319.006	5.44
319.218	3.33
319.43	7.27
319.641	10.33
319.853	12.95
320.064	13.09
320.276	17.31
320.488	20.09
320.699	22.56
320.911	27.35
321.123	26.82
321.334	27.05
321.546	27.84
321.757	25.21
321.969	22.95
322.18	22.46
322.392	21.62
322.603	17.8
322.815	16.29
323.026	14.54
323.238	15.85
323.449	13.51
323.661	13.31
323.872	13.06
324.083	10.13
324.295	10.09
324.506	11.72
324.718	11.9
324.929	11.41
325.14	10.59
325.352	13.21
325.563	9.24
325.774	13.75
325.986	15.65
326.197	18.26
326.408	19.43
326.62	20.6
326.831	20.01
327.042	18.58
327.253	19.13
327.464	20.42
327.676	18.24
327.887	21.88
328.098	17.94
328.309	18.64
328.52	19.01
328.732	18.27
328.943	14.76
329.154	17.3
329.365	19.48
329.576	19.62
329.787	17.02
329.998	20.37
330.209	16.47
330.42	17.03
330.631	15.37
330.842	14.97
331.053	17.61
331.264	16.77
331.475	12.61
331.686	12.05
331.897	11.79
332.108	14.41
332.319	12.91
332.53	15.06
332.741	15.91
332.952	14.3
333.163	12.83
333.374	10.56
333.585	15.17
333.795	17.24
334.006	16.98
334.217	16.42
334.428	17.14
334.639	16.56
334.849	13.99
335.06	14.65
335.271	14.23
335.482	14.17
335.692	15.93
335.903	15.06
336.114	11.41
336.325	10.26
336.535	9.75
336.746	5.63
336.957	4.54
337.167	11.51
337.378	11.47
337.589	13.54
337.799	14.19
338.01	11.26
338.22	9.63
338.431	11.62
338.642	11.69
338.852	14.43
339.063	18.24
339.273	21.17
339.484	15.87
339.694	13.29
339.905	13.85
340.115	14.07
340.326	16.21
340.536	17.31
340.746	20.71
340.957	22.58
341.167	22.3
341.378	21.28
341.588	18.1
341.799	18.85
342.009	20.34
342.219	19.54
342.43	19.99
342.64	19.41
342.85	17.85
343.061	16.66
343.271	15.78
343.481	15.94
343.691	15.18
343.902	16.79
344.112	17.59
344.322	16.44
344.532	15.13
344.743	14.25
344.953	14.92
345.163	14.92
345.373	12.83
345.583	13.5
345.793	12.93
346.004	12.71
346.214	11.64
346.424	11.62
346.634	11.27
346.844	10.63
347.054	11.3
347.264	8.1
347.474	9.03
347.684	8.59
347.894	8.46
348.104	7.6
348.314	8.22
348.524	6.51
348.734	3.76
348.944	5.65
349.154	6.09
349.364	5.59
349.574	6.06
349.784	7.14
349.994	7.43
350.204	8.14
350.413	7.57
350.623	7.84
350.833	9.03
351.043	10.38
351.253	9.45
351.463	10.51
351.672	7.85
351.882	10.09
352.092	8.41
352.302	7.9
352.511	6.91
352.721	7.17
352.931	6.49
353.141	6.98
353.35	5.74
353.56	5.19
353.77	3.81
353.979	4.97
354.189	4.35
354.399	3.39
354.608	4.65
354.818	4.94
355.027	4.52
355.237	4.63
355.447	7.19
355.656	9.23
355.866	10.63
356.075	9.86
356.285	10.92
356.494	10.11
356.704	10.86
356.913	11.9
357.123	12.22
357.332	12.31
357.542	11.21
357.751	8.77
357.96	6.7
358.17	5.83
358.379	8.32
358.589	9.41
358.798	11.48
359.007	12.47
359.217	11.78
359.426	11.93
359.635	12.13
359.845	13.28
360.054	13.71
360.263	13.72
360.472	12.86
360.682	12.09
360.891	10.54
361.1	10.8
361.309	9.13
361.519	8.86
361.728	7.04
361.937	8.89
362.146	7.72
362.355	6.98
362.564	8.44
362.774	9.21
362.983	8.25
363.192	10.4
363.401	10.41
363.61	11.84
363.819	11.39
364.028	13
364.237	11.51
364.446	13.33
364.655	13.31
364.864	12.97
365.073	13.65
365.282	15.12
365.491	14.11
365.7	14.79
365.909	13.19
366.118	14.24
366.327	14.58
366.536	14.18
366.745	14.16
366.954	13.35
367.162	13.19
367.371	14.73
367.58	13.25
367.789	12.8
367.998	10.75
368.207	11.04
368.415	11.72
368.624	11.16
368.833	11.52
369.042	9.61
369.25	12.16
369.459	12.66
369.668	9.1
369.877	9.03
370.085	9.32
370.294	9.37
370.503	10.92
370.711	10.33
370.92	9.62
371.129	10.47
371.337	12.34
371.546	10.52
371.754	10.51
371.963	13.14
372.171	14.13
372.38	14.05
372.589	14.98
372.797	14.34
373.006	13.06
373.214	15.02
373.423	14.84
373.631	14.57
373.84	15.73
374.048	15.79
374.256	13.83
374.465	15.23
374.673	14.33
374.882	13.47
375.09	13.56
375.298	15.36
375.507	15.23
375.715	16.1
375.923	14.43
376.132	14.66
376.34	13.84
376.548	14.63
376.757	14.47
376.965	15.4
377.173	15.5
377.381	15.6
377.59	15.57
377.798	15.5
378.006	13.38
378.214	15.58
378.423	15.17
378.631	14.85
378.839	14.77
379.047	12.69
379.255	13.68
379.463	13.42
379.671	13.26
379.879	12.15
380.088	11.78
380.296	11.22
380.504	10.04
380.712	8.1
380.92	7.95
381.128	8.13
381.336	8.81
381.544	8.1
381.752	9.37
381.96	8.95
382.168	8.03
382.376	6.41
382.584	8.55
382.791	9.09
382.999	10.17
383.207	11.52
383.415	10.2
383.623	8.93
383.831	8.19
384.039	6.23
384.247	7.02
384.454	7.15
384.662	7.79
384.87	8.45
385.078	8.61
385.285	9.19
385.493	9.68
385.701	10.71
385.909	11.92
386.116	12.32
386.324	13.89
386.532	14.27
386.739	15.04
386.947	14.69
387.155	13.17
387.362	12.79
387.57	11.95
387.778	10.97
387.985	10.77
388.193	11.67
388.4	12.4
388.608	10.29
388.816	9.2
389.023	9.57
389.231	10.17
389.438	10.24
389.646	10.28
389.853	10.17
390.061	9.57
390.268	8.26
390.475	7.8
390.683	7.45
390.89	8.28
391.098	7.86
391.305	6.72
391.512	6.21
391.72	5.5
391.927	5.13
392.135	5.02
392.342	5.85
392.549	8.34
392.756	8.25
392.964	7.38
393.171	7.87
393.378	8.68
393.586	9.25
393.793	9.41
394	10.33
394.207	9.73
394.414	10.79
394.622	10.43
394.829	8.58
395.036	8.21
395.243	8.66
395.45	8.52
395.657	8.27
395.864	8.8
396.072	9.02
396.279	9.5
396.486	10.83
396.693	11.13
396.9	10.28
397.107	10.8
397.314	11.51
397.521	11.54
397.728	11.01
397.935	9.95
398.142	8.89
398.349	7.43
398.556	6.73
398.763	5.73
398.97	5.44
399.177	6.56
399.383	6.24
399.59	4.97
399.797	4.47
400.004	5.6
400.211	5.64
400.418	5.95
400.625	5.97
400.831	5.03
401.038	5.22
401.245	3.65
401.452	3.31
401.658	2.69
401.865	4.16
402.072	4.45
402.279	2.82
402.485	3.63
402.692	4.01
402.899	6.15
403.105	7.1
403.312	6.96
403.519	8.13
403.725	7.63
403.932	9.51
404.138	8.25
404.345	7.89
404.552	9.35
404.758	8.82
404.965	7.39
405.171	6.77
405.378	6.82
405.584	7.18
405.791	6.42
405.997	6.76
406.204	5.69
406.41	6.67
406.617	6.76
406.823	6.68
407.029	7.7
407.236	9.29
407.442	9.02
407.649	9
407.855	8.88
408.061	9.52
408.268	10.06
408.474	9.7
408.68	10.27
408.887	9.82
409.093	9.11
409.299	8.26
409.505	8.94
409.712	8.78
409.918	7.25
410.124	7.93
410.33	7.24
410.537	6.69
410.743	8.51
410.949	7.83
411.155	8.27
411.361	8.31
411.567	8.99
411.773	8.88
411.98	8.84
412.186	9.89
412.392	9.47
412.598	9.22
412.804	9.71
413.01	8
413.216	8.96
413.422	8.75
413.628	10.41
413.834	11.11
414.04	10.25
414.246	8.97
414.452	9.06
414.658	8.72
414.864	8.93
415.07	8.46
415.275	8.27
415.481	6.86
415.687	6.52
415.893	5.17
416.099	4.28
416.305	4.73
416.511	5.93
416.716	5.81
416.922	5.89
417.128	6.78
417.334	6.31
417.539	7.31
417.745	7.66
417.951	7.26
418.157	7.49
418.362	7.34
418.568	7.47
418.774	7.01
418.979	7.35
419.185	7.62
419.391	7.13
419.596	7.51
419.802	6.52
420.008	6.05
420.213	6.63
420.419	5.89
420.624	6.33
420.83	5.92
421.035	6.14
421.241	5.78
421.446	5.63
421.652	5.42
421.857	5.56
422.063	5.95
422.268	6.23
422.474	6.23
422.679	6.87
422.885	6.44
423.09	6.26
423.295	6.33
423.501	5.98
423.706	5.67
423.911	5.78
424.117	5.76
424.322	5.44
424.527	5.43
424.733	5.09
424.938	4.96
425.143	4.9
425.349	4.99
425.554	4.79
425.759	4.8
425.964	4.75
426.169	4.94
426.375	4.61
426.58	4.41
426.785	4.34
426.99	4.96
427.195	5.14
427.4	5.59
427.605	5
427.811	5.34
428.016	6.08
428.221	6.54
428.426	6.07
428.631	6.52
428.836	7.46
429.041	7.43
429.246	7.21
429.451	6.88
429.656	6.74
429.861	7.51
430.066	7.8
430.271	7.74
430.476	7.95
430.681	7.58
430.886	7.03
431.09	6.75
431.295	6.36
431.5	6.52
431.705	6.77
431.91	6.17
432.115	5.9
432.32	5.75
432.524	5.58
432.729	5.15
432.934	5.45
433.139	5.41
433.343	5.65
433.548	6.34
433.753	6.07
433.958	5.26
434.162	5.7
434.367	5.83
434.572	5.33
434.776	5.54
434.981	5.98
435.186	6.48
435.39	6.67
435.595	5.93
435.799	5.46
436.004	5.97
436.209	6.41
436.413	6.99
436.618	7.16
436.822	7.44
437.027	7.39
437.231	7.18
437.436	7.25
437.64	6.9
437.845	7.29
438.049	7.87
438.253	7.51
438.458	7.62
438.662	6.72
438.867	6.58
439.071	6.45
439.275	6.42
439.48	6.56
439.684	5.88
439.888	6.12
440.093	6.23
440.297	5.94
440.501	5.95
440.706	5.7
440.91	6.27
441.114	5.96
441.318	5.99
441.523	6.07
441.727	5.69
441.931	6.16
442.135	6.01
442.339	6.16
442.543	6.05
442.748	6.16
442.952	6.36
443.156	6.54
443.36	6.87
443.564	7
443.768	6.61
443.972	6.59
444.176	5.96
444.38	6.27
444.584	6
444.788	6.04
444.992	5.87
445.196	5.81
445.4	5.55
445.604	5.22
445.808	5.49
446.012	5.69
446.216	5.75
446.42	6.51
446.624	6.24
446.828	6.04
447.032	6.3
447.235	6.24
447.439	6.12
447.643	6.1
447.847	6.35
448.051	6.12
448.254	6.1
448.458	6.76
448.662	6.9
448.866	7.19
449.069	7.19
449.273	6.95
449.477	7.48
449.681	8.1
449.884	8.27
450.088	8.12
450.292	6.81
450.495	7.08
450.699	6.32
450.902	5.89
451.106	5.79
451.31	5.79
451.513	5.55
451.717	5.08
451.92	4.83
452.124	4.33
452.327	4.46
452.531	5.92
452.734	5.56
452.938	5.58
453.141	5.16
453.345	5.19
453.548	4.72
453.752	5.32
453.955	5.72
454.158	5.15
454.362	5.36
454.565	5.25
454.769	4.58
454.972	4.82
455.175	4.92
455.379	5.6
455.582	5.95
455.785	7.57
455.988	7
456.192	6.97
456.395	7.78
456.598	8.17
456.801	8.28
457.005	9.07
457.208	9.49
457.411	9.15
457.614	8.71
457.817	8.54
458.021	8.15
458.224	7.65
458.427	7.6
458.63	7.12
458.833	6.95
459.036	7
459.239	6.66
459.442	6.51
459.645	6.55
459.848	6.58
460.051	6.52
460.254	5.68
460.457	6.46
460.66	6.12
460.863	6.22
461.066	6.11
461.269	6.07
461.472	5.94
461.675	5.3
461.878	5.29
462.081	5.41
462.284	5.28
462.486	5.54
462.689	5.14
462.892	5.63
463.095	5.72
463.298	6.47
463.5	6.85
463.703	7.36
463.906	7.2
464.109	7.42
