Data from JASIL_3281_Reflection_2.txt Node
Date: Tue Nov 17 19:15:00 EST 2015
User: Geneva
Spectrometer: USB4E03002
Autoset integration time: false
Trigger mode: 4
Integration Time (sec): 1.000000E-1
Scans to average: 10
Electric dark correction enabled: false
Nonlinearity correction enabled: false
Boxcar width: 5
Stray light correction enabled: false
XAxis mode: Wavelengths
Stop averaging: false
Number of Pixels in Spectrum: 3648
>>>>>Begin Spectral Data<<<<<
177.575	-83.82
177.794	-4.04
178.014	59.21
178.233	800
178.452	-212.5
178.672	31.28
178.891	-18.75
179.11	73.13
179.33	75.94
179.549	51.49
179.768	14.13
179.987	1.6
180.207	-168.06
180.426	169.57
180.645	-16.35
180.864	29.2
181.084	40.04
181.303	27.78
181.522	31.85
181.741	42.13
181.96	77.4
182.179	122.61
182.398	180.11
182.618	195.39
182.837	294.21
183.056	-3033.33
183.275	-58.18
183.494	-14.86
183.713	1.41
183.932	1.15
184.151	2.65
184.37	3.88
184.589	20.04
184.808	29.21
185.027	41.64
185.246	50.73
185.465	42.86
185.684	-235
185.903	86.15
186.122	82.87
186.341	85.14
186.56	92.72
186.779	70.17
186.998	45.34
187.216	43.65
187.435	93.4
187.654	142.03
187.873	240
188.092	207.96
188.311	174.94
188.53	142.54
188.748	162.5
188.967	168.71
189.186	142.25
189.405	119.88
189.623	105.26
189.842	114.85
190.061	92.76
190.28	87.33
190.498	76
190.717	-1425
190.936	64.08
191.154	144.26
191.373	148.73
191.592	727.27
191.81	71.94
192.029	61.54
192.248	-1550
192.466	-35.04
192.685	-297.01
192.904	13.68
193.122	-2.48
193.341	24.3
193.559	41.69
193.778	40.52
193.996	73.75
194.215	87.96
194.433	105.96
194.652	81.14
194.87	478.82
195.089	170.21
195.307	340.91
195.526	1644.83
195.744	-328.95
195.963	248.39
196.181	201.45
196.399	206.45
196.618	154.67
196.836	302.27
197.055	350.87
197.273	402.98
197.491	429.92
197.71	454.78
197.928	472.6
198.146	148.86
198.365	165.54
198.583	112.5
198.801	128.33
199.019	162.29
199.238	86.02
199.456	77.12
199.674	71.7
199.892	85.05
200.111	91.14
200.329	104.87
200.547	118.88
200.765	149
200.983	256.18
201.202	191.14
201.42	235.28
201.638	258.46
201.856	1067.35
202.074	-3076.92
202.292	1947.06
202.51	-407.41
202.728	224.87
202.946	229.05
203.165	195.71
203.383	192.31
203.601	448
203.819	188.26
204.037	249.24
204.255	250.91
204.473	154.52
204.691	171.79
204.909	188.24
205.127	142.23
205.345	160.86
205.562	181.28
205.78	235.65
205.998	121.14
206.216	100
206.434	110.09
206.652	64.13
206.87	93.37
207.088	97.32
207.306	130.33
207.523	150.13
207.741	125.87
207.959	99.37
208.177	87.46
208.395	102.48
208.612	103.34
208.83	83.19
209.048	76.57
209.266	72.36
209.483	55.44
209.701	64.29
209.919	50.58
210.136	69.71
210.354	75.87
210.572	94.87
210.79	70.02
211.007	62.12
211.225	78.31
211.442	62.27
211.66	95.07
211.878	106.76
212.095	-32.44
212.313	-33.91
212.53	-15.83
212.748	-25.37
212.966	-47.66
213.183	-40.03
213.401	-26.32
213.618	-30.41
213.836	-33.49
214.053	-124.77
214.271	-97.67
214.488	297.02
214.705	183.21
214.923	147.69
215.14	144.86
215.358	105.35
215.575	109.95
215.793	111.79
216.01	74.67
216.227	79.44
216.445	72.65
216.662	82.46
216.879	88.13
217.097	79.56
217.314	88.29
217.531	92.62
217.749	95.73
217.966	99.36
218.183	78.86
218.4	92.03
218.618	53.02
218.835	47.7
219.052	54.23
219.269	97.75
219.487	96.12
219.704	51.55
219.921	65.59
220.138	94.71
220.355	75.12
220.572	71.4
220.79	57.52
221.007	91.51
221.224	90.02
221.441	82.52
221.658	45.94
221.875	52.39
222.092	83.13
222.309	73.13
222.526	66.99
222.743	55.43
222.96	82.31
223.177	94.79
223.394	70.31
223.611	93.93
223.828	99.4
224.045	98.49
224.262	84.76
224.479	44.74
224.696	62.98
224.913	45.05
225.13	40.45
225.347	32.51
225.564	31.53
225.781	21.12
225.997	23.13
226.214	18.02
226.431	16.93
226.648	21.88
226.865	27.64
227.082	19
227.298	14.2
227.515	14.26
227.732	16.74
227.949	17.15
228.165	24.42
228.382	22.15
228.599	17.56
228.816	21.24
229.032	19.3
229.249	17.93
229.466	26.27
229.682	30.05
229.899	26.99
230.116	20.11
230.332	15.75
230.549	3.86
230.765	-6.61
230.982	10.47
231.199	9.78
231.415	14.29
231.632	11.68
231.848	-7.73
232.065	-4.98
232.281	6.32
232.498	9
232.714	15.28
232.931	30.3
233.147	34.21
233.364	25.93
233.58	29.09
233.797	32.38
234.013	37.04
234.23	39.03
234.446	36.45
234.662	33.48
234.879	38.71
235.095	31.3
235.312	26.05
235.528	27.97
235.744	33.09
235.961	31.34
236.177	17.5
236.393	15.87
236.61	11.5
236.826	12.79
237.042	15.59
237.258	27.85
237.475	39.09
237.691	45.33
237.907	45.44
238.123	42.75
238.339	33.72
238.556	33.97
238.772	35.1
238.988	40.52
239.204	40.95
239.42	32.59
239.636	22.81
239.853	18.86
240.069	12.02
240.285	15.5
240.501	11.52
240.717	12.69
240.933	10.57
241.149	8.2
241.365	6.4
241.581	6.77
241.797	8.75
242.013	10.81
242.229	9.6
242.445	9.08
242.661	5.71
242.877	7.76
243.093	10.23
243.309	10.24
243.525	10.07
243.741	12.64
243.957	7.29
244.173	9.56
244.388	7.22
244.604	6.86
244.82	7.32
245.036	5.85
245.252	8.78
245.468	7.18
245.683	8.47
245.899	9.24
246.115	7.48
246.331	8.98
246.547	8.1
246.762	8.17
246.978	7.58
247.194	8.07
247.409	8.95
247.625	7.7
247.841	9.59
248.057	10.27
248.272	9.44
248.488	9.77
248.703	11.76
248.919	15.07
249.135	15.13
249.35	16.22
249.566	16.1
249.782	19.54
249.997	17.93
250.213	15.13
250.428	12.22
250.644	12.53
250.859	9.38
251.075	8.22
251.29	6.98
251.506	8.59
251.721	8.95
251.937	9.87
252.152	2.59
252.368	4.1
252.583	8.93
252.798	11.78
253.014	13.01
253.229	19.17
253.445	23
253.66	18.05
253.875	14.56
254.091	14.93
254.306	13.13
254.521	18.68
254.737	14.47
254.952	5.7
255.167	0.4
255.383	-1.92
255.598	-0.72
255.813	-2.77
256.028	-1.06
256.244	1.58
256.459	1.9
256.674	-1.9
256.889	-0.46
257.104	1
257.32	4.2
257.535	6.58
257.75	9.34
257.965	9.05
258.18	8.64
258.395	9.55
258.61	8.14
258.826	7.36
259.041	9.48
259.256	9.54
259.471	9.57
259.686	9.03
259.901	9.37
260.116	8.56
260.331	8.4
260.546	8.27
260.761	8.58
260.976	10.01
261.191	9.2
261.406	8.45
261.621	6.91
261.836	6.45
262.05	8.41
262.265	6.16
262.48	6.4
262.695	5.23
262.91	4.95
263.125	4.55
263.34	4.6
263.555	8.52
263.769	4.98
263.984	8.56
264.199	10.32
264.414	7.79
264.629	8.2
264.843	8.91
265.058	8.21
265.273	7.53
265.488	3.17
265.702	2.8
265.917	1.85
266.132	3.47
266.346	-0.56
266.561	4.49
266.776	6.44
266.99	6.89
267.205	5.59
267.42	6
267.634	8.11
267.849	11.25
268.063	10.15
268.278	11.73
268.492	12.81
268.707	13.21
268.922	8.78
269.136	8.4
269.351	9.78
269.565	9.11
269.78	9.51
269.994	7.44
270.209	7.91
270.423	9.28
270.637	9.73
270.852	7.87
271.066	9.59
271.281	8.43
271.495	8.55
271.709	5.98
271.924	7.24
272.138	7.87
272.353	9.09
272.567	9.55
272.781	10.36
272.996	9.62
273.21	11
273.424	10.84
273.638	12.13
273.853	13.89
274.067	15.85
274.281	17.09
274.495	16.6
274.71	18.11
274.924	18.55
275.138	15.72
275.352	15.17
275.566	16.36
275.781	15.6
275.995	15.57
276.209	13.12
276.423	13.89
276.637	12.54
276.851	10.44
277.065	7.21
277.279	4.29
277.493	4.63
277.707	6.1
277.921	5.93
278.135	5.79
278.349	7.14
278.563	8.52
278.777	7.37
278.991	7.48
279.205	12
279.419	14.21
279.633	14.17
279.847	15.01
280.061	15.18
280.275	13.39
280.489	13.75
280.703	12.76
280.917	11.17
281.131	11.24
281.344	11.36
281.558	8.39
281.772	6.8
281.986	7.63
282.2	7.44
282.414	6.56
282.627	8.81
282.841	8.6
283.055	8.66
283.269	9.23
283.482	8.36
283.696	7.89
283.91	6.43
284.123	6.88
284.337	7.93
284.551	8.71
284.764	8.05
284.978	6.79
285.192	6.98
285.405	5.08
285.619	5.37
285.833	7.35
286.046	6.88
286.26	8.89
286.473	8.25
286.687	6.63
286.9	7.06
287.114	7.34
287.327	7.82
287.541	5.37
287.754	8.48
287.968	7.85
288.181	6.27
288.395	7.36
288.608	6.09
288.822	7.17
289.035	7.48
289.248	6.44
289.462	6.71
289.675	5.86
289.889	7.98
290.102	5.82
290.315	6.04
290.529	7.16
290.742	7.05
290.955	8.36
291.169	8.03
291.382	8.03
291.595	8.07
291.808	7.78
292.022	8.41
292.235	7.19
292.448	8.23
292.661	8.41
292.875	8.34
293.088	7.03
293.301	7.27
293.514	5.47
293.727	5.62
293.94	5.25
294.153	4.34
294.367	3.97
294.58	3.56
294.793	4.62
295.006	3.52
295.219	2.01
295.432	3.92
295.645	3.95
295.858	5.32
296.071	5.53
296.284	6.07
296.497	7.06
296.71	5.95
296.923	6.83
297.136	6.11
297.349	7.37
297.562	7.47
297.775	7.03
297.988	5.82
298.201	6.3
298.414	6.27
298.626	6.77
298.839	5.1
299.052	5.76
299.265	6.05
299.478	6.91
299.691	5.19
299.903	6.36
300.116	4.4
300.329	5.46
300.542	5.48
300.755	4.82
300.967	3.83
301.18	5.82
301.393	7.87
301.605	6.61
301.818	5.85
302.031	6.79
302.243	6.05
302.456	7.94
302.669	8.93
302.881	8.3
303.094	8.78
303.307	7.88
303.519	6.45
303.732	5.87
303.944	5.78
304.157	4.97
304.37	4.43
304.582	4.49
304.795	4.18
305.007	3.99
305.22	3.62
305.432	3.49
305.645	4.32
305.857	5.8
306.069	3.9
306.282	5.93
306.494	5.72
306.707	6.67
306.919	6.4
307.132	7.43
307.344	7.8
307.556	8.76
307.769	8.2
307.981	9.04
308.193	8.62
308.406	9.26
308.618	7.92
308.83	8.66
309.043	9.01
309.255	9.36
309.467	6.86
309.679	6.33
309.892	6.64
310.104	7.2
310.316	6.38
310.528	5.47
310.74	5.46
310.953	5.43
311.165	4.24
311.377	3.92
311.589	3.98
311.801	5.63
312.013	5.44
312.225	5.46
312.437	6.26
312.649	6.71
312.862	7.78
313.074	8.01
313.286	8.34
313.498	11.7
313.71	9.75
313.922	10.78
314.134	10.96
314.346	11.18
314.558	10.88
314.77	9.46
314.982	8.12
315.193	8.86
315.405	9.3
315.617	10.93
315.829	9.05
316.041	10.78
316.253	9.62
316.465	10.07
316.677	10.85
316.888	9.52
317.1	9.03
317.312	9.82
317.524	9.15
317.736	10.57
317.947	10.35
318.159	10.67
318.371	10.97
318.583	12.53
318.794	12.63
319.006	12.47
319.218	12.38
319.43	13.97
319.641	14.81
319.853	15.34
320.064	14.58
320.276	13.69
320.488	12.96
320.699	11.07
320.911	8.71
321.123	8.6
321.334	7.04
321.546	6.7
321.757	5.69
321.969	3.82
322.18	3.44
322.392	2.41
322.603	3.32
322.815	3.29
323.026	5.75
323.238	6.7
323.449	6.74
323.661	6.99
323.872	7.67
324.083	7.02
324.295	7.93
324.506	7.47
324.718	8.73
324.929	7.07
325.14	7.21
325.352	6.07
325.563	7.24
325.774	6.87
325.986	7.51
326.197	9.02
326.408	9.99
326.62	10.88
326.831	10.68
327.042	10.99
327.253	11.82
327.464	12.54
327.676	13.43
327.887	11.76
328.098	10.66
328.309	11.58
328.52	11.09
328.732	11.12
328.943	10.39
329.154	11.59
329.365	11.06
329.576	10.3
329.787	9.86
329.998	9.73
330.209	10.83
330.42	10.43
330.631	8.91
330.842	10.67
331.053	11.54
331.264	12.86
331.475	12.36
331.686	11.46
331.897	13.27
332.108	13.31
332.319	13.36
332.53	12.38
332.741	12.95
332.952	13.91
333.163	12.8
333.374	11.31
333.585	11.03
333.795	10.31
334.006	10.96
334.217	10.01
334.428	9.64
334.639	9.96
334.849	9.7
335.06	9.52
335.271	9.88
335.482	9.5
335.692	10.65
335.903	9.74
336.114	11.69
336.325	11.67
336.535	11.34
336.746	11.87
336.957	10.98
337.167	11.65
337.378	13.19
337.589	12.48
337.799	10.97
338.01	9.89
338.22	9.81
338.431	8.17
338.642	7.04
338.852	7.55
339.063	6.58
339.273	6.32
339.484	6.95
339.694	6.3
339.905	8.04
340.115	9.93
340.326	11.36
340.536	11.38
340.746	12.18
340.957	13.85
341.167	13.87
341.378	14.77
341.588	14.71
341.799	15.13
342.009	15.33
342.219	15.17
342.43	15.17
342.64	14.83
342.85	14.47
343.061	14.84
343.271	13.91
343.481	13.91
343.691	13.2
343.902	13.51
344.112	12.04
344.322	12.05
344.532	10.66
344.743	9.27
344.953	8.91
345.163	10.07
345.373	8.86
345.583	9.7
345.793	10.51
346.004	10.47
346.214	9.58
346.424	10.94
346.634	10.49
346.844	10.48
347.054	11.13
347.264	12.21
347.474	11.39
347.684	12.06
347.894	11.36
348.104	10.57
348.314	11.33
348.524	12.17
348.734	11.14
348.944	10.37
349.154	10.34
349.364	10.24
349.574	8.13
349.784	8.41
349.994	8.26
350.204	9.19
350.413	9.23
350.623	8.56
350.833	8.58
351.043	8.49
351.253	8.62
351.463	10.02
351.672	10.31
351.882	11.41
352.092	10.39
352.302	10.4
352.511	9.59
352.721	9.25
352.931	8.32
353.141	7.28
353.35	7.87
353.56	9.62
353.77	7.96
353.979	9.04
354.189	9.25
354.399	10.03
354.608	11.17
354.818	10.87
355.027	10.77
355.237	11.69
355.447	11.4
355.656	11.25
355.866	10.26
356.075	10.71
356.285	10.32
356.494	10.24
356.704	10.28
356.913	8.77
357.123	9.15
357.332	9.17
357.542	8.33
357.751	8.96
357.96	9.08
358.17	9.37
358.379	9.97
358.589	9.07
358.798	8.29
359.007	8.36
359.217	8
359.426	7.73
359.635	7.28
359.845	8.02
360.054	8.32
360.263	7.88
360.472	7.7
360.682	6.94
360.891	7.49
361.1	7.89
361.309	7.75
361.519	8.46
361.728	8.85
361.937	8.82
362.146	8.71
362.355	9.16
362.564	9.36
362.774	8.7
362.983	7.96
363.192	7.87
363.401	7.88
363.61	7.53
363.819	6.57
364.028	6.69
364.237	6.88
364.446	7.1
364.655	6.75
364.864	7
365.073	7.67
365.282	7.91
365.491	8.09
365.7	7.89
365.909	8.22
366.118	8.79
366.327	7.89
366.536	8.82
366.745	7.84
366.954	7.85
367.162	7.41
367.371	7.81
367.58	8.24
367.789	7.82
367.998	8.09
368.207	7.45
368.415	7.71
368.624	7.8
368.833	7.24
369.042	8.25
369.25	7.8
369.459	7.99
369.668	6.76
369.877	7.15
370.085	7.16
370.294	6.83
370.503	6.66
370.711	5.83
370.92	6.12
371.129	6.18
371.337	5.2
371.546	5.37
371.754	5.61
371.963	5.84
372.171	5.58
372.38	5.6
372.589	5.16
372.797	5.45
373.006	6.26
373.214	7.27
373.423	5.91
373.631	5.93
373.84	5.38
374.048	5.39
374.256	5.73
374.465	5.83
374.673	6.48
374.882	7.01
375.09	7.25
375.298	7.46
375.507	6.03
375.715	7.57
375.923	8.05
376.132	8.88
376.34	8.71
376.548	8.64
376.757	9.33
376.965	8.67
377.173	8.23
377.381	7.62
377.59	7.52
377.798	7.74
378.006	7.05
378.214	6.62
378.423	5.61
378.631	5.84
378.839	5.64
379.047	4.06
379.255	3.88
379.463	3.47
379.671	4.59
379.879	5.2
380.088	5.6
380.296	5.61
380.504	6.27
380.712	7.25
380.92	7.77
381.128	7.4
381.336	8.63
381.544	9.26
381.752	10.22
381.96	10.22
382.168	8.39
382.376	8.1
382.584	7.16
382.791	8
382.999	8.01
383.207	7.56
383.415	8.63
383.623	8.87
383.831	8.13
384.039	7.46
384.247	6.81
384.454	7.07
384.662	7.36
384.87	8.89
385.078	7.8
385.285	6.8
385.493	6.27
385.701	5.56
385.909	5.29
386.116	5.21
386.324	5.35
386.532	5.78
386.739	6.11
386.947	6.86
387.155	6.49
387.362	7.48
387.57	8.27
387.778	8.61
387.985	8.53
388.193	8.83
388.4	9.43
388.608	9.86
388.816	9.64
389.023	9.48
389.231	9.11
389.438	8.59
389.646	7.47
389.853	7.83
390.061	7.12
390.268	7.03
390.475	6.37
390.683	6.2
390.89	5.83
391.098	6.34
391.305	7.06
391.512	6.96
391.72	8.07
391.927	7.92
392.135	7.8
392.342	8.74
392.549	8.77
392.756	8.56
392.964	8.18
393.171	8.39
393.378	8.18
393.586	7.25
393.793	6.74
394	5.56
394.207	5.79
394.414	5.44
394.622	4.78
394.829	5.19
395.036	6.11
395.243	6.39
395.45	6.08
395.657	6.2
395.864	6.36
396.072	6.06
396.279	6.41
396.486	7.22
396.693	6.75
396.9	6.71
397.107	6.06
397.314	5.84
397.521	5.56
397.728	5.66
397.935	5.59
398.142	6.37
398.349	7.29
398.556	7.6
398.763	6.31
398.97	7.03
399.177	7.51
399.383	7.59
399.59	7.79
399.797	8.93
400.004	9.13
400.211	8.82
400.418	9.21
400.625	9.19
400.831	9.07
401.038	9.08
401.245	8.5
401.452	8.63
401.658	9.33
401.865	8.48
402.072	7.24
402.279	7.1
402.485	6.62
402.692	5.58
402.899	5.62
403.105	5.55
403.312	5.89
403.519	5.51
403.725	4.48
403.932	4.16
404.138	4.67
404.345	4.38
404.552	4.43
404.758	4.83
404.965	5.09
405.171	5.07
405.378	5.15
405.584	5.17
405.791	6.14
405.997	6.27
406.204	6.64
406.41	6.29
406.617	7.25
406.823	7.8
407.029	7.79
407.236	7.79
407.442	7.54
407.649	7.66
407.855	8.01
408.061	7.7
408.268	8.38
408.474	7.37
408.68	6.57
408.887	6.25
409.093	5.96
409.299	5.88
409.505	5.83
409.712	6.19
409.918	6.28
410.124	6
410.33	5.78
410.537	5.73
410.743	6.55
410.949	7.47
411.155	7.84
411.361	7.35
411.567	7.44
411.773	8.06
411.98	7.34
412.186	7.29
412.392	7.58
412.598	8.15
412.804	8.3
413.01	7.79
413.216	7.08
413.422	6.01
413.628	6.93
413.834	6.59
414.04	6.32
414.246	6.38
414.452	6.05
414.658	6.27
414.864	6.09
415.07	5.77
415.275	5.34
415.481	5.7
415.687	6.38
415.893	5.71
416.099	5.89
416.305	5.48
416.511	5.72
416.716	6.05
416.922	5.89
417.128	5.62
417.334	5.61
417.539	6.13
417.745	6.31
417.951	5.71
418.157	5.69
418.362	5.47
418.568	5.07
418.774	4.78
418.979	4.47
419.185	4.39
419.391	4.26
419.596	4.18
419.802	4.34
420.008	4.06
420.213	4.54
420.419	4.38
420.624	4.36
420.83	4.82
421.035	4.76
421.241	4.86
421.446	4.94
421.652	5.06
421.857	5.02
422.063	4.71
422.268	4.64
422.474	4.69
422.679	4.98
422.885	5.02
423.09	4.87
423.295	5.23
423.501	5.04
423.706	4.82
423.911	4.65
424.117	4.81
424.322	4.49
424.527	4.73
424.733	4.31
424.938	4.17
425.143	4.37
425.349	4.41
425.554	4.21
425.759	4.61
425.964	4.64
426.169	5.22
426.375	5.18
426.58	5.65
426.785	5.26
426.99	5.62
427.195	5.87
427.4	5.82
427.605	5.85
427.811	5.58
428.016	5.14
428.221	5.56
428.426	5.46
428.631	4.87
428.836	4.76
429.041	5.04
429.246	4.42
429.451	4.35
429.656	4.55
429.861	4.59
430.066	4.87
430.271	5.18
430.476	4.75
430.681	4.39
430.886	4.78
431.09	5.16
431.295	5.16
431.5	5.97
431.705	5.99
431.91	5.89
432.115	6.22
432.32	6.17
432.524	6.01
432.729	5.76
432.934	5.62
433.139	5.46
433.343	4.92
433.548	4.81
433.753	4.49
433.958	4.8
434.162	4.74
434.367	4.6
434.572	4.15
434.776	4.1
434.981	4.34
435.186	5.06
435.39	5.27
435.595	5.43
435.799	5.54
436.004	5.45
436.209	5
436.413	5.08
436.618	5.11
436.822	5.41
437.027	5.09
437.231	5.29
437.436	4.59
437.64	4.79
437.845	5.08
438.049	5.35
438.253	5.13
438.458	4.96
438.662	4.61
438.867	4.12
439.071	4.16
439.275	4.55
439.48	4.4
439.684	4.36
439.888	4.43
440.093	4.45
440.297	4.3
440.501	4.42
440.706	4.47
440.91	4.57
441.114	4.84
441.318	4.47
441.523	4.48
441.727	4.36
441.931	4.59
442.135	4.02
442.339	3.7
442.543	3.97
442.748	4.23
442.952	4.57
443.156	4.61
443.36	4.77
443.564	5
443.768	4.59
443.972	4.72
444.176	4.52
444.38	4.76
444.584	4.96
444.788	4.63
444.992	4.61
445.196	4.12
445.4	4.19
445.604	4.04
445.808	4.24
446.012	4.16
446.216	3.96
446.42	4.08
446.624	4.39
446.828	3.92
447.032	3.99
447.235	3.74
447.439	4.23
447.643	4.2
447.847	4.41
448.051	4.42
448.254	4.67
448.458	4.86
448.662	4.88
448.866	4.43
449.069	5.09
449.273	5.08
449.477	5.15
449.681	4.86
449.884	4.92
450.088	4.59
450.292	4.4
450.495	4.48
450.699	4.4
450.902	4.52
451.106	5.01
451.31	4.98
451.513	4.76
451.717	4.6
451.92	4.58
452.124	4.41
452.327	4.68
452.531	4.43
452.734	4.31
452.938	4.72
453.141	4.43
453.345	4.12
453.548	4.1
453.752	4.14
453.955	4.56
454.158	4.34
454.362	4.64
454.565	4.77
454.769	4.91
454.972	4.97
455.175	4.65
455.379	4.68
455.582	4.58
455.785	4.76
455.988	5.12
456.192	4.42
456.395	4.45
456.598	4.36
456.801	4.26
457.005	4.79
457.208	4.61
457.411	4.98
457.614	5.02
457.817	4.68
458.021	4.46
458.224	4.25
458.427	4.22
458.63	4.42
458.833	4.16
459.036	3.92
459.239	3.69
459.442	3.85
459.645	3.61
459.848	3.69
460.051	3.88
460.254	4.02
460.457	4.19
460.66	4.71
460.863	4.63
461.066	4.63
461.269	4.83
461.472	4.84
461.675	4.51
461.878	4.38
462.081	4.14
462.284	4.77
462.486	4.34
462.689	4.11
462.892	4.06
463.095	4.02
463.298	4.3
463.5	4.24
463.703	4.07
463.906	4.27
464.109	4.53
464.311	4.62
464.514	4.11
464.717	4.36
464.92	4.68
465.122	5.07
465.325	4.94
465.528	5.12
465.73	5.18
465.933	4.95
466.135	5.07
466.338	4.92
466.541	5.25
466.743	5.39
466.946	5.33
467.148	5.16
467.351	4.7
467.553	4.95
