Data from JASIL_3337_Reflection_2.txt Node
Date: Tue Nov 17 20:23:17 EST 2015
User: Geneva
Spectrometer: USB4E03002
Autoset integration time: false
Trigger mode: 4
Integration Time (sec): 1.000000E-1
Scans to average: 10
Electric dark correction enabled: false
Nonlinearity correction enabled: false
Boxcar width: 5
Stray light correction enabled: false
XAxis mode: Wavelengths
Stop averaging: false
Number of Pixels in Spectrum: 3648
>>>>>Begin Spectral Data<<<<<
177.575	71.29
177.794	-44.57
178.014	22.47
178.233	-98.11
178.452	-153.33
178.672	-149.61
178.891	-613.79
179.11	4720
179.33	1250
179.549	1192.16
179.768	-5409.09
179.987	568.94
180.207	292.62
180.426	596.58
180.645	752.8
180.864	5911.76
181.084	652.41
181.303	535.71
181.522	654.02
181.741	685.96
181.96	1196.97
182.179	7100
182.398	-1531.17
182.618	-605.97
182.837	-513.33
183.056	-555.74
183.275	-530.56
183.494	-201.8
183.713	-141.81
183.932	-117.17
184.151	-63.92
184.37	-54.11
184.589	-78.78
184.808	-57.76
185.027	-34.5
185.246	-68.68
185.465	-75.66
185.684	-101.29
185.903	-194.17
186.122	-291.25
186.341	-677.88
186.56	-554.76
186.779	-2948.15
186.998	-329.63
187.216	-381.11
187.435	-396.97
187.654	-369.09
187.873	-215.18
188.092	-274.36
188.311	-319.29
188.53	-191.3
188.748	-64.69
188.967	-63.3
189.186	-51.83
189.405	-174.05
189.623	-134.38
189.842	-160.89
190.061	-167.81
190.28	-108.02
190.498	-137.55
190.717	-113.86
190.936	-124.79
191.154	-446.15
191.373	-787.36
191.592	1809.3
191.81	655.34
192.029	642.11
192.248	363.73
192.466	339.78
192.685	151.79
192.904	357.43
193.122	182.42
193.341	238.24
193.559	234.46
193.778	402.21
193.996	362.09
194.215	940.58
194.433	519.29
194.652	454.55
194.87	396.88
195.089	534.62
195.307	915.79
195.526	-653.06
195.744	-466.91
195.963	-520
196.181	-623.97
196.399	-929.89
196.618	980.26
196.836	675.18
197.055	702.7
197.273	749.25
197.491	887.39
197.71	479.76
197.928	452.98
198.146	411.64
198.365	2492.86
198.583	1563.49
198.801	-729.03
199.019	-279.94
199.238	-188.46
199.456	-155.3
199.674	-251.78
199.892	-190.24
200.111	-145.54
200.329	-144.62
200.547	-228.21
200.765	1801.96
200.983	-788.89
201.202	1423.68
201.42	433.21
201.638	349.13
201.856	600
202.074	907.33
202.292	521.07
202.51	468.47
202.728	572.04
202.946	4882.14
203.165	2436.54
203.383	470.4
203.601	637.06
203.819	1034.55
204.037	-2869.7
204.255	-3496.3
204.473	-525.87
204.691	-426.47
204.909	-313.72
205.127	-1439.58
205.345	365.45
205.562	-478.29
205.78	-112.53
205.998	-79.05
206.216	-74.84
206.434	-123.3
206.652	-81.65
206.87	-172.46
207.088	-100.95
207.306	-129.48
207.523	-152.49
207.741	-170.55
207.959	-192.79
208.177	-215.54
208.395	-235.78
208.612	-266.67
208.83	-161.3
209.048	-185.13
209.266	-167.13
209.483	-94.89
209.701	-136.82
209.919	-82.8
210.136	-91.33
210.354	-114.68
210.572	-147.52
210.79	-172.67
211.007	-375.35
211.225	-3966.67
211.442	1089.83
211.66	3200
211.878	341.2
212.095	410.47
212.313	666.1
212.53	322.27
212.748	275.7
212.966	166.38
213.183	157.59
213.401	-1333.33
213.618	-51.98
213.836	-39.93
214.053	-9.17
214.271	-16.67
214.488	-117.86
214.705	-116.32
214.923	-85.46
215.14	-49.06
215.358	-60.68
215.575	-62.46
215.793	-110.12
216.01	-332.7
216.227	-667.24
216.445	-570.83
216.662	-338.79
216.879	-335.22
217.097	-186.05
217.314	-364.59
217.531	13150
217.749	1045.54
217.966	590.11
218.183	405.54
218.4	633.55
218.618	621.05
218.835	413.65
219.052	333.09
219.269	323.91
219.487	189.64
219.704	184.5
219.921	215
220.138	296.09
220.355	277.19
220.572	254.07
220.79	255.28
221.007	334.36
221.224	458.94
221.441	508.33
221.658	536.75
221.875	-3168.57
222.092	-1190.91
222.309	3151.52
222.526	615.76
222.743	557
222.96	760.43
223.177	2213.95
223.394	1410.53
223.611	851.75
223.828	462.8
224.045	348.21
224.262	219.95
224.479	219.4
224.696	358.17
224.913	549.59
225.13	381.13
225.347	349.66
225.564	166.88
225.781	99.8
225.997	74.62
226.214	76.28
226.431	66.23
226.648	65.98
226.865	37.16
227.082	38.14
227.298	47.28
227.515	42.65
227.732	36.07
227.949	36.07
228.165	29.81
228.382	27.22
228.599	28.15
228.816	32.82
229.032	35.91
229.249	45.49
229.466	43.54
229.682	37.06
229.899	44.68
230.116	53.48
230.332	61.53
230.549	68.05
230.765	69.3
230.982	64.5
231.199	67.31
231.415	63.28
231.632	70.45
231.848	69.46
232.065	70.45
232.281	60.22
232.498	68.65
232.714	63.01
232.931	56.42
233.147	57.18
233.364	69.18
233.58	64.86
233.797	67.44
234.013	74.82
234.23	98.98
234.446	107.46
234.662	138.65
234.879	176.2
235.095	163.77
235.312	153.14
235.528	164.16
235.744	178.38
235.961	235.35
236.177	203.83
236.393	247.16
236.61	175.52
236.826	158.58
237.042	119.89
237.258	124.12
237.475	113.07
237.691	161.54
237.907	91.85
238.123	82.62
238.339	72.21
238.556	71.4
238.772	62.6
238.988	65.53
239.204	53.08
239.42	44.92
239.636	42.39
239.853	43.54
240.069	39.62
240.285	41.26
240.501	37.7
240.717	34.99
240.933	37.08
241.149	35.08
241.365	33.37
241.581	33.69
241.797	39.13
242.013	37.46
242.229	35.39
242.445	30.33
242.661	34.36
242.877	35.81
243.093	42.48
243.309	41.58
243.525	43.18
243.741	42.45
243.957	38.41
244.173	33.12
244.388	35.52
244.604	33.22
244.82	33.59
245.036	28.8
245.252	27.16
245.468	23.68
245.683	21.05
245.899	21.11
246.115	20.4
246.331	19.32
246.547	19.36
246.762	16.71
246.978	16.19
247.194	15.47
247.409	16.24
247.625	12.44
247.841	11.76
248.057	14.63
248.272	12.54
248.488	13.52
248.703	14.12
248.919	16.71
249.135	17.34
249.35	16.97
249.566	22.73
249.782	26.59
249.997	30.63
250.213	34.2
250.428	33.43
250.644	32.69
250.859	28.93
251.075	28.03
251.29	24.32
251.506	24.4
251.721	26.58
251.937	23.01
252.152	21.14
252.368	22.07
252.583	25.09
252.798	22.2
253.014	19.41
253.229	20.63
253.445	28.09
253.66	35.89
253.875	32.15
254.091	29.09
254.306	31.4
254.521	29.75
254.737	21.42
254.952	15.63
255.167	15.61
255.383	17.93
255.598	21.27
255.813	18.92
256.028	10.2
256.244	17.84
256.459	22.72
256.674	21.82
256.889	23.25
257.104	22.66
257.32	19.98
257.535	17.67
257.75	17.16
257.965	13.79
258.18	12.27
258.395	10.88
258.61	8.93
258.826	6.6
259.041	7.46
259.256	5.83
259.471	6.67
259.686	7.31
259.901	7.89
260.116	9.67
260.331	12.04
260.546	13.92
260.761	16.08
260.976	17.3
261.191	18.58
261.406	20.25
261.621	18.33
261.836	20.69
262.05	16.51
262.265	21.66
262.48	18.11
262.695	16.42
262.91	11.86
263.125	13.13
263.34	15.03
263.555	11.09
263.769	11.75
263.984	16.56
264.199	22.85
264.414	26.12
264.629	21.87
264.843	25.41
265.058	25.5
265.273	22.86
265.488	22.46
265.702	22.75
265.917	26.38
266.132	24.12
266.346	26.47
266.561	24.3
266.776	25.86
266.99	25.37
267.205	24.11
267.42	22.61
267.634	22.74
267.849	23.61
268.063	20.4
268.278	21.62
268.492	21.78
268.707	17.69
268.922	15.61
269.136	13.7
269.351	14.95
269.565	17.47
269.78	17.66
269.994	20.14
270.209	18.65
270.423	19.57
270.637	16.83
270.852	16.98
271.066	18.15
271.281	17.6
271.495	16.6
271.709	17.3
271.924	15.53
272.138	14.83
272.353	15.18
272.567	15.92
272.781	14.65
272.996	14.84
273.21	13.28
273.424	13.25
273.638	14.4
273.853	16.72
274.067	12.46
274.281	12.83
274.495	14.15
274.71	15.56
274.924	14.81
275.138	16.81
275.352	17.18
275.566	17.54
275.781	15.47
275.995	16.29
276.209	13.38
276.423	14.35
276.637	12.7
276.851	12.62
277.065	10.56
277.279	11.75
277.493	8.37
277.707	8.04
277.921	9.22
278.135	14.77
278.349	14.34
278.563	14.98
278.777	13.47
278.991	14.12
279.205	14.32
279.419	12.06
279.633	11.72
279.847	15.95
280.061	16.24
280.275	17.67
280.489	12.04
280.703	11.03
280.917	12.97
281.131	16.71
281.344	16.76
281.558	15.95
281.772	16.19
281.986	16.06
282.2	14.16
282.414	14.39
282.627	12.34
282.841	13.55
283.055	11.51
283.269	11.5
283.482	8.51
283.696	7.94
283.91	8.71
284.123	9.53
284.337	9.21
284.551	9.18
284.764	8.88
284.978	9.63
285.192	9.28
285.405	9.74
285.619	8.9
285.833	10.16
286.046	10.88
286.26	10.22
286.473	11.37
286.687	12.11
286.9	13.22
287.114	14.06
287.327	13.22
287.541	13.65
287.754	15.68
287.968	17.08
288.181	16.48
288.395	17.31
288.608	18.9
288.822	18.24
289.035	18.09
289.248	17.65
289.462	17.38
289.675	17.29
289.889	18.1
290.102	16.6
290.315	13.91
290.529	13.43
290.742	11.36
290.955	10.66
291.169	11.1
291.382	8.76
291.595	9.68
291.808	9.26
292.022	10.25
292.235	10.21
292.448	10.11
292.661	13.01
292.875	14.76
293.088	16.67
293.301	14.89
293.514	11.23
293.727	12.06
293.94	10.28
294.153	9.08
294.367	9.09
294.58	8.29
294.793	8.38
295.006	6.31
295.219	6.4
295.432	3.71
295.645	6.07
295.858	8.83
296.071	9.04
296.284	9.28
296.497	10.1
296.71	10.7
296.923	10.86
297.136	11.3
297.349	12.42
297.562	12.53
297.775	13.48
297.988	12.89
298.201	12.74
298.414	13.77
298.626	12.88
298.839	14.26
299.052	13.92
299.265	15.06
299.478	16.63
299.691	17.66
299.903	17.29
300.116	18.08
300.329	15.77
300.542	15.8
300.755	15
300.967	16.81
301.18	15.29
301.393	13.89
301.605	12.43
301.818	10.23
302.031	10.42
302.243	9.94
302.456	8.95
302.669	10.94
302.881	11.45
303.094	12.81
303.307	11.89
303.519	11.85
303.732	12.71
303.944	14.68
304.157	17.38
304.37	16.82
304.582	17.21
304.795	18.34
305.007	19.06
305.22	18.51
305.432	17.02
305.645	17.61
305.857	17.36
306.069	16.85
306.282	16.03
306.494	15.24
306.707	14.97
306.919	15.39
307.132	15.35
307.344	15.07
307.556	14.85
307.769	13.06
307.981	14.6
308.193	15.54
308.406	14.88
308.618	15.8
308.83	14.68
309.043	14.89
309.255	14.21
309.467	13.37
309.679	12.28
309.892	12.49
310.104	14.22
310.316	13.3
310.528	13.05
310.74	13.11
310.953	11.92
311.165	11.2
311.377	12.68
311.589	13.15
311.801	13.36
312.013	13.06
312.225	13.1
312.437	12.7
312.649	11.28
312.862	11.77
313.074	13.47
313.286	14.32
313.498	16.04
313.71	11.99
313.922	10.56
314.134	11.48
314.346	12.13
314.558	11.14
314.77	11.09
314.982	13.38
315.193	13.42
315.405	13.22
315.617	11.81
315.829	12.19
316.041	15.11
316.253	16.13
316.465	15.11
316.677	14.36
316.888	16.4
317.1	16.59
317.312	17.74
317.524	17.99
317.736	18.14
317.947	19.87
318.159	18.82
318.371	17.87
318.583	18.29
318.794	17.94
319.006	21.13
319.218	19.71
319.43	20.09
319.641	20.63
319.853	21.06
320.064	22.26
320.276	22.55
320.488	22.51
320.699	22.53
320.911	22.71
321.123	23.11
321.334	20.63
321.546	18.89
321.757	18.83
321.969	18.15
322.18	17.46
322.392	15.41
322.603	13.43
322.815	13.32
323.026	12.91
323.238	12.7
323.449	13.31
323.661	14.26
323.872	15.62
324.083	14.99
324.295	13.3
324.506	12.92
324.718	13.22
324.929	15.04
325.14	16.31
325.352	17.43
325.563	17.66
325.774	17.46
325.986	18.04
326.197	16.99
326.408	17.72
326.62	18.12
326.831	18.3
327.042	19.07
327.253	18.02
327.464	17.36
327.676	16.18
327.887	15.08
328.098	14.72
328.309	13.26
328.52	15.02
328.732	15.63
328.943	15.96
329.154	15.48
329.365	14.19
329.576	15.25
329.787	15.23
329.998	15.83
330.209	17.91
330.42	18.7
330.631	19.15
330.842	18.62
331.053	17.67
331.264	18.31
331.475	19.68
331.686	21.75
331.897	20.23
332.108	20.25
332.319	20.05
332.53	18.71
332.741	18.98
332.952	18.26
333.163	18.86
333.374	20.2
333.585	20.32
333.795	19.21
334.006	17.09
334.217	18.12
334.428	18.23
334.639	18.42
334.849	20.28
335.06	19.83
335.271	21.33
335.482	20.44
335.692	20.78
335.903	18.89
336.114	20.22
336.325	21.08
336.535	20.43
336.746	20.13
336.957	19.96
337.167	18.74
337.378	19.43
337.589	19.43
337.799	18.66
338.01	16.73
338.22	19.31
338.431	17.18
338.642	17.45
338.852	18.14
339.063	17.2
339.273	18.71
339.484	19.48
339.694	20.09
339.905	19.96
340.115	22.18
340.326	22.55
340.536	20.7
340.746	21.72
340.957	21.16
341.167	21.91
341.378	23.51
341.588	22.18
341.799	21.61
342.009	20.05
342.219	19.49
342.43	18.3
342.64	18.99
342.85	18.48
343.061	17.42
343.271	18.2
343.481	14.81
343.691	13.26
343.902	14.01
344.112	14.65
344.322	15.14
344.532	15.95
344.743	16.27
344.953	14.95
345.163	15.28
345.373	16.96
345.583	16.03
345.793	18.73
346.004	19.98
346.214	21.14
346.424	21
346.634	20.27
346.844	20.14
347.054	19.52
347.264	20.94
347.474	20.35
347.684	18.65
347.894	18.49
348.104	17.02
348.314	16.89
348.524	14.58
348.734	14.62
348.944	15.11
349.154	14.42
349.364	13.86
349.574	13.59
349.784	14.08
349.994	14.48
350.204	15.35
350.413	15.24
350.623	14.79
350.833	16.76
351.043	17.06
351.253	17.65
351.463	17.44
351.672	18.54
351.882	17.81
352.092	17.76
352.302	18.06
352.511	17.51
352.721	18.59
352.931	18.68
353.141	17.55
353.35	17.04
353.56	17.03
353.77	15.99
353.979	15.8
354.189	16
354.399	16.68
354.608	16.37
354.818	16.35
355.027	15.71
355.237	14.79
355.447	15.43
355.656	14.24
355.866	13.23
356.075	14.71
356.285	14.92
356.494	14.95
356.704	14.29
356.913	14.27
357.123	13.56
357.332	14.11
357.542	14.99
357.751	14.52
357.96	14.71
358.17	14.34
358.379	13.33
358.589	13.35
358.798	14.22
359.007	15.16
359.217	15.77
359.426	15.57
359.635	15.1
359.845	14.9
360.054	13.84
360.263	14
360.472	15.19
360.682	15.81
360.891	15.69
361.1	15.26
361.309	15.24
361.519	14.55
361.728	14.61
361.937	15.23
362.146	15.39
362.355	15.84
362.564	16.21
362.774	15.61
362.983	16.01
363.192	16.6
363.401	17.12
363.61	16.21
363.819	16.99
364.028	17.94
364.237	17.21
364.446	17.77
364.655	17.7
364.864	18.02
365.073	17.52
365.282	16.1
365.491	15.54
365.7	15.57
365.909	15.11
366.118	14.91
366.327	14.55
366.536	13.63
366.745	12.87
366.954	13.25
367.162	13.37
367.371	14.34
367.58	15.59
367.789	15.74
367.998	15.37
368.207	15.8
368.415	16.1
368.624	16.28
368.833	17.55
369.042	17.78
369.25	17.88
369.459	17.39
369.668	17.35
369.877	16.77
370.085	16.2
370.294	16.17
370.503	17.03
370.711	16.55
370.92	16.23
371.129	16.11
371.337	15.01
371.546	14.35
371.754	14.02
371.963	13.43
372.171	13.37
372.38	13.45
372.589	13.53
372.797	12.48
373.006	12.64
373.214	11.86
373.423	10.91
373.631	11.54
373.84	10.12
374.048	9.78
374.256	10.18
374.465	11.09
374.673	11.65
374.882	10.65
375.09	10.94
375.298	10.94
375.507	11.22
375.715	11.24
375.923	11
376.132	12.23
376.34	10.96
376.548	11.23
376.757	10.65
376.965	9.86
377.173	10.39
377.381	10.77
377.59	10.87
377.798	10.87
378.006	10.66
378.214	11.65
378.423	11.11
378.631	12.39
378.839	12.08
379.047	12.66
379.255	13.5
379.463	13.58
379.671	14.27
379.879	13.47
380.088	14.02
380.296	15.4
380.504	14.52
380.712	15.33
380.92	15.79
381.128	16.22
381.336	15.42
381.544	14.27
381.752	13.9
381.96	12.4
382.168	12.28
382.376	12.77
382.584	11.84
382.791	12.07
382.999	11.16
383.207	10.43
383.415	10.13
383.623	10.01
383.831	10.39
384.039	11.04
384.247	11.21
384.454	11.94
384.662	11.03
384.87	12.11
385.078	11.94
385.285	12.22
385.493	13.19
385.701	12.69
385.909	13.17
386.116	12.82
386.324	12.02
386.532	12.21
386.739	12.29
386.947	12.57
387.155	11.38
387.362	11.79
387.57	11.5
387.778	9.81
387.985	9.69
388.193	9.59
388.4	9.96
388.608	10.27
388.816	10.81
389.023	11.05
389.231	11.2
389.438	11.72
389.646	11.69
389.853	12.53
390.061	13.15
390.268	12.8
390.475	12.85
390.683	12.91
390.89	12.98
391.098	12.62
391.305	11.98
391.512	12.2
391.72	11.78
391.927	11.76
392.135	11.53
392.342	11.59
392.549	11.76
392.756	11.23
392.964	10.43
393.171	10.71
393.378	10.25
393.586	10.16
393.793	9.8
394	10.15
394.207	9.46
394.414	9.79
394.622	9.86
394.829	10.48
395.036	10.52
395.243	10.82
395.45	10.25
395.657	9.79
395.864	10.03
396.072	10.63
396.279	11.03
396.486	11.23
396.693	10.79
396.9	10.56
397.107	10.46
397.314	10.57
397.521	10.53
397.728	10.69
397.935	10.85
398.142	10.92
398.349	10.2
398.556	10.04
398.763	9.95
398.97	10.22
399.177	10.63
399.383	10.98
399.59	11.18
399.797	11.87
400.004	12.04
400.211	12.17
400.418	11.89
400.625	11.93
400.831	11.72
401.038	11.17
401.245	11.46
401.452	11.37
401.658	11.55
401.865	11.04
402.072	10.13
402.279	9.65
402.485	9.94
402.692	9.75
402.899	9.31
403.105	9.44
403.312	10.24
403.519	9.82
403.725	9.43
403.932	8.64
404.138	8.81
404.345	9.35
404.552	9.84
404.758	10.26
404.965	10.67
405.171	11.01
405.378	11.04
405.584	11.19
405.791	10.93
405.997	11.5
406.204	12.11
406.41	12.16
406.617	12.19
406.823	11.51
407.029	10.81
407.236	10.84
407.442	10.26
407.649	10.02
407.855	9.8
408.061	10.2
408.268	9.94
408.474	9.94
408.68	9.46
408.887	9.34
409.093	9.75
409.299	10.22
409.505	9.57
409.712	10.62
409.918	10.25
410.124	9.2
410.33	9.07
410.537	8.97
410.743	8.07
410.949	9.41
411.155	9.43
411.361	8.98
411.567	8.15
411.773	8.66
411.98	7.78
412.186	8.66
412.392	9.22
412.598	8.85
412.804	8.95
413.01	9.64
413.216	8.96
413.422	8.45
413.628	8.73
413.834	9.08
414.04	8.39
414.246	8.55
414.452	7.69
414.658	7.7
414.864	7.93
415.07	7.74
415.275	7.11
415.481	7
415.687	7.57
415.893	7.8
416.099	7.91
416.305	8.2
416.511	8.1
416.716	9
416.922	9.28
417.128	9.09
417.334	8.97
417.539	9.19
417.745	9.72
417.951	9.28
418.157	9.47
418.362	9.74
418.568	9.87
418.774	9.66
418.979	8.88
419.185	8.57
419.391	8.77
419.596	8.87
419.802	8.86
420.008	8.14
420.213	8.49
420.419	8.09
420.624	8
420.83	8
421.035	8.15
421.241	8.43
421.446	8.7
421.652	8.6
421.857	8.66
422.063	8.68
422.268	8.84
422.474	8.58
422.679	8.73
422.885	8.41
423.09	8.39
423.295	8.41
423.501	8.24
423.706	8.22
423.911	8.48
424.117	8.28
424.322	8.36
424.527	8.56
424.733	9.06
424.938	8.8
425.143	8.74
425.349	8.36
425.554	8.34
425.759	8.46
425.964	8.35
426.169	8.01
426.375	8.19
426.58	7.97
426.785	7.66
426.99	7.6
427.195	7.86
427.4	8.43
427.605	9.02
427.811	9.07
428.016	8.95
428.221	9.27
428.426	9.62
428.631	9.35
428.836	9.63
429.041	9.98
429.246	9.71
429.451	9.76
429.656	9.55
429.861	9.37
430.066	9.55
430.271	10.06
430.476	9.95
430.681	9.2
430.886	9.28
431.09	8.54
431.295	8.25
431.5	8.17
431.705	8.48
431.91	8.77
432.115	8.56
432.32	8.27
432.524	7.79
432.729	7.69
432.934	8.1
433.139	8.06
433.343	8.52
433.548	8.74
433.753	8.47
433.958	7.91
434.162	7.83
434.367	8.18
434.572	8.22
434.776	8.55
434.981	8.93
435.186	8.7
435.39	8.94
435.595	8.7
435.799	8.67
436.004	8.82
436.209	9.24
436.413	9.17
436.618	8.77
436.822	9
437.027	8.85
437.231	8.44
437.436	8.64
437.64	8.63
437.845	8.65
438.049	8.54
438.253	8.41
438.458	8.15
438.662	8.22
438.867	8.26
439.071	8.24
439.275	8.4
439.48	8.59
439.684	8.72
439.888	8.76
440.093	8.76
440.297	8.87
440.501	8.97
440.706	9.16
440.91	9.07
441.114	9.38
441.318	9.55
441.523	9.45
441.727	9.15
441.931	9.3
442.135	9.12
442.339	9.08
442.543	8.91
442.748	9.11
442.952	8.86
443.156	8.74
443.36	8.73
443.564	8.21
443.768	8.28
443.972	8.95
444.176	8.63
444.38	8.57
444.584	8.54
444.788	8.39
444.992	8.37
445.196	8.31
445.4	8.22
445.604	7.74
445.808	7.85
446.012	7.56
446.216	7.02
446.42	6.71
446.624	6.98
446.828	7.34
447.032	7.35
447.235	7.05
447.439	6.87
447.643	7.09
447.847	7.72
448.051	8.22
448.254	8.51
448.458	8.67
448.662	8.82
448.866	8.79
449.069	8.43
449.273	8.52
449.477	8.81
449.681	9.33
449.884	8.9
450.088	8.64
450.292	8.07
450.495	7.9
450.699	7.94
450.902	8.64
451.106	8.11
451.31	8.55
451.513	8.62
451.717	8.61
451.92	8.5
452.124	8.5
452.327	8.3
452.531	8.48
452.734	8.43
452.938	8.63
453.141	7.99
453.345	8.13
453.548	7.62
453.752	7.64
453.955	7.95
454.158	7.62
454.362	8.03
454.565	8.26
454.769	8.6
454.972	8.79
455.175	8.55
455.379	9.15
455.582	9.38
455.785	9.54
455.988	9.56
456.192	9.1
456.395	9.4
