Data from JASIL_3265_Reflection_2.txt Node
Date: Mon Nov 16 20:59:43 EST 2015
User: Geneva
Spectrometer: USB4E03002
Autoset integration time: false
Trigger mode: 4
Integration Time (sec): 1.000000E-1
Scans to average: 10
Electric dark correction enabled: false
Nonlinearity correction enabled: false
Boxcar width: 5
Stray light correction enabled: false
XAxis mode: Wavelengths
Stop averaging: false
Number of Pixels in Spectrum: 3648
>>>>>Begin Spectral Data<<<<<
177.575	-915.38
177.794	-945.71
178.014	-935.54
178.233	-1594.39
178.452	-2230.12
178.672	-1565.15
178.891	-1993.4
179.11	6294.59
179.33	2087.5
179.549	-10436.36
179.768	1913.56
179.987	2343.01
180.207	1401.29
180.426	767.6
180.645	841.18
180.864	1509.09
181.084	620.05
181.303	559.26
181.522	1050
181.741	3226.76
181.96	662.11
182.179	865.43
182.398	1037.33
182.618	994.07
182.837	1003.78
183.056	816.67
183.275	514.85
183.494	515.35
183.713	547.9
183.932	436.55
184.151	468.93
184.37	501.15
184.589	415.24
184.808	344.73
185.027	353.84
185.246	443.51
185.465	690.46
185.684	750.52
185.903	3124.14
186.122	1251.12
186.341	1530.34
186.56	729.21
186.779	1351.81
186.998	1915.38
187.216	1996.85
187.435	1543.11
187.654	1342.7
187.873	632.06
188.092	540.59
188.311	485.62
188.53	776.29
188.748	750.62
188.967	1851.2
189.186	923.75
189.405	1047.62
189.623	1096.3
189.842	988.89
190.061	1085.65
190.28	2983.33
190.498	-2980
190.717	2105.56
190.936	-4196.61
191.154	-2066.96
191.373	-42666.67
191.592	-22254.55
191.81	-1309.77
192.029	-1790.84
192.248	-541.98
192.466	-495.41
192.685	-527.23
192.904	-732.97
193.122	-522.93
193.341	-1025.41
193.559	-1029.44
193.778	-1189.7
193.996	-1587.02
194.215	54700
194.433	-4866.67
194.652	1062.07
194.87	967.53
195.089	885.59
195.307	1054.74
195.526	3103.39
195.744	1781.58
195.963	1068.13
196.181	22050
196.399	-1608.55
196.618	9500
196.836	32733.33
197.055	-1688.52
197.273	-3329.31
197.491	-2204.44
197.71	-3978.43
197.928	2773.75
198.146	5433.33
198.365	-23360
198.583	1085.28
198.801	1381.87
199.019	3033.77
199.238	-5507.14
199.456	2265.09
199.674	1060.17
199.892	794.61
200.111	1002.31
200.329	968.3
200.547	734.65
200.765	697.91
200.983	752.11
201.202	597.62
201.42	975.2
201.638	617.69
201.856	723.58
202.074	2145.45
202.292	2492.93
202.51	1713.61
202.728	2582.47
202.946	-5922.5
203.165	6930.3
203.383	-2482.47
203.601	-2786.05
203.819	5120
204.037	25390
204.255	2655.67
204.473	1137.85
204.691	1635.33
204.909	1031.02
205.127	1129.77
205.345	1321.59
205.562	1208.42
205.78	811.41
205.998	948.57
206.216	804.29
206.434	768.92
206.652	662.42
206.87	490.3
207.088	436.66
207.306	548.49
207.523	489.64
207.741	390.22
207.959	409.27
208.177	442.55
208.395	360.7
208.612	411.04
208.83	371.65
209.048	414.75
209.266	546.36
209.483	542.12
209.701	446.49
209.919	500.42
210.136	536.55
210.354	1212.5
210.572	1125.34
210.79	1714.07
211.007	1006.55
211.225	1686.05
211.442	-10204.76
211.66	-3127.78
211.878	-1418.75
212.095	453.22
212.313	482.36
212.53	681.89
212.748	383.28
212.966	376.34
213.183	342.57
213.401	342.96
213.618	329.38
213.836	385.53
214.053	367.22
214.271	365.53
214.488	2051.26
214.705	1146.79
214.923	803.23
215.14	927.4
215.358	732.31
215.575	1163.21
215.793	1172.6
216.01	1513.5
216.227	531.49
216.445	406.33
216.662	439.48
216.879	449.62
217.097	366.02
217.314	409.19
217.531	478.17
217.749	541.19
217.966	656.67
218.183	522.87
218.4	638.44
218.618	741.73
218.835	738.84
219.052	504.79
219.269	466.52
219.487	780.56
219.704	547.1
219.921	409.68
220.138	314.34
220.355	314.45
220.572	341.86
220.79	356.43
221.007	439.8
221.224	635.87
221.441	587.83
221.658	673.15
221.875	424.57
222.092	447.18
222.309	688.41
222.526	807.66
222.743	678.91
222.96	919.81
223.177	453.08
223.394	484.44
223.611	330.77
223.828	388.17
224.045	396.29
224.262	471.71
224.479	328.21
224.696	248.07
224.913	288.43
225.13	242.11
225.347	207.48
225.564	198.34
225.781	165.48
225.997	160.09
226.214	135.06
226.431	122.09
226.648	101.13
226.865	95.41
227.082	92.74
227.298	81.11
227.515	74
227.732	66.98
227.949	60.45
228.165	56.89
228.382	52.39
228.599	50.73
228.816	49.05
229.032	50.38
229.249	48.38
229.466	49.37
229.682	50.26
229.899	51.58
230.116	53.03
230.332	61.49
230.549	66.58
230.765	69.77
230.982	73.46
231.199	77.16
231.415	86.02
231.632	93.06
231.848	96.97
232.065	109.92
232.281	105.69
232.498	119.59
232.714	115.2
232.931	107.74
233.147	103.7
233.364	110.67
233.58	112.58
233.797	110.47
234.013	101.65
234.23	98.74
234.446	89.04
234.662	87.54
234.879	82.88
235.095	86.69
235.312	89.63
235.528	94.26
235.744	94.5
235.961	94.24
236.177	85.39
236.393	99.32
236.61	107.31
236.826	108.45
237.042	118.55
237.258	117.34
237.475	112.96
237.691	113.64
237.907	110.19
238.123	107.08
238.339	91.72
238.556	92.31
238.772	83.96
238.988	72.44
239.204	67.82
239.42	66.31
239.636	68.18
239.853	63.79
240.069	58.43
240.285	60.02
240.501	54.76
240.717	55.01
240.933	48.51
241.149	42.7
241.365	40.35
241.581	39.34
241.797	35.09
242.013	33.26
242.229	32.88
242.445	33.37
242.661	30.53
242.877	31.1
243.093	30.47
243.309	35.28
243.525	39.21
243.741	43.05
243.957	45.44
244.173	46.84
244.388	45.75
244.604	45.16
244.82	44.15
245.036	42.29
245.252	39.26
245.468	36.91
245.683	32.32
245.899	29.97
246.115	25.73
246.331	23.15
246.547	21.88
246.762	21.3
246.978	21.3
247.194	20.56
247.409	19.53
247.625	19.09
247.841	18.37
248.057	19.35
248.272	19.87
248.488	23.08
248.703	26.4
248.919	29.5
249.135	31.3
249.35	30.5
249.566	32.35
249.782	34.79
249.997	37.7
250.213	37.52
250.428	38.45
250.644	38.92
250.859	37.57
251.075	36.29
251.29	34.61
251.506	35.13
251.721	36.11
251.937	37.63
252.152	39.27
252.368	40.64
252.583	45.13
252.798	45.75
253.014	47.52
253.229	48.43
253.445	49.37
253.66	54.72
253.875	59.61
254.091	66.09
254.306	65.88
254.521	66.72
254.737	66.78
254.952	63.68
255.167	64.25
255.383	61.31
255.598	58.57
255.813	55.44
256.028	51.4
256.244	48.69
256.459	44.06
256.674	43
256.889	41.24
257.104	36.79
257.32	37.47
257.535	32.01
257.75	28.25
257.965	26.66
258.18	24.4
258.395	22.43
258.61	19.8
258.826	18.36
259.041	17.62
259.256	18.15
259.471	18.11
259.686	16.38
259.901	16.43
260.116	17.78
260.331	18.92
260.546	20.22
260.761	20.95
260.976	22.35
261.191	23.67
261.406	25.68
261.621	26.82
261.836	29.05
262.05	31.49
262.265	34.91
262.48	34.98
262.695	35.1
262.91	35.13
263.125	36.88
263.34	38.36
263.555	39.15
263.769	38.62
263.984	36.68
264.199	36.99
264.414	38.03
264.629	37.12
264.843	38.45
265.058	37.41
265.273	33.35
265.488	31.33
265.702	30.43
265.917	30.74
266.132	29.22
266.346	29.75
266.561	28.22
266.776	28.1
266.99	28.84
267.205	28.77
267.42	28.27
267.634	31.22
267.849	30.29
268.063	30.14
268.278	30.92
268.492	31.35
268.707	30.83
268.922	31.46
269.136	29.59
269.351	28.43
269.565	26.69
269.78	25.24
269.994	24.08
270.209	25.58
270.423	24.24
270.637	23.12
270.852	21.74
271.066	21.83
271.281	22.58
271.495	22.1
271.709	22.36
271.924	23.14
272.138	24.88
272.353	25.99
272.567	25.14
272.781	24.83
272.996	24.82
273.21	25.56
273.424	25.75
273.638	26.1
273.853	28.01
274.067	29
274.281	28.98
274.495	28.03
274.71	26.9
274.924	27.19
275.138	26.35
275.352	26.21
275.566	26.11
275.781	26.45
275.995	24.79
276.209	23.82
276.423	24.91
276.637	23.79
276.851	25.94
277.065	26.6
277.279	27.49
277.493	29.45
277.707	26.97
277.921	26.94
278.135	27.46
278.349	28.85
278.563	28.6
278.777	28.11
278.991	27.28
279.205	25.72
279.419	25.77
279.633	24.5
279.847	23.55
280.061	25.03
280.275	24.62
280.489	23.63
280.703	21.93
280.917	21.44
281.131	20.19
281.344	21.82
281.558	22.24
281.772	21.45
281.986	21.51
282.2	21.9
282.414	20.44
282.627	20.8
282.841	20.65
283.055	20.9
283.269	21.94
283.482	22.27
283.696	21.94
283.91	21.67
284.123	21.85
284.337	21.37
284.551	20.05
284.764	21.68
284.978	20.55
285.192	20.35
285.405	21
285.619	19.47
285.833	19.21
286.046	18.65
286.26	17.85
286.473	17.2
286.687	17.94
286.9	19.79
287.114	20.9
287.327	21.99
287.541	21.09
287.754	20.07
287.968	20.54
288.181	21.42
288.395	21.33
288.608	22.65
288.822	23.46
289.035	23.19
289.248	21.87
289.462	20.01
289.675	20.35
289.889	20.7
290.102	20.31
290.315	20.57
290.529	19.71
290.742	20.15
290.955	20.43
291.169	19.97
291.382	19.97
291.595	22
291.808	22.67
292.022	22.92
292.235	23.56
292.448	24.16
292.661	24.93
292.875	26.55
293.088	27.51
293.301	26.29
293.514	25.29
293.727	25.19
293.94	23.12
294.153	23.54
294.367	23.36
294.58	22.31
294.793	21.73
295.006	22.04
295.219	19.54
295.432	18.9
295.645	18.15
295.858	18.62
296.071	18.4
296.284	18.3
296.497	17.36
296.71	16.51
296.923	17.38
297.136	16.61
297.349	15.65
297.562	16.99
297.775	17.09
297.988	17.63
298.201	18.16
298.414	17.05
298.626	17.68
298.839	18.09
299.052	18.45
299.265	17.18
299.478	18.92
299.691	19.04
299.903	18.95
300.116	19.24
300.329	19.09
300.542	19.03
300.755	21.79
300.967	21.84
301.18	21.1
301.393	21.65
301.605	22.5
301.818	22.73
302.031	23.36
302.243	23.36
302.456	23.75
302.669	24.77
302.881	24.77
303.094	24.52
303.307	25.07
303.519	26.1
303.732	26.65
303.944	27
304.157	25.56
304.37	25.4
304.582	25.56
304.795	25.27
305.007	25.05
305.22	25.43
305.432	25.12
305.645	24.37
305.857	25.06
306.069	24.33
306.282	24.8
306.494	24.62
306.707	24.98
306.919	25.36
307.132	24.89
307.344	24.97
307.556	24.41
307.769	24.53
307.981	24.69
308.193	23.34
308.406	24.33
308.618	22.35
308.83	23.05
309.043	22.48
309.255	22.89
309.467	22.49
309.679	21.61
309.892	21.34
310.104	20.23
310.316	19.83
310.528	20.38
310.74	18.98
310.953	19.91
311.165	20.34
311.377	20.25
311.589	19.41
311.801	20.24
312.013	20.73
312.225	22.25
312.437	23.4
312.649	23.72
312.862	24.69
313.074	23.88
313.286	25.9
313.498	25.47
313.71	25.54
313.922	26.5
314.134	26.18
314.346	26.4
314.558	25.27
314.77	24.63
314.982	24.81
315.193	23.6
315.405	25.98
315.617	23.92
315.829	25.13
316.041	24.26
316.253	22.87
316.465	23.15
316.677	22.9
316.888	22.99
317.1	22.92
317.312	21.93
317.524	22.21
317.736	22.31
317.947	24.16
318.159	24.91
318.371	25.91
318.583	25.31
318.794	26.33
319.006	26.38
319.218	25.78
319.43	26.21
319.641	28.27
319.853	28.89
320.064	28.33
320.276	27.27
320.488	25.46
320.699	26.1
320.911	28.95
321.123	27.86
321.334	30.23
321.546	31.48
321.757	30.95
321.969	30.78
322.18	29.71
322.392	30.36
322.603	31.78
322.815	32.75
323.026	31.47
323.238	30.4
323.449	28.68
323.661	27.04
323.872	26.7
324.083	26.72
324.295	25.6
324.506	27.15
324.718	25.62
324.929	24.51
325.14	25.18
325.352	26.3
325.563	25.83
325.774	27.34
325.986	26.78
326.197	26.66
326.408	27.93
326.62	28.74
326.831	26.06
327.042	27.74
327.253	27.92
327.464	28.06
327.676	26.97
327.887	27.45
328.098	27.8
328.309	28.62
328.52	28.99
328.732	27.48
328.943	28.15
329.154	31.09
329.365	30.69
329.576	31.59
329.787	30
329.998	32.02
330.209	30.05
330.42	30.43
330.631	31.6
330.842	30.83
331.053	31.96
331.264	31.25
331.475	28.87
331.686	29.9
331.897	28.9
332.108	29.27
332.319	28.7
332.53	29.72
332.741	28.97
332.952	28.59
333.163	29.86
333.374	28.37
333.585	29.02
333.795	30.13
334.006	28.93
334.217	28.34
334.428	27.73
334.639	26.65
334.849	25.94
335.06	26.07
335.271	25.88
335.482	24.67
335.692	25.18
335.903	24.13
336.114	24.06
336.325	24.7
336.535	25.63
336.746	27.37
336.957	28.15
337.167	28.32
337.378	28.13
337.589	26.77
337.799	26.88
338.01	28.34
338.22	28.59
338.431	28.7
338.642	27.49
338.852	26.27
339.063	24.88
339.273	24.51
339.484	25.89
339.694	25.74
339.905	25.9
340.115	25.56
340.326	24.18
340.536	24.33
340.746	23.97
340.957	24.38
341.167	25.28
341.378	25.45
341.588	24.8
341.799	24.48
342.009	23.38
342.219	24.01
342.43	24.77
342.64	24.8
342.85	23.86
343.061	22.79
343.271	22.04
343.481	21.71
343.691	21.17
343.902	21.95
344.112	21.02
344.322	22.09
344.532	22.06
344.743	22.31
344.953	21.76
345.163	22.18
345.373	23.28
345.583	25.26
345.793	25.39
346.004	25.81
346.214	25.59
346.424	25.8
346.634	25.72
346.844	25.54
347.054	25.79
347.264	26.62
347.474	27.39
347.684	27.75
347.894	26.32
348.104	26.6
348.314	26.57
348.524	25.56
348.734	24.51
348.944	24.1
349.154	24.75
349.364	24.58
349.574	24.44
349.784	23.73
349.994	23.2
350.204	23.83
350.413	22.66
350.623	21.78
350.833	21.94
351.043	23.59
351.253	23.21
351.463	22.32
351.672	21.81
351.882	21.65
352.092	22.61
352.302	22.56
352.511	22.79
352.721	22.95
352.931	23.73
353.141	24.17
353.35	23.62
353.56	24.25
353.77	24.36
353.979	24.5
354.189	23.81
354.399	22.17
354.608	21.99
354.818	20.96
355.027	20.49
355.237	20.12
355.447	20.02
355.656	20.64
355.866	20.24
356.075	20.12
356.285	19.33
356.494	18.84
356.704	19.19
356.913	19.24
357.123	19.34
357.332	19
357.542	19.21
357.751	18.7
357.96	17.65
358.17	17.28
358.379	17.55
358.589	17.69
358.798	19.03
359.007	18.79
359.217	17.52
359.426	17.34
359.635	18.02
359.845	16.99
360.054	16.92
360.263	17.1
360.472	17.28
360.682	17.29
360.891	17.39
361.1	16.97
361.309	17.16
361.519	18.02
361.728	18.06
361.937	18.12
362.146	19.11
362.355	19.46
362.564	19.77
362.774	19.63
362.983	19.14
363.192	19.36
363.401	19.3
363.61	18.78
363.819	19.5
364.028	19.03
364.237	19.04
364.446	18.3
364.655	18.04
364.864	18.44
365.073	19.43
365.282	19.78
365.491	19.41
365.7	19.05
365.909	19.84
366.118	18.81
366.327	19.55
366.536	19.55
366.745	20.07
366.954	20.91
367.162	20.78
367.371	20.53
367.58	20.87
367.789	21.12
367.998	21.2
368.207	21.1
368.415	21.9
368.624	21.71
368.833	22.44
369.042	22.31
369.25	22.7
369.459	22.26
369.668	21.94
369.877	21.3
370.085	20.82
370.294	21.45
370.503	21.17
370.711	20.35
370.92	20.3
371.129	20.36
371.337	19.8
371.546	18.67
371.754	19.07
371.963	18.86
372.171	18.85
372.38	19.28
372.589	18.65
372.797	19.39
373.006	19.6
373.214	18.86
373.423	17.58
373.631	18.04
373.84	17.24
374.048	15.65
374.256	15.76
374.465	15.9
374.673	15.45
374.882	15.28
375.09	14.28
375.298	14.39
375.507	14.39
375.715	15.02
375.923	14.38
376.132	15.35
376.34	16.23
376.548	16.61
376.757	16.57
376.965	16.78
377.173	16.93
377.381	17.74
377.59	17.74
377.798	17.54
378.006	17.07
378.214	17.81
378.423	17.66
378.631	17.01
378.839	15.67
379.047	15.69
379.255	16.03
379.463	16.26
379.671	16.07
379.879	16.49
380.088	17.44
380.296	17.78
380.504	17.76
380.712	18
380.92	18.6
381.128	19.29
381.336	19.23
381.544	18.96
381.752	18.63
381.96	18.29
382.168	17.71
382.376	17.13
382.584	17.24
382.791	16.18
382.999	16.02
383.207	15.65
383.415	16.14
383.623	15.44
383.831	14.58
384.039	15.25
384.247	15.49
384.454	15.92
384.662	15.74
384.87	14.92
385.078	15.24
385.285	15.18
385.493	15.47
385.701	15.25
385.909	15.58
386.116	16.12
386.324	15.26
386.532	14.62
386.739	13.75
386.947	13.78
387.155	14.59
387.362	14.89
387.57	14.33
387.778	14.82
387.985	14.67
388.193	15.19
388.4	14.93
388.608	15.09
388.816	15.17
389.023	15.06
389.231	15.11
389.438	14.82
389.646	14.94
389.853	15.39
390.061	14.98
390.268	14.73
390.475	13.96
390.683	13.4
390.89	13.57
391.098	13.4
391.305	13.78
391.512	13.5
391.72	13.11
391.927	13.21
392.135	13.06
392.342	12.82
392.549	13.14
392.756	13.56
392.964	14.01
393.171	14.26
393.378	14.7
393.586	14.37
393.793	14.2
394	14.3
394.207	13.86
394.414	13.6
394.622	13.85
394.829	13.3
395.036	13.07
395.243	13.65
395.45	13.26
395.657	13.36
395.864	13.92
396.072	14.9
396.279	14.9
396.486	15.48
396.693	16.1
396.9	15.71
397.107	15.95
397.314	15.73
397.521	15.49
397.728	15.41
397.935	14.58
398.142	14.31
398.349	13.23
398.556	12.87
398.763	12.29
398.97	12.1
399.177	12.39
399.383	12.88
399.59	13.3
399.797	12.92
400.004	12.96
400.211	13.36
400.418	13.54
400.625	14.16
400.831	14.38
401.038	14.52
401.245	14.71
401.452	14.02
401.658	13.7
401.865	13.26
402.072	13.45
402.279	13.29
402.485	13.69
402.692	13.65
402.899	13.21
403.105	13.23
403.312	13.27
403.519	13.25
403.725	13.56
403.932	12.91
404.138	12.75
404.345	12.91
404.552	12.87
404.758	12.25
404.965	11.83
405.171	12.27
405.378	12.26
405.584	11.64
405.791	11.38
405.997	11.55
406.204	12
406.41	12.36
406.617	11.81
406.823	11.72
407.029	11.8
407.236	11.79
407.442	11.65
407.649	11.92
407.855	12.54
408.061	12.83
408.268	12.59
408.474	12.76
408.68	12.56
408.887	12.58
409.093	12.71
409.299	12.83
409.505	13.02
409.712	12.69
409.918	12.76
410.124	12.48
410.33	11.56
410.537	11.31
410.743	11.12
410.949	11.36
411.155	11.17
411.361	11.84
411.567	11.95
411.773	11.8
411.98	11.38
412.186	10.68
412.392	10.89
412.598	11.49
412.804	11.84
413.01	11.6
413.216	11.67
413.422	12.05
413.628	11.3
413.834	11.26
414.04	11.93
414.246	12.85
414.452	13.42
414.658	13.37
414.864	13.43
415.07	13.49
415.275	14.2
415.481	14.05
415.687	14.04
415.893	13.59
416.099	13.36
416.305	12.85
416.511	12.31
416.716	11.51
416.922	11.21
417.128	10.81
417.334	10.66
417.539	9.83
417.745	9.72
417.951	9.33
418.157	9.37
418.362	9.3
418.568	8.81
418.774	8.45
418.979	8.57
419.185	8.11
419.391	7.9
419.596	7.62
419.802	7.64
420.008	7.37
420.213	7.04
420.419	7.22
420.624	7
420.83	6.97
421.035	7.03
421.241	6.94
421.446	7.24
421.652	7.32
421.857	7.24
422.063	7.38
422.268	7.3
422.474	7.78
422.679	7.58
422.885	7.62
423.09	7.71
423.295	7.58
423.501	7.63
423.706	7.5
423.911	7.49
424.117	7.48
424.322	7.25
424.527	7.32
424.733	6.91
424.938	6.92
425.143	6.99
425.349	6.92
425.554	7.42
425.759	7.47
425.964	7.8
426.169	7.82
426.375	7.65
426.58	7.78
426.785	7.82
426.99	8.08
427.195	8.17
427.4	7.85
427.605	8.41
427.811	7.53
428.016	7.68
428.221	7.78
428.426	7.83
428.631	8.35
428.836	8.33
429.041	8.59
429.246	8.9
429.451	9.04
429.656	9.45
429.861	9.15
430.066	9.71
430.271	9.96
430.476	9.58
430.681	9.96
430.886	10.27
431.09	10.12
431.295	9.81
431.5	9.38
431.705	9.22
431.91	9.06
432.115	8.82
432.32	9.06
432.524	8.89
432.729	8.9
432.934	8.48
433.139	8.18
433.343	8.27
433.548	8.26
433.753	8.52
433.958	8.66
434.162	8.5
434.367	8.78
434.572	8.58
434.776	8.28
434.981	8.25
435.186	8.31
435.39	8.13
435.595	8.24
435.799	8.2
436.004	8.01
436.209	7.75
436.413	8.01
436.618	8.13
436.822	8.48
437.027	8.29
437.231	7.84
437.436	7.72
437.64	7.93
437.845	7.88
438.049	7.94
438.253	7.83
438.458	7.59
438.662	7.7
438.867	7.58
439.071	7.44
439.275	7.73
439.48	8.23
439.684	8.47
439.888	8.3
440.093	8.37
440.297	8.15
440.501	8.31
440.706	8.52
440.91	8.3
441.114	8.28
441.318	8.32
441.523	8.21
441.727	8.21
441.931	8.07
442.135	7.91
442.339	8
442.543	8.21
442.748	8.58
442.952	8.75
443.156	8.77
443.36	8.59
443.564	8.39
443.768	8.25
443.972	8.29
444.176	8.17
444.38	8.25
444.584	8.03
444.788	7.98
444.992	7.64
445.196	7.77
445.4	7.75
445.604	7.65
445.808	7.49
446.012	7.61
446.216	7.08
446.42	6.96
446.624	7.33
446.828	7.31
447.032	7.31
447.235	7.46
447.439	7.01
447.643	6.91
447.847	6.99
448.051	7.2
448.254	7.2
448.458	7.59
448.662	7.65
448.866	7.26
449.069	7.29
449.273	7.21
449.477	7.03
449.681	7.15
449.884	7.36
450.088	7.56
450.292	7.62
450.495	7.8
450.699	7.79
450.902	8.12
451.106	8.44
451.31	8.6
451.513	9.03
451.717	9.32
451.92	9.67
452.124	9.65
452.327	9.51
452.531	9.43
452.734	9.26
452.938	9.41
453.141	9.49
453.345	9.55
453.548	9.32
453.752	9.57
453.955	9.58
454.158	9.35
454.362	9
454.565	9.34
454.769	9.6
