Data from JASIL_3288_Reflection_1.txt Node
Date: Tue Nov 17 19:37:56 EST 2015
User: Geneva
Spectrometer: USB4E03002
Autoset integration time: false
Trigger mode: 4
Integration Time (sec): 1.000000E-1
Scans to average: 10
Electric dark correction enabled: false
Nonlinearity correction enabled: false
Boxcar width: 5
Stray light correction enabled: false
XAxis mode: Wavelengths
Stop averaging: false
Number of Pixels in Spectrum: 3648
>>>>>Begin Spectral Data<<<<<
177.575	-288.12
177.794	-420.65
178.014	-392.13
178.233	-449.06
178.452	-428.33
178.672	-270.87
178.891	-779.31
179.11	4540
179.33	965.22
179.549	994.12
179.768	-4600
179.987	481.82
180.207	243.44
180.426	521.92
180.645	769.6
180.864	5411.76
181.084	612.05
181.303	454.91
181.522	588.51
181.741	520.79
181.96	853.54
182.179	4170.59
182.398	-548.05
182.618	-194.53
182.837	-148.1
183.056	-128.42
183.275	-146.67
183.494	2.83
183.713	47.2
183.932	39.36
184.151	43.55
184.37	49.21
184.589	11.18
184.808	5.59
185.027	2.05
185.246	-7.59
185.465	-7.94
185.684	-17.67
185.903	-71.52
186.122	-176.25
186.341	-444.25
186.56	-378.57
186.779	-1922.22
186.998	-167.2
187.216	-226.67
187.435	-170.91
187.654	-154.55
187.873	-104.02
188.092	-41.67
188.311	-106.43
188.53	-92.39
188.748	-18.33
188.967	-55.56
189.186	-54.57
189.405	-128.24
189.623	-112.5
189.842	-125.98
190.061	-75.92
190.28	-39.75
190.498	-107.26
190.717	-65.62
190.936	-43.16
191.154	-172.53
191.373	-329.89
191.592	718.6
191.81	396.12
192.029	501.05
192.248	316.67
192.466	392.82
192.685	194.32
192.904	401.98
193.122	327.47
193.341	423.95
193.559	502.82
193.778	525.97
193.996	497.63
194.215	1323.19
194.433	547.86
194.652	446.15
194.87	371.88
195.089	382.31
195.307	398.25
195.526	-175.51
195.744	-113.67
195.963	-223.33
196.181	-247.11
196.399	-319.54
196.618	381.58
196.836	339.01
197.055	335.81
197.273	385.82
197.491	336.04
197.71	259.92
197.928	213.91
198.146	219.52
198.365	921.43
198.583	604.76
198.801	-187.9
199.019	-44.48
199.238	5.64
199.456	-26.1
199.674	-65.38
199.892	-77.8
200.111	-80.28
200.329	-107.53
200.547	-120.51
200.765	1035.29
200.983	-323.08
201.202	639.47
201.42	156.43
201.638	147.15
201.856	127.35
202.074	104
202.292	100.36
202.51	70.87
202.728	84.59
202.946	89.29
203.165	-111.54
203.383	42.96
203.601	89.34
203.819	331.82
204.037	-739.39
204.255	-1366.67
204.473	-230.07
204.691	-117.06
204.909	-34.51
205.127	-435.42
205.345	215.15
205.562	-288.37
205.78	-47.99
205.998	-28.38
206.216	-3.62
206.434	-36.39
206.652	-51.07
206.87	-150.9
207.088	-186.67
207.306	-252.02
207.523	-161.99
207.741	-81.9
207.959	-131.08
208.177	-176.17
208.395	-224.02
208.612	-212.04
208.83	-74.92
209.048	-113.41
209.266	-90.61
209.483	-40.28
209.701	-58.43
209.919	-57.75
210.136	-65.78
210.354	-62.94
210.572	-52.8
210.79	-69.67
211.007	-248.59
211.225	-3533.33
211.442	566.1
211.66	1460
211.878	175.08
212.095	734.03
212.313	1096.61
212.53	678.2
212.748	632.27
212.966	462.9
213.183	539.3
213.401	-5611.11
213.618	-357.14
213.836	-303.75
214.053	-418.35
214.271	-275.96
214.488	57.14
214.705	46.44
214.923	39.47
215.14	54.47
215.358	33.73
215.575	35.14
215.793	-14.01
216.01	-178.67
216.227	-281.03
216.445	-205.56
216.662	-79.31
216.879	-160.87
217.097	-68.9
217.314	-110.51
217.531	4150
217.749	333.66
217.966	218.13
218.183	131.49
218.4	-60
218.618	-18.42
218.835	62.65
219.052	77.94
219.269	58.92
219.487	58.27
219.704	43.57
219.921	49.26
220.138	65.06
220.355	59.88
220.572	84.35
220.79	124.65
221.007	159.72
221.224	160.08
221.441	146.59
221.658	172.22
221.875	-494.29
222.092	-238.64
222.309	748.48
222.526	157.58
222.743	223.19
222.96	224.46
223.177	462.79
223.394	473.68
223.611	313.99
223.828	159.2
224.045	133.55
224.262	121.1
224.479	126.37
224.696	220.67
224.913	419.01
225.13	297.17
225.347	131.03
225.564	84.08
225.781	62.85
225.997	46.4
226.214	46.19
226.431	17.83
226.648	10.11
226.865	3.83
227.082	-0.45
227.298	2.63
227.515	4.53
227.732	13.09
227.949	10.05
228.165	-1.36
228.382	-1.34
228.599	3.52
228.816	12.32
229.032	20.98
229.249	31
229.466	30.2
229.682	30.27
229.899	34.31
230.116	41.14
230.332	45.33
230.549	50.18
230.765	57.44
230.982	53.25
231.199	52.84
231.415	38.09
231.632	44.02
231.848	32.18
232.065	30.75
232.281	19.73
232.498	21.13
232.714	17
232.931	20.62
233.147	10.77
233.364	7.97
233.58	17.33
233.797	34.33
234.013	26.62
234.23	44.41
234.446	42.94
234.662	66.8
234.879	58.73
235.095	53.58
235.312	55.35
235.528	70.65
235.744	83.98
235.961	88.38
236.177	65.53
236.393	60.51
236.61	54.36
236.826	56.5
237.042	19.63
237.258	25.34
237.475	31.28
237.691	37.88
237.907	29.63
238.123	41.36
238.339	35.67
238.556	28.32
238.772	28.01
238.988	30.31
239.204	24.74
239.42	34.89
239.636	31.08
239.853	29.87
240.069	28.88
240.285	25.32
240.501	22.24
240.717	19.88
240.933	23.34
241.149	22.58
241.365	21.79
241.581	22.32
241.797	26.61
242.013	29.9
242.229	28.73
242.445	21.19
242.661	21.99
242.877	23
243.093	27
243.309	22.19
243.525	21.22
243.741	27.27
243.957	26.03
244.173	19.52
244.388	15.6
244.604	18
244.82	23.42
245.036	22.53
245.252	19.27
245.468	16.09
245.683	15.77
245.899	13.1
246.115	10.47
246.331	11.82
246.547	12.51
246.762	12.58
246.978	11.22
247.194	11.17
247.409	8.38
247.625	9.01
247.841	9.43
248.057	10.79
248.272	13.77
248.488	12.68
248.703	11.62
248.919	11.82
249.135	10.4
249.35	13.44
249.566	14.19
249.782	19.19
249.997	17.84
250.213	19.22
250.428	17.14
250.644	14.73
250.859	16.1
251.075	13.55
251.29	12
251.506	11.49
251.721	12.24
251.937	7.15
252.152	5.5
252.368	5.55
252.583	2.94
252.798	2.06
253.014	4.99
253.229	5.44
253.445	12.1
253.66	17.61
253.875	20.39
254.091	11.55
254.306	17.88
254.521	16.53
254.737	16.46
254.952	15.33
255.167	18.71
255.383	17.97
255.598	18.54
255.813	11.69
256.028	4.81
256.244	1
256.459	3.32
256.674	3.87
256.889	6.45
257.104	3.91
257.32	6.1
257.535	5.04
257.75	5.16
257.965	2.9
258.18	1.19
258.395	0.9
258.61	1.72
258.826	1.63
259.041	2.1
259.256	0.56
259.471	-0.31
259.686	-0.12
259.901	-1.75
260.116	-2.33
260.331	-1.41
260.546	2.04
260.761	3.35
260.976	4.06
261.191	5.66
261.406	7.74
261.621	7.71
261.836	11.79
262.05	10.17
262.265	15.71
262.48	15.84
262.695	19.62
262.91	16.68
263.125	17.37
263.34	12.22
263.555	5.75
263.769	-2.39
263.984	-6.18
264.199	-4.05
264.414	-1.59
264.629	1.8
264.843	4.76
265.058	2
265.273	-0.85
265.488	-0.99
265.702	3.88
265.917	8.33
266.132	9.24
266.346	12.93
266.561	13.77
266.776	12.58
266.99	11.78
267.205	12.23
267.42	10.13
267.634	9.9
267.849	9.8
268.063	7.18
268.278	5.42
268.492	4.81
268.707	5.28
268.922	5.51
269.136	6.71
269.351	4.92
269.565	6.08
269.78	5.8
269.994	8.15
270.209	7.39
270.423	8.67
270.637	8.48
270.852	8.18
271.066	8.12
271.281	7.63
271.495	6.26
271.709	6.08
271.924	4.69
272.138	7.17
272.353	6.92
272.567	9.11
272.781	8.48
272.996	7.37
273.21	8.53
273.424	6.9
273.638	6.88
273.853	8.3
274.067	7.45
274.281	6.09
274.495	5.22
274.71	7.71
274.924	5.29
275.138	7.42
275.352	6.71
275.566	7.8
275.781	7.35
275.995	6.63
276.209	2.73
276.423	2.59
276.637	3.99
276.851	2.67
277.065	0.17
277.279	-1.99
277.493	-3.89
277.707	-2.64
277.921	-4.18
278.135	1.85
278.349	2.2
278.563	5.71
278.777	3.74
278.991	4.45
279.205	5.64
279.419	3.17
279.633	5.52
279.847	7.37
280.061	6.95
280.275	6.48
280.489	2.92
280.703	2.21
280.917	4.97
281.131	7.64
281.344	8.93
281.558	7.09
281.772	7.19
281.986	7.51
282.2	5.35
282.414	5.17
282.627	5.44
282.841	6.66
283.055	4.4
283.269	1.3
283.482	1.05
283.696	-0.14
283.91	2.45
284.123	3.44
284.337	5.17
284.551	5.96
284.764	6.13
284.978	5.91
285.192	4.84
285.405	6.44
285.619	7.49
285.833	8.47
286.046	8.63
286.26	7.73
286.473	8.82
286.687	7.53
286.9	7.83
287.114	8.86
287.327	9.28
287.541	8.87
287.754	10.39
287.968	10.87
288.181	9.51
288.395	9.06
288.608	7.51
288.822	6.1
289.035	4.54
289.248	3.83
289.462	3.05
289.675	2.7
289.889	3.52
290.102	1.94
290.315	2.35
290.529	1.98
290.742	2.62
290.955	5.5
291.169	8.05
291.382	8.7
291.595	9.31
291.808	10.09
292.022	9.1
292.235	8.48
292.448	9.49
292.661	8.88
292.875	9.74
293.088	8.62
293.301	7.67
293.514	6.83
293.727	7
293.94	5.93
294.153	7.22
294.367	8.99
294.58	9.55
294.793	8.3
295.006	7.84
295.219	8.53
295.432	6.87
295.645	7.48
295.858	8.7
296.071	8.57
296.284	9.66
296.497	8.7
296.71	9.59
296.923	8.43
297.136	9.43
297.349	10.2
297.562	9.83
297.775	10.95
297.988	10.39
298.201	9.37
298.414	10.65
298.626	8.98
298.839	9.26
299.052	7.78
299.265	9.95
299.478	10.9
299.691	11.04
299.903	10.36
300.116	10.99
300.329	10.22
300.542	10.2
300.755	8.7
300.967	9.68
301.18	10.78
301.393	10.04
301.605	8.33
301.818	6.67
302.031	5.28
302.243	5.47
302.456	5.18
302.669	5.95
302.881	5.73
303.094	7.04
303.307	6.58
303.519	6.94
303.732	8.7
303.944	10.03
304.157	11.64
304.37	12.72
304.582	13.43
304.795	13.72
305.007	12.91
305.22	13.03
305.432	12.18
305.645	13.72
305.857	11.97
306.069	10
306.282	9.84
306.494	7.98
306.707	7.21
306.919	6.15
307.132	6.55
307.344	7.89
307.556	7.64
307.769	6.99
307.981	5.72
308.193	6.15
308.406	6.12
308.618	5.58
308.83	6.09
309.043	5.78
309.255	7.56
309.467	7.78
309.679	5.71
309.892	6.45
310.104	7.37
310.316	9.32
310.528	9.03
310.74	8.5
310.953	8.25
311.165	8.57
311.377	10.74
311.589	10.23
311.801	8.9
312.013	10.56
312.225	9.23
312.437	8.65
312.649	6.87
312.862	7.31
313.074	8.62
313.286	8.06
313.498	8.03
313.71	4.4
313.922	3.83
314.134	5.21
314.346	6.01
314.558	6.46
314.77	5.65
314.982	6.31
315.193	6.18
315.405	6.42
315.617	7.65
315.829	7.8
316.041	10.52
316.253	9.47
316.465	10.41
316.677	10.02
316.888	11.33
317.1	12.28
317.312	13.74
317.524	15.78
317.736	16.09
317.947	15.31
318.159	15.62
318.371	16.04
318.583	17.54
318.794	17.46
319.006	16.54
319.218	15.5
319.43	15.64
319.641	16.38
319.853	15.55
320.064	16.77
320.276	18.92
320.488	16.11
320.699	15.25
320.911	15.41
321.123	16.23
321.334	15.46
321.546	15.48
321.757	16.84
321.969	14.02
322.18	13.75
322.392	12.08
322.603	11.16
322.815	12.91
323.026	13.42
323.238	11.97
323.449	9.83
323.661	10.31
323.872	10.26
324.083	10.14
324.295	11
324.506	11.18
324.718	10.68
324.929	10.19
325.14	12.57
325.352	11.25
325.563	11.95
325.774	13.28
325.986	14.65
326.197	13.82
326.408	13.51
326.62	14.13
326.831	13.48
327.042	15.61
327.253	16.18
327.464	15.08
327.676	15.46
327.887	15.63
328.098	16.39
328.309	16.41
328.52	18.11
328.732	18.33
328.943	18.57
329.154	18.37
329.365	18.92
329.576	17.78
329.787	17.57
329.998	18.6
330.209	19.77
330.42	18.51
330.631	18.97
330.842	18.23
331.053	16.71
331.264	16.8
331.475	16.26
331.686	15.6
331.897	15.31
332.108	16.58
332.319	15.61
332.53	13.54
332.741	14.02
332.952	12.76
333.163	13.57
333.374	16.04
333.585	16.49
333.795	18.77
334.006	17.07
334.217	19.12
334.428	17.88
334.639	18.21
334.849	20.09
335.06	20.44
335.271	21.39
335.482	21.07
335.692	20.48
335.903	19.53
336.114	18.62
336.325	19.96
336.535	18.99
336.746	19.87
336.957	18.93
337.167	17.3
337.378	18.4
337.589	18.08
337.799	16.92
338.01	16.75
338.22	15.84
338.431	16.34
338.642	17.48
338.852	17.6
339.063	17.07
339.273	17.91
339.484	19.38
339.694	17.11
339.905	17.36
340.115	19.23
340.326	18.43
340.536	19.47
340.746	17.85
340.957	16.49
341.167	17.4
341.378	17.95
341.588	18.31
341.799	17.74
342.009	18.45
342.219	16.92
342.43	16.41
342.64	16.72
342.85	16.93
343.061	18.6
343.271	19.09
343.481	18.05
343.691	17.94
343.902	18.07
344.112	19.07
344.322	17.7
344.532	19.2
344.743	19.27
344.953	19.25
345.163	18.34
345.373	17.79
345.583	17.5
345.793	18.9
346.004	18.77
346.214	20.24
346.424	20.17
346.634	21.51
346.844	22.16
347.054	22.53
347.264	23.16
347.474	23.31
347.684	23.49
347.894	23.41
348.104	22.03
348.314	21.13
348.524	18.13
348.734	17.33
348.944	17.3
349.154	16.52
349.364	15.24
349.574	15.18
349.784	14.72
349.994	14.69
350.204	13.75
350.413	13.2
350.623	13.85
350.833	14.74
351.043	15.57
351.253	14.62
351.463	12.64
351.672	13.56
351.882	11.27
352.092	12.4
352.302	11.96
352.511	14.02
352.721	15.11
352.931	14.76
353.141	15.4
353.35	15.64
353.56	15.98
353.77	17.55
353.979	16.71
354.189	17.56
354.399	16.73
354.608	17.28
354.818	16.09
355.027	16.5
355.237	16.28
355.447	15.88
355.656	14.66
355.866	14.96
356.075	14.6
356.285	15.45
356.494	16.01
356.704	16.94
356.913	16.93
357.123	15.55
357.332	15.56
357.542	16.17
357.751	16.8
357.96	17.13
358.17	17.19
358.379	17.22
358.589	17.3
358.798	17.97
359.007	17.58
359.217	17.54
359.426	18.36
359.635	18.08
359.845	18.45
360.054	17.58
360.263	17.46
360.472	17.56
360.682	18.29
360.891	17.68
361.1	17.44
361.309	17.9
361.519	17.84
361.728	18.46
361.937	18.66
362.146	17.99
362.355	18.28
362.564	18.09
362.774	17.62
362.983	17.44
363.192	17.47
363.401	17.62
363.61	16.94
363.819	17.77
364.028	16.72
364.237	16.82
364.446	16.89
364.655	16.71
364.864	17.07
365.073	16.89
365.282	15.7
365.491	16.1
365.7	16.69
365.909	15.84
366.118	15.16
366.327	15.47
366.536	13.93
366.745	14.77
366.954	14.84
367.162	15.04
367.371	16.19
367.58	16.89
367.789	16.19
367.998	15.39
368.207	16.09
368.415	16.8
368.624	17.83
368.833	19.03
369.042	18.17
369.25	18.16
369.459	17.28
369.668	17.28
369.877	17.78
370.085	17.78
370.294	16.91
370.503	17.18
370.711	15.76
370.92	15.35
371.129	15.41
371.337	15.15
371.546	15.01
371.754	15.67
371.963	15.47
372.171	14.32
372.38	14.32
372.589	14.86
372.797	13.66
373.006	14.97
373.214	13.61
373.423	12.8
373.631	13.09
373.84	11.75
374.048	11.05
374.256	11.09
374.465	13.17
374.673	13.31
374.882	12.29
375.09	12.02
375.298	12.42
375.507	12.83
375.715	13.81
375.923	13.74
376.132	15.55
376.34	15.19
376.548	15.19
376.757	14.06
376.965	14.27
377.173	15.57
377.381	16.95
377.59	15.74
377.798	16.55
378.006	15.28
378.214	15.89
378.423	14.52
378.631	14.96
378.839	14.54
379.047	14.52
379.255	14.84
379.463	14.54
379.671	14.44
379.879	15.31
380.088	14.26
380.296	16.08
380.504	15.49
380.712	15.85
380.92	15.49
381.128	15.84
381.336	15.98
381.544	15.03
381.752	14.26
381.96	14.41
382.168	13.38
382.376	14.17
382.584	13.02
382.791	13
382.999	13.57
383.207	14.15
383.415	14.1
383.623	14.32
383.831	15.01
384.039	15.56
384.247	14.94
384.454	14.87
384.662	15.23
384.87	15.47
385.078	15.16
385.285	14.41
385.493	15.2
385.701	14.91
385.909	14.46
386.116	13.86
386.324	13.56
386.532	13.86
386.739	14.56
386.947	14.09
387.155	13.76
387.362	13.63
387.57	13.24
387.778	12.2
387.985	11.93
388.193	11.63
388.4	11.95
388.608	12.15
388.816	12.5
389.023	12.91
389.231	13.41
389.438	13.27
389.646	14.11
389.853	15.22
390.061	15.69
390.268	15.96
390.475	16.47
390.683	16.63
390.89	16.64
391.098	16.56
391.305	15.81
391.512	15.65
391.72	15.71
391.927	15.26
392.135	15.19
392.342	14.31
392.549	13.89
392.756	13.43
392.964	13.01
393.171	13.14
393.378	12.98
393.586	13.29
393.793	12.73
394	12.93
394.207	12.8
394.414	12.57
394.622	13.28
394.829	13.75
395.036	13.83
395.243	14.12
395.45	13.94
395.657	13.1
395.864	12.8
396.072	13.82
396.279	13.99
396.486	14.08
396.693	14.11
396.9	13.75
397.107	14.45
397.314	14.48
397.521	14.64
397.728	14.35
397.935	14.59
398.142	15.18
398.349	14
398.556	13.72
398.763	13.63
398.97	14.46
399.177	15.06
399.383	14.86
399.59	15.11
399.797	14.89
400.004	15.86
400.211	16.45
400.418	15.54
400.625	15.98
400.831	16.09
401.038	16.14
401.245	15.67
401.452	15.27
401.658	14.88
401.865	14.7
402.072	15.35
402.279	15.01
402.485	15.56
402.692	16.07
402.899	15.98
403.105	16.61
403.312	16.52
403.519	16.68
403.725	16.01
403.932	16.06
404.138	16.4
404.345	15.86
404.552	15.97
404.758	15.72
404.965	15.53
405.171	16.1
405.378	15.95
405.584	16.53
405.791	15.32
405.997	16.05
406.204	16.9
406.41	16.78
406.617	17.19
406.823	16.18
407.029	15.92
407.236	16.7
407.442	15.83
407.649	15.61
407.855	14.57
408.061	15.68
408.268	15.57
408.474	14.94
408.68	14.85
408.887	14.72
409.093	15.87
409.299	15.76
409.505	15.21
409.712	15.86
409.918	15.62
410.124	15.7
410.33	15.4
410.537	15.49
410.743	14.86
410.949	14.97
411.155	15.04
411.361	14.59
411.567	14.86
411.773	14.99
411.98	15.11
412.186	15.6
412.392	16.28
412.598	15.96
412.804	15.28
413.01	15.79
413.216	15.53
413.422	15.43
413.628	15.58
413.834	15.09
414.04	14.56
414.246	14.36
414.452	13.69
414.658	13.42
414.864	13.87
415.07	14.25
415.275	13.51
415.481	13.75
415.687	13.92
415.893	13.78
416.099	14.33
416.305	14.45
416.511	14.41
416.716	14.66
416.922	14.97
417.128	15.01
417.334	15.37
417.539	15.91
417.745	16.21
417.951	15.71
418.157	16.07
418.362	16.02
418.568	16.18
418.774	15.99
418.979	15.84
419.185	15.78
419.391	15.87
419.596	15.45
419.802	15.47
420.008	14.7
420.213	15.14
420.419	14.8
420.624	14.94
420.83	14.87
421.035	15.04
421.241	15.03
421.446	14.66
421.652	14.56
421.857	14.82
422.063	14.85
422.268	15.13
422.474	14.84
422.679	14.78
422.885	14.27
423.09	14.24
423.295	14.03
423.501	13.97
423.706	13.89
423.911	13.99
424.117	13.96
424.322	13.9
424.527	13.91
424.733	14.13
424.938	13.67
425.143	14.08
425.349	13.92
425.554	14.03
425.759	14.25
425.964	14.63
426.169	14.53
426.375	14.61
426.58	14.54
426.785	14.58
426.99	14.26
427.195	14.87
427.4	14.75
427.605	15.19
427.811	15.59
428.016	15.2
428.221	15.43
428.426	15.54
428.631	15.33
428.836	15.15
429.041	14.91
429.246	14.62
429.451	14.94
429.656	15.02
429.861	14.8
430.066	14.58
430.271	15.19
430.476	14.78
430.681	14.4
430.886	14.71
431.09	14.49
431.295	14.49
431.5	15
431.705	15.01
431.91	14.6
432.115	14.37
432.32	14.09
432.524	13.6
432.729	13.68
432.934	13.98
433.139	13.53
433.343	13.68
433.548	14.07
433.753	13.8
433.958	13.69
434.162	14.02
434.367	14.42
434.572	14.47
434.776	15.02
434.981	15.11
435.186	14.72
435.39	15.09
435.595	15.01
435.799	14.94
436.004	14.62
436.209	14.57
436.413	14.01
436.618	13.87
436.822	14.17
437.027	13.99
437.231	13.81
437.436	13.85
437.64	13.98
437.845	14.21
438.049	13.92
438.253	14.11
438.458	13.79
438.662	14.53
438.867	14.28
439.071	14.11
439.275	13.96
439.48	13.98
439.684	14.1
439.888	13.74
440.093	13.65
440.297	13.93
440.501	14.16
440.706	14.56
440.91	14.13
441.114	14.09
441.318	14.15
441.523	14.31
441.727	14.59
441.931	14.95
442.135	15.23
442.339	15.1
442.543	14.99
442.748	15.08
442.952	14.84
443.156	14.8
443.36	14.72
443.564	14.8
443.768	14.95
443.972	14.9
444.176	14.44
444.38	14.25
444.584	14.38
444.788	14.3
444.992	14.26
445.196	14.22
445.4	14.18
445.604	14.11
445.808	13.71
446.012	13.25
446.216	13.23
446.42	13.25
446.624	13.35
446.828	13.23
447.032	13.31
447.235	13.16
447.439	13.12
447.643	13.26
447.847	13.36
448.051	13.63
448.254	13.75
448.458	13.66
448.662	13.59
448.866	13.62
449.069	13.68
449.273	13.72
449.477	13.87
449.681	14.05
449.884	14.06
450.088	14.12
450.292	14.04
450.495	13.93
450.699	14.21
450.902	14.35
451.106	13.97
451.31	14.14
451.513	14.19
451.717	13.91
451.92	14.25
452.124	14.27
452.327	14.43
452.531	14.88
452.734	15.39
452.938	15.09
453.141	15.45
453.345	15.59
453.548	15.46
453.752	15.49
453.955	15.8
454.158	15.24
454.362	15.17
454.565	15.2
454.769	14.87
454.972	14.88
455.175	14.81
455.379	14.71
455.582	14.96
455.785	14.99
455.988	15.15
456.192	14.77
456.395	14.74
456.598	14.74
456.801	15.13
