Data from JASIL_3018_Reflection_02.txt Node
Date: Mon Nov 09 10:42:19 EST 2015
User: Geneva
Spectrometer: USB4E03002
Autoset integration time: false
Trigger mode: 4
Integration Time (sec): 1.000000E-1
Scans to average: 10
Electric dark correction enabled: false
Nonlinearity correction enabled: false
Boxcar width: 5
Stray light correction enabled: false
XAxis mode: Wavelengths
Stop averaging: false
Number of Pixels in Spectrum: 3648
>>>>>Begin Spectral Data<<<<<
177.575	68.14
177.794	39.93
178.014	86.49
178.233	107.22
178.452	109.66
178.672	277.19
178.891	643.48
179.11	-304.88
179.33	-72.73
179.549	53.85
179.768	70.28
179.987	113.89
180.207	368.33
180.426	40.3
180.645	58.82
180.864	70.26
181.084	84.45
181.303	75.69
181.522	75.14
181.741	140.78
181.96	195.32
182.179	178.81
182.398	179.94
182.618	138.4
182.837	182.04
183.056	264.21
183.275	-124.44
183.494	282.22
183.713	425
183.932	226.6
184.151	715.15
184.37	139.27
184.589	750
184.808	-2.53
185.027	-55.91
185.246	-44.88
185.465	-30.64
185.684	-121.97
185.903	-34.06
186.122	-66.67
186.341	-53.74
186.56	-50.85
186.779	-226.53
186.998	194.51
187.216	90.8
187.435	36.46
187.654	41.87
187.873	21.61
188.092	43.79
188.311	8.02
188.53	-24.87
188.748	-39.09
188.967	-155.1
189.186	370.97
189.405	267.42
189.623	184.11
189.842	165.08
190.061	-3100
190.28	-29.79
190.498	-113.33
190.717	12.38
190.936	67.24
191.154	159.18
191.373	214.07
191.592	392.31
191.81	256.33
192.029	214.29
192.248	183.55
192.466	277.88
192.685	296.55
192.904	2365.22
193.122	-727.54
193.341	12200
193.559	-3791.67
193.778	-450
193.996	-496.43
194.215	-440.43
194.433	-336.7
194.652	-160.13
194.87	-25.86
195.089	-1.22
195.307	-76.67
195.526	-29.63
195.744	27.8
195.963	5.15
196.181	-259.57
196.399	-53.61
196.618	-92.7
196.836	-54.79
197.055	-38.79
197.273	-60.68
197.491	-44
197.71	-50.19
197.928	-29.57
198.146	-56.33
198.365	-98.59
198.583	-3300
198.801	110.18
199.019	126.64
199.238	82.9
199.456	109.8
199.674	87.93
199.892	113.89
200.111	173
200.329	94.64
200.547	1116.67
200.765	-338.96
200.983	290.07
201.202	227.38
201.42	226.79
201.638	166.3
201.856	394.81
202.074	282.83
202.292	701.59
202.51	798.61
202.728	10925
202.946	-181.06
203.165	1131.58
203.383	-151.92
203.601	-59.09
203.819	-6.98
204.037	60
204.255	82
204.473	248.12
204.691	185.29
204.909	-9.52
205.127	-78.79
205.345	13.73
205.562	118.52
205.78	240
205.998	230.43
206.216	150
206.434	89.89
206.652	85.71
206.87	150.85
207.088	35.76
207.306	-8.28
207.523	-45.45
207.741	-193.41
207.959	-44.14
208.177	-46.03
208.395	-80.18
208.612	-106.21
208.83	-110.7
209.048	-108.05
209.266	-296.32
209.483	-588.52
209.701	1200
209.919	-22050
210.136	-780
210.354	-3875
210.572	970.21
210.79	1191.67
211.007	-166.42
211.225	-40.35
211.442	-757.89
211.66	363.11
211.878	615.79
212.095	-733.96
212.313	-14033.33
212.53	-469.67
212.748	-271.09
212.966	-1668.29
213.183	-37000
213.401	-281.42
213.618	-189
213.836	-269.32
214.053	-320.19
214.271	-572.48
214.488	33.07
214.705	17.81
214.923	49.74
215.14	101.57
215.358	122.91
215.575	150
215.793	465.15
216.01	1287.5
216.227	348.15
216.445	-21.33
216.662	-110.2
216.879	-6.04
217.097	-4.23
217.314	-77.42
217.531	-65.52
217.749	40.47
217.966	6.92
218.183	34.19
218.4	48.22
218.618	86.46
218.835	53.41
219.052	61.48
219.269	83.77
219.487	106.88
219.704	99.45
219.921	114.83
220.138	195.68
220.355	177.16
220.572	9166.67
220.79	-180.56
221.007	-93.38
221.224	-96.88
221.441	-9.4
221.658	26.07
221.875	12.69
222.092	54.9
222.309	57.26
222.526	57.65
222.743	61.46
222.96	46.32
223.177	44.81
223.394	38.84
223.611	50.34
223.828	51.48
224.045	48.86
224.262	56.89
224.479	58.11
224.696	53.64
224.913	38.71
225.13	27.06
225.347	32.96
225.564	27.66
225.781	23.15
225.997	31.98
226.214	27.6
226.431	35.13
226.648	32.46
226.865	32.44
227.082	31.6
227.298	33.82
227.515	27.3
227.732	23.46
227.949	19.35
228.165	24.34
228.382	19.01
228.599	20.21
228.816	16.78
229.032	7.72
229.249	-6.31
229.466	-1.95
229.682	-4.74
229.899	7.82
230.116	4.02
230.332	16.71
230.549	3.77
230.765	5.89
230.982	15.2
231.199	28.19
231.415	35.11
231.632	49.27
231.848	37.44
232.065	40.97
232.281	26.7
232.498	37.49
232.714	36.95
232.931	43.68
233.147	45.03
233.364	39.3
233.58	23.61
233.797	20.28
234.013	20.47
234.23	20.01
234.446	6.8
234.662	22.03
234.879	18.03
235.095	12.02
235.312	8.21
235.528	-0.72
235.744	-2.82
235.961	3.39
236.177	3.73
236.393	10.59
236.61	6.11
236.826	15.28
237.042	15.12
237.258	24.1
237.475	30.36
237.691	28.27
237.907	36.87
238.123	42.87
238.339	46.05
238.556	43.73
238.772	40.36
238.988	38.38
239.204	39.03
239.42	31.28
239.636	28.38
239.853	23.7
240.069	23.11
240.285	16.05
240.501	15.02
240.717	9.91
240.933	8.65
241.149	8.63
241.365	8.28
241.581	4.61
241.797	6.52
242.013	6.51
242.229	5.88
242.445	5.46
242.661	8.91
242.877	6.73
243.093	7.94
243.309	8.25
243.525	0.84
243.741	15.26
243.957	16.63
244.173	16.76
244.388	17.41
244.604	17.46
244.82	15.24
245.036	12.87
245.252	14.34
245.468	12.73
245.683	11.78
245.899	14.04
246.115	9.69
246.331	9.51
246.547	9.49
246.762	7.06
246.978	5.75
247.194	6.81
247.409	7.58
247.625	4.52
247.841	3.42
248.057	7.82
248.272	4.16
248.488	1.89
248.703	4.92
248.919	6.38
249.135	6.45
249.35	5.34
249.566	1.43
249.782	-0.75
249.997	-1.53
250.213	2.9
250.428	-1.34
250.644	0.75
250.859	1.36
251.075	-1.12
251.29	-2.09
251.506	0.99
251.721	2.51
251.937	4.67
252.152	7.86
252.368	12.63
252.583	13.55
252.798	17.38
253.014	20.42
253.229	26.86
253.445	23.01
253.66	18.27
253.875	17.85
254.091	16.53
254.306	14.01
254.521	11.96
254.737	6.3
254.952	7.17
255.167	2.62
255.383	1.1
255.598	-4.89
255.813	0.61
256.028	-1.77
256.244	1.06
256.459	3.7
256.674	5.59
256.889	3.36
257.104	6.61
257.32	5.09
257.535	3.13
257.75	2
257.965	3.96
258.18	5.71
258.395	8.07
258.61	7.39
258.826	6.27
259.041	5.4
259.256	5.4
259.471	6.22
259.686	6.68
259.901	9.3
260.116	8.79
260.331	11.1
260.546	9.01
260.761	8.56
260.976	10.76
261.191	10.55
261.406	11.69
261.621	13.83
261.836	9.87
262.05	10.94
262.265	7.46
262.48	10.9
262.695	11.01
262.91	14.17
263.125	13.38
263.34	9.15
263.555	12.36
263.769	11.43
263.984	13.85
264.199	18.11
264.414	11.18
264.629	8.76
264.843	5.62
265.058	-0.16
265.273	-1.69
265.488	1.25
265.702	0.83
265.917	2.26
266.132	5.1
266.346	3.46
266.561	5.49
266.776	9.36
266.99	8.63
267.205	10.91
267.42	12.38
267.634	13.02
267.849	11.14
268.063	11.35
268.278	8.13
268.492	7.44
268.707	6.42
268.922	1.64
269.136	4.17
269.351	5.1
269.565	3.67
269.78	3.22
269.994	3.49
270.209	2.12
270.423	2.55
270.637	3.88
270.852	5.34
271.066	6.07
271.281	6.57
271.495	5.98
271.709	6.6
271.924	7.44
272.138	7.33
272.353	4.23
272.567	5.46
272.781	4.49
272.996	4.7
273.21	3.02
273.424	3.27
273.638	2.85
273.853	1.64
274.067	1.79
274.281	3.92
274.495	5.08
274.71	6.84
274.924	9.41
275.138	11.07
275.352	11.9
275.566	9.45
275.781	10.39
275.995	11.82
276.209	10.46
276.423	9.12
276.637	7.04
276.851	8.86
277.065	10.39
277.279	6.92
277.493	6.95
277.707	4.08
277.921	7.05
278.135	4.51
278.349	7.63
278.563	5.93
278.777	7.45
278.991	9.08
279.205	8.28
279.419	7.81
279.633	9.57
279.847	11.24
280.061	10.94
280.275	10.83
280.489	11.81
280.703	7.47
280.917	8.23
281.131	9.55
281.344	6.96
281.558	8.17
281.772	7.53
281.986	6.59
282.2	2.94
282.414	3.63
282.627	2.09
282.841	0.87
283.055	1.34
283.269	1.37
283.482	-0.57
283.696	1.33
283.91	0.21
284.123	-0.34
284.337	-0.5
284.551	-0.36
284.764	0.68
284.978	1.99
285.192	3.95
285.405	4.49
285.619	5.53
285.833	6.19
286.046	4.97
286.26	5.37
286.473	5
286.687	5.29
286.9	6.61
287.114	4.71
287.327	3.6
287.541	4.25
287.754	5.19
287.968	6.48
288.181	7.69
288.395	8.5
288.608	8.25
288.822	9.89
289.035	9.84
289.248	9.39
289.462	10.93
289.675	11.9
289.889	9.65
290.102	8.32
290.315	6.51
290.529	6.99
290.742	8.02
290.955	7.08
291.169	5.71
291.382	4.65
291.595	5
291.808	7.3
292.022	5.53
292.235	5.86
292.448	5.33
292.661	5.96
292.875	4.95
293.088	1.83
293.301	3.88
293.514	4.4
293.727	5.61
293.94	4.56
294.153	2.84
294.367	5.57
294.58	2.24
294.793	5.36
295.006	6.12
295.219	4.87
295.432	6.43
295.645	5.36
295.858	6.71
296.071	7.21
296.284	7.08
296.497	7.63
296.71	4.81
296.923	7.7
297.136	4.54
297.349	3.53
297.562	4.59
297.775	3.28
297.988	5.37
298.201	2.84
298.414	0.36
298.626	2.47
298.839	2.03
299.052	4.65
299.265	4.98
299.478	6.24
299.691	6.77
299.903	7.76
300.116	7.93
300.329	5.95
300.542	9.74
300.755	10.66
300.967	11.88
301.18	11.15
301.393	11.02
301.605	9.62
301.818	10.45
302.031	9.39
302.243	10.25
302.456	11.67
302.669	10.34
302.881	8.42
303.094	7.12
303.307	7.02
303.519	6.84
303.732	4.83
303.944	5.21
304.157	6.37
304.37	8.27
304.582	5
304.795	3.81
305.007	5.14
305.22	3.76
305.432	5.1
305.645	4.7
305.857	2.51
306.069	1.36
306.282	1.66
306.494	1.3
306.707	-1.48
306.919	-1.39
307.132	-1.2
307.344	-2.03
307.556	-1.03
307.769	-1.21
307.981	0.21
308.193	2.35
308.406	3.37
308.618	2.28
308.83	1.13
309.043	2.72
309.255	5.83
309.467	4.36
309.679	4.9
309.892	5.15
310.104	7.4
310.316	6.28
310.528	5.8
310.74	6.82
310.953	8.61
311.165	7.77
311.377	8.6
311.589	5.39
311.801	9.14
312.013	10.75
312.225	9.65
312.437	7.49
312.649	4.23
312.862	3.77
313.074	0.86
313.286	2.56
313.498	4.26
313.71	3.62
313.922	6.59
314.134	4.72
314.346	3.92
314.558	3.63
314.77	5.26
314.982	8.51
315.193	11.38
315.405	14.68
315.617	12.92
315.829	17.26
316.041	16.17
316.253	15.97
316.465	14.62
316.677	15.65
316.888	15.54
317.1	16.56
317.312	18.57
317.524	16.69
317.736	16.02
317.947	14.23
318.159	10.91
318.371	12.93
318.583	10.87
318.794	13.36
319.006	9.78
319.218	10.12
319.43	9.3
319.641	6.73
319.853	6.64
320.064	6.52
320.276	8.09
320.488	8.8
320.699	8.4
320.911	10.73
321.123	12.3
321.334	13.92
321.546	16.43
321.757	14.83
321.969	16.38
322.18	17.18
322.392	15.15
322.603	14.98
322.815	11.83
323.026	9.95
323.238	10.77
323.449	7.79
323.661	8.81
323.872	6.91
324.083	5.48
324.295	3.95
324.506	3.79
324.718	5.93
324.929	3.74
325.14	5.1
325.352	4.55
325.563	2.46
325.774	2.08
325.986	2.19
326.197	1.28
326.408	3.05
326.62	4.81
326.831	5.8
327.042	8.06
327.253	10.69
327.464	11.13
327.676	12.85
327.887	14.73
328.098	17.51
328.309	16.84
328.52	19.69
328.732	20.62
328.943	18.12
329.154	18.33
329.365	14.01
329.576	12.46
329.787	10.14
329.998	9.6
330.209	8.44
330.42	7.97
330.631	8.1
330.842	5.45
331.053	6.48
331.264	8.74
331.475	6.04
331.686	7.93
331.897	9.51
332.108	9.04
332.319	10.94
332.53	11.27
332.741	10.63
332.952	11.21
333.163	13.1
333.374	12.38
333.585	13.13
333.795	14.51
334.006	13.41
334.217	13.96
334.428	16.01
334.639	12.41
334.849	11.84
335.06	8.7
335.271	10.47
335.482	9.33
335.692	6.87
335.903	5.86
336.114	6.25
336.325	6.8
336.535	6.04
336.746	4.56
336.957	5.83
337.167	5.87
337.378	8.97
337.589	6.55
337.799	7.06
338.01	9.14
338.22	9.57
338.431	6.73
338.642	6.47
338.852	5.95
339.063	8.06
339.273	8
339.484	7.8
339.694	6.53
339.905	6.85
340.115	5.41
340.326	5.61
340.536	3.71
340.746	5
340.957	4.89
341.167	5.42
341.378	3.88
341.588	6.25
341.799	5.59
342.009	5.94
342.219	5.88
342.43	7.6
342.64	8.06
342.85	9.72
343.061	11.92
343.271	11.48
343.481	11.72
343.691	10.45
343.902	8.25
344.112	9.5
344.322	8.49
344.532	9.61
344.743	8.14
344.953	7.75
345.163	7.74
345.373	8.27
345.583	8.54
345.793	9.21
346.004	10.94
346.214	12.66
346.424	12.14
346.634	13.67
346.844	14.03
347.054	15.64
347.264	14.14
347.474	12.38
347.684	11.35
347.894	10.21
348.104	9.11
348.314	7.96
348.524	6.83
348.734	9.1
348.944	7.71
349.154	6.55
349.364	7
349.574	8.46
349.784	7.79
349.994	6.37
350.204	8.74
350.413	9
350.623	9.97
350.833	7.47
351.043	3.96
351.253	4.34
351.463	2.66
351.672	1
351.882	1.33
352.092	4.01
352.302	4.09
352.511	3.51
352.721	2.09
352.931	2.97
353.141	5.09
353.35	6.13
353.56	7.34
353.77	8.39
353.979	7.84
354.189	8.19
354.399	8.61
354.608	9.72
354.818	8.65
355.027	7.12
355.237	5.92
355.447	6.82
355.656	4.52
355.866	2.92
356.075	2
356.285	2.78
356.494	3.91
356.704	2.72
356.913	1.62
357.123	1.99
357.332	4.32
357.542	5.16
357.751	3.55
357.96	4.73
358.17	5.54
358.379	5.6
358.589	5.8
358.798	3.51
359.007	4.57
359.217	4.81
359.426	7.03
359.635	7.02
359.845	6.94
360.054	7.1
360.263	8.24
360.472	8.68
360.682	9.84
360.891	10.33
361.1	11.4
361.309	10.64
361.519	9.51
361.728	7.09
361.937	7.5
362.146	7.96
362.355	10.65
362.564	10.41
362.774	10.62
362.983	10.38
363.192	10.2
363.401	9.36
363.61	9.81
363.819	10.21
364.028	10.39
364.237	9.65
364.446	10.13
364.655	7.31
364.864	7.9
365.073	7.25
365.282	6.46
365.491	8.37
365.7	11.49
365.909	11.31
366.118	12.17
366.327	13.16
366.536	14.75
366.745	13.74
366.954	14.57
367.162	13.7
367.371	14.33
367.58	15.21
367.789	12.66
367.998	10.19
368.207	10.9
368.415	10.17
368.624	8.59
368.833	7.59
369.042	7.64
369.25	6.43
369.459	6.42
369.668	4.88
369.877	3.72
370.085	3.97
370.294	4.3
370.503	3.65
370.711	3.68
370.92	3.31
371.129	1.42
371.337	1.65
371.546	3.42
371.754	3.8
371.963	5.11
372.171	5.59
372.38	5.34
372.589	3.26
372.797	2.19
373.006	2.91
373.214	5.1
373.423	6.03
373.631	5.82
373.84	5.38
374.048	5.77
374.256	4.57
374.465	5.95
374.673	5.72
374.882	7.2
375.09	8.11
375.298	7.23
375.507	7.64
375.715	7.82
375.923	8.18
376.132	8.43
376.34	7.7
376.548	7.55
376.757	6.96
376.965	8.38
377.173	7.61
377.381	8.41
377.59	10.37
377.798	9.2
378.006	9.52
378.214	9.26
378.423	9.35
378.631	10.24
378.839	10.69
379.047	10.16
379.255	10.06
379.463	9.14
379.671	8.38
379.879	7.45
380.088	7.63
380.296	7.89
380.504	7.35
380.712	6.74
380.92	6.35
381.128	6.18
381.336	5.9
381.544	5.13
381.752	5.57
381.96	5.97
382.168	6.02
382.376	7.46
382.584	6.59
382.791	6.98
382.999	6.76
383.207	6.23
383.415	6.26
383.623	5.84
383.831	4.97
384.039	6.73
384.247	7
384.454	6.81
384.662	5.38
384.87	5.72
385.078	5.34
385.285	4.95
385.493	4.71
385.701	6.28
385.909	7.72
386.116	7.52
386.324	6.59
386.532	5.31
386.739	5.77
386.947	6.53
387.155	6.04
387.362	5.04
387.57	3.97
387.778	4.17
387.985	2.06
388.193	-0.02
388.4	1.51
388.608	0.98
388.816	1.24
389.023	1.63
389.231	1.36
389.438	1.47
389.646	1.9
389.853	3.09
390.061	2.27
390.268	4.29
390.475	5.48
390.683	5.78
390.89	5.2
391.098	4.92
391.305	4.41
391.512	4.23
391.72	4.02
391.927	4.58
392.135	5.27
392.342	6.01
392.549	4.01
392.756	4.16
392.964	4.54
393.171	5.23
393.378	6.61
393.586	5.68
393.793	5.1
394	6.15
394.207	6.68
394.414	6.75
394.622	6.52
394.829	6.68
395.036	7.2
395.243	6.96
395.45	6.79
395.657	5.32
395.864	6.37
396.072	6.95
396.279	6.71
396.486	6.5
396.693	6.41
396.9	6.31
397.107	6.91
397.314	5.69
397.521	3.7
397.728	4.01
397.935	3.55
398.142	3.88
398.349	2.49
398.556	1.91
398.763	1.1
398.97	-0.53
399.177	-0.28
399.383	1.03
399.59	0.79
399.797	1.21
400.004	1.32
400.211	2.73
400.418	1.52
400.625	2.96
400.831	2.31
401.038	2.68
401.245	4.46
401.452	4.16
401.658	3.23
401.865	4.49
402.072	5.44
402.279	6.37
402.485	5.85
402.692	6.99
402.899	6.79
403.105	7.61
403.312	8.02
403.519	7.26
403.725	7.73
403.932	7.38
404.138	7.4
404.345	6.67
404.552	5.21
404.758	5.55
404.965	4.31
405.171	4.2
405.378	3.98
405.584	4.06
405.791	3.96
405.997	3.93
406.204	4.81
406.41	5.21
406.617	6.27
406.823	6.79
407.029	7.2
407.236	7.63
407.442	7.54
407.649	7.7
407.855	7.22
408.061	6.76
408.268	6.37
408.474	4.85
408.68	4.24
408.887	3.19
409.093	3.74
409.299	3
409.505	3.47
409.712	3.16
409.918	3.5
410.124	4.49
410.33	3.48
410.537	3.67
410.743	4.48
410.949	3.64
411.155	4.36
411.361	5.17
411.567	4.41
411.773	5.11
411.98	5.68
412.186	4.79
412.392	3.73
412.598	5.22
412.804	4.83
413.01	4.66
413.216	5.03
413.422	5.84
413.628	4.58
413.834	4.99
414.04	3.93
414.246	3.82
414.452	4.05
414.658	4.47
414.864	4.62
415.07	4.41
415.275	4.92
415.481	5.16
415.687	3.98
415.893	3.7
416.099	4.03
416.305	4.25
416.511	4.05
416.716	3.93
416.922	3.55
417.128	2.75
417.334	3.28
417.539	2.24
417.745	2.18
417.951	2.81
418.157	3.3
418.362	3.24
418.568	2.67
418.774	2.5
418.979	2.03
419.185	2.52
419.391	2.62
419.596	2.74
419.802	3.15
420.008	2.66
420.213	-2.05
420.419	-2.38
420.624	-2.68
420.83	-2.29
421.035	-2.08
421.241	-1.66
421.446	-2.12
421.652	-1.83
421.857	-2.65
422.063	-2.44
422.268	-2
422.474	2.1
422.679	1.78
422.885	1.94
423.09	1.76
423.295	1.9
423.501	1.87
423.706	1.94
423.911	2.22
424.117	2.55
424.322	1.6
424.527	1.91
424.733	2.41
424.938	2.81
425.143	3.1
425.349	3.32
425.554	3.25
425.759	3.91
425.964	4.04
426.169	4.05
426.375	4.42
426.58	6.35
426.785	5.89
426.99	5.79
427.195	5.93
427.4	5.64
427.605	6.45
427.811	6.34
428.016	5.13
428.221	4.82
428.426	4.02
428.631	3.62
428.836	3.15
429.041	2.85
429.246	2.99
429.451	3.02
429.656	2.74
429.861	2.03
430.066	2.55
430.271	3.36
430.476	3.76
430.681	4.14
430.886	4.5
431.09	3.79
431.295	4.16
431.5	4.14
431.705	3.88
431.91	3.7
432.115	4.01
432.32	2.81
432.524	2.98
432.729	2.9
432.934	2.78
433.139	2.71
433.343	2.96
433.548	3.03
433.753	2.51
433.958	2.81
434.162	2.53
434.367	2.36
434.572	2.94
434.776	2.88
434.981	2.2
435.186	2.1
435.39	2.14
435.595	2.22
435.799	1.67
436.004	2.23
436.209	2
436.413	2.94
436.618	1.95
436.822	2.04
437.027	1.67
437.231	2.17
437.436	2.24
437.64	1.98
437.845	2.26
438.049	2.52
438.253	2.07
438.458	2.25
438.662	1.71
438.867	1.8
439.071	1.85
439.275	1.87
439.48	1.79
439.684	1.8
439.888	1.89
440.093	1.67
440.297	1.34
440.501	1.58
440.706	1.49
440.91	1.87
441.114	2.26
441.318	2.77
441.523	2.29
441.727	2.28
441.931	2.84
442.135	2.89
442.339	3.18
442.543	3.59
442.748	4.08
442.952	3.52
443.156	3.12
443.36	3.35
443.564	2.77
443.768	3.27
443.972	3.4
444.176	2.72
444.38	3.62
444.584	3.66
444.788	3.87
444.992	3.35
445.196	3.36
445.4	3.31
445.604	2.99
445.808	2.74
446.012	2.7
446.216	2.22
446.42	2.38
446.624	1.17
446.828	0.44
447.032	0.15
447.235	0.18
447.439	0.26
447.643	1.1
447.847	1.04
448.051	1.75
448.254	1.38
448.458	1.48
448.662	2.01
448.866	2.66
449.069	2.6
449.273	2.17
449.477	2.21
449.681	3.15
449.884	2.96
450.088	3.33
450.292	3.25
450.495	3.91
450.699	3.96
450.902	3.42
451.106	2.78
451.31	3.65
451.513	4.19
451.717	4.06
451.92	3.65
452.124	3.21
452.327	3.1
452.531	3.59
452.734	3.56
452.938	3.79
453.141	3.63
453.345	4.02
453.548	3.23
453.752	3.49
453.955	3.63
454.158	2.68
454.362	2.69
454.565	2.59
454.769	1.77
454.972	2.13
455.175	1.58
455.379	1.5
455.582	1.9
455.785	2.77
455.988	2.34
456.192	2.61
456.395	3.38
456.598	3.6
456.801	2.68
457.005	3.39
457.208	2.58
457.411	2.67
457.614	2.67
457.817	2.22
458.021	1.87
458.224	1.91
458.427	2.04
458.63	2.29
458.833	2.1
459.036	2.89
459.239	2.59
459.442	2.63
459.645	2.69
459.848	3.13
460.051	2.97
460.254	2.44
460.457	2.13
460.66	1.85
460.863	1.88
461.066	1.57
461.269	1.46
461.472	0.35
461.675	0.41
461.878	0.75
462.081	0.5
462.284	0.19
462.486	1.17
462.689	1.77
462.892	2.71
463.095	2.59
463.298	3.38
463.5	2.99
463.703	3.71
463.906	3.7
464.109	3.93
464.311	3.48
464.514	3.87
464.717	3.46
464.92	3.02
465.122	1.96
465.325	1.64
465.528	1.87
465.73	1.75
465.933	2.48
466.135	2.7
466.338	1.86
466.541	2.42
466.743	2.29
466.946	2.54
467.148	2.47
