Data from JASIL_3309_Reflection_3.txt Node
Date: Tue Nov 17 19:56:46 EST 2015
User: Geneva
Spectrometer: USB4E03002
Autoset integration time: false
Trigger mode: 4
Integration Time (sec): 1.000000E-1
Scans to average: 10
Electric dark correction enabled: false
Nonlinearity correction enabled: false
Boxcar width: 5
Stray light correction enabled: false
XAxis mode: Wavelengths
Stop averaging: false
Number of Pixels in Spectrum: 3648
>>>>>Begin Spectral Data<<<<<
177.575	-131.68
177.794	-335.87
178.014	-379.78
178.233	-798.11
178.452	-835
178.672	-537.8
178.891	-1587.93
179.11	11870
179.33	2878.26
179.549	2678.43
179.768	-13954.55
179.987	1247.73
180.207	652.46
180.426	1190.41
180.645	1492.8
180.864	10570.59
181.084	1076.51
181.303	768.3
181.522	917.24
181.741	878.65
181.96	1501.01
182.179	7870.59
182.398	-1574.03
182.618	-588.56
182.837	-488.1
183.056	-513.11
183.275	-560
183.494	-237.02
183.713	-182.76
183.932	-143.11
184.151	-92.53
184.37	-83.41
184.589	-142.6
184.808	-121.89
185.027	-101.9
185.246	-143.58
185.465	-121.69
185.684	-161.85
185.903	-244.34
186.122	-405
186.341	-866.37
186.56	-617.26
186.779	-4081.48
186.998	-521.16
187.216	-561.67
187.435	-618.79
187.654	-698.79
187.873	-485.71
188.092	-623.72
188.311	-892.86
188.53	-555.98
188.748	-276.55
188.967	-376.09
189.186	-236.53
189.405	-410.69
189.623	-344.38
189.842	-330.73
190.061	-259.46
190.28	-189.66
190.498	-236.1
190.717	-181.33
190.936	-227.56
191.154	-643.96
191.373	-1408.05
191.592	3260.47
191.81	1394.17
192.029	1686.32
192.248	879.41
192.466	992.27
192.685	394.53
192.904	947.03
193.122	631.87
193.341	752.52
193.559	900
193.778	876.24
193.996	585.31
194.215	1515.94
194.433	703.57
194.652	628.67
194.87	510
195.089	671.54
195.307	1161.4
195.526	-730.61
195.744	-507.19
195.963	-657.33
196.181	-851.24
196.399	-1474.71
196.618	1927.63
196.836	992.91
197.055	968.24
197.273	1060.45
197.491	1234.23
197.71	648.81
197.928	579.47
198.146	525.34
198.365	2692.86
198.583	1911.11
198.801	-839.52
199.019	-269.48
199.238	-239.23
199.456	-228.17
199.674	-347.04
199.892	-258.29
200.111	-230.99
200.329	-262.9
200.547	-364.74
200.765	2962.75
200.983	-1235.9
201.202	2235.53
201.42	631.79
201.638	460.3
201.856	744.87
202.074	1052.67
202.292	622.14
202.51	537.54
202.728	621.15
202.946	5450
203.165	2632.69
203.383	542.96
203.601	758.38
203.819	1350
204.037	-4081.82
204.255	-4788.89
204.473	-844.76
204.691	-755.88
204.909	-450.88
205.127	-2272.92
205.345	613.94
205.562	-795.35
205.78	-173.29
205.998	-108.11
206.216	-98.29
206.434	-154.71
206.652	-159.33
206.87	-375.45
207.088	-251.9
207.306	-525.43
207.523	-433.48
207.741	-356.13
207.959	-493.69
208.177	-592.23
208.395	-665.2
208.612	-694.44
208.83	-380.5
209.048	-406.41
209.266	-365.75
209.483	-254.03
209.701	-260.57
209.919	-208.92
210.136	-231.33
210.354	-251.99
210.572	-290.99
210.79	-305.33
211.007	-572.54
211.225	-6653.33
211.442	1552.54
211.66	3680
211.878	345.51
212.095	481.15
212.313	781.36
212.53	467.3
212.748	394.02
212.966	326.09
213.183	394.16
213.401	-4016.67
213.618	-260.32
213.836	-223.89
214.053	-345.87
214.271	-201.6
214.488	-397.32
214.705	-332.22
214.923	-212.46
215.14	-147.61
215.358	-105.59
215.575	-86.94
215.793	-183.27
216.01	-563.03
216.227	-1001.72
216.445	-761.81
216.662	-455.17
216.879	-420.43
217.097	-292.15
217.314	-423.35
217.531	14812.5
217.749	1309.9
217.966	754.95
218.183	501.04
218.4	732.26
218.618	802.63
218.835	491.97
219.052	431.62
219.269	422.56
219.487	212.95
219.704	211.16
219.921	247.96
220.138	301.84
220.355	278.82
220.572	237.6
220.79	233.27
221.007	307.11
221.224	493.16
221.441	499.24
221.658	549.15
221.875	-2682.86
222.092	-1114.77
222.309	3163.64
222.526	690.91
222.743	582.13
222.96	841.73
223.177	2451.16
223.394	1631.58
223.611	927.27
223.828	567.6
224.045	439.74
224.262	335.55
224.479	362.44
224.696	657.69
224.913	1003.31
225.13	1165.09
225.347	773.1
225.564	395.54
225.781	220.88
225.997	175.38
226.214	163.52
226.431	142.5
226.648	124.13
226.865	86.05
227.082	71.9
227.298	72.45
227.515	64.31
227.732	68.78
227.949	64.2
228.165	56.03
228.382	48.95
228.599	48.53
228.816	46.3
229.032	52.65
229.249	63.68
229.466	66.73
229.682	64.22
229.899	71.15
230.116	78.8
230.332	86.35
230.549	100.14
230.765	104.22
230.982	105.29
231.199	110.01
231.415	112.75
231.632	119.5
231.848	107.2
232.065	105.17
232.281	78.03
232.498	74.51
232.714	71.64
232.931	73.39
233.147	68.53
233.364	80.34
233.58	72.32
233.797	73.32
234.013	76.05
234.23	103.35
234.446	118.2
234.662	173.02
234.879	255.24
235.095	232.83
235.312	190.88
235.528	196.46
235.744	212.55
235.961	280.56
236.177	248.72
236.393	331.53
236.61	269.92
236.826	227.73
237.042	154.21
237.258	152.29
237.475	163.44
237.691	236.35
237.907	172.3
238.123	145.65
238.339	145
238.556	151.7
238.772	110.27
238.988	105.45
239.204	94.04
239.42	93.23
239.636	77.06
239.853	63.6
240.069	58.57
240.285	57.74
240.501	52.1
240.717	46.93
240.933	39.66
241.149	39.17
241.365	38.8
241.581	40.15
241.797	41.11
242.013	41.29
242.229	42.18
242.445	42.64
242.661	43.91
242.877	45.94
243.093	48.12
243.309	49.68
243.525	53
243.741	50.4
243.957	50.31
244.173	46.26
244.388	45.8
244.604	44.69
244.82	41.17
245.036	38.06
245.252	35.29
245.468	34.9
245.683	32.25
245.899	29.61
246.115	28.14
246.331	25.88
246.547	26.85
246.762	27.52
246.978	26.24
247.194	25.53
247.409	27.28
247.625	26.06
247.841	23.89
248.057	26.67
248.272	28.44
248.488	29.63
248.703	29.33
248.919	33.56
249.135	29.93
249.35	33.31
249.566	34.13
249.782	33.63
249.997	33.53
250.213	35.67
250.428	37.22
250.644	36.95
250.859	35.24
251.075	34.99
251.29	31.7
251.506	34.2
251.721	35.84
251.937	33.56
252.152	33.27
252.368	37.37
252.583	39.74
252.798	39.45
253.014	40.63
253.229	41.76
253.445	47.64
253.66	48.94
253.875	43.91
254.091	39.13
254.306	45.12
254.521	38.09
254.737	36.15
254.952	30.27
255.167	28.13
255.383	25.76
255.598	31.48
255.813	23.81
256.028	25.41
256.244	31.53
256.459	32.49
256.674	30.57
256.889	29.82
257.104	25.28
257.32	26.83
257.535	26.46
257.75	25.63
257.965	21.79
258.18	20.64
258.395	18.33
258.61	17.96
258.826	17.29
259.041	17.39
259.256	16.98
259.471	19.63
259.686	18.12
259.901	17.84
260.116	17.8
260.331	20.16
260.546	23.5
260.761	24.25
260.976	25.81
261.191	26.09
261.406	28.56
261.621	27.94
261.836	26.75
262.05	27.97
262.265	31.33
262.48	31.62
262.695	32.34
262.91	35.25
263.125	36.06
263.34	32.53
263.555	30.8
263.769	22.72
263.984	27.21
264.199	27.29
264.414	30.21
264.629	25.79
264.843	28.93
265.058	27.74
265.273	20.57
265.488	21.41
265.702	22.47
265.917	24.44
266.132	27.19
266.346	29.6
266.561	28.8
266.776	27.64
266.99	28.11
267.205	26.98
267.42	24.13
267.634	23.4
267.849	22.63
268.063	21.81
268.278	20.86
268.492	20.95
268.707	18.97
268.922	20.48
269.136	18.96
269.351	18.06
269.565	17.67
269.78	18.54
269.994	21
270.209	20.83
270.423	18.82
270.637	18
270.852	18.03
271.066	19.03
271.281	19.2
271.495	19.25
271.709	19.19
271.924	19.02
272.138	18.91
272.353	17.22
272.567	17.91
272.781	18.13
272.996	18.94
273.21	17.89
273.424	16.45
273.638	17.93
273.853	19.22
274.067	21.35
274.281	22.66
274.495	24.17
274.71	27.96
274.924	26.94
275.138	28.45
275.352	27.92
275.566	29.96
275.781	28.72
275.995	25.39
276.209	23.66
276.423	22.44
276.637	22.79
276.851	19.8
277.065	17.54
277.279	16.99
277.493	18.22
277.707	18.68
277.921	17.52
278.135	20.89
278.349	21.29
278.563	23
278.777	21.19
278.991	20.5
279.205	25.49
279.419	22.29
279.633	23.77
279.847	22.64
280.061	21.05
280.275	22
280.489	16.2
280.703	14.4
280.917	15.58
281.131	17.02
281.344	16.46
281.558	12.25
281.772	14.3
281.986	13.24
282.2	13.38
282.414	13.49
282.627	13.47
282.841	17.61
283.055	15.92
283.269	15.12
283.482	12.91
283.696	11.51
283.91	13.46
284.123	12.86
284.337	14.26
284.551	14.5
284.764	14.04
284.978	13.48
285.192	12.9
285.405	14.86
285.619	14.51
285.833	16.58
286.046	18.04
286.26	18.33
286.473	20.13
286.687	19.23
286.9	18.69
287.114	20.11
287.327	19.12
287.541	18.69
287.754	19.55
287.968	19.88
288.181	17.8
288.395	16.65
288.608	15.56
288.822	14.57
289.035	13.8
289.248	13.32
289.462	12.26
289.675	12.35
289.889	12.77
290.102	12.17
290.315	11.09
290.529	12.83
290.742	12.29
290.955	14.17
291.169	15.96
291.382	16.25
291.595	17.03
291.808	19.17
292.022	20.16
292.235	18.68
292.448	17.62
292.661	20.4
292.875	20.2
293.088	21.13
293.301	20
293.514	17.72
293.727	17.46
293.94	16.78
294.153	15.4
294.367	15.28
294.58	16.24
294.793	15.97
295.006	13.89
295.219	13.41
295.432	12.83
295.645	13.91
295.858	14.49
296.071	15.5
296.284	15.66
296.497	14.92
296.71	15.49
296.923	15.01
297.136	15.2
297.349	15.75
297.562	16.6
297.775	17.2
297.988	16.1
298.201	16.47
298.414	16.6
298.626	17
298.839	18.53
299.052	17.83
299.265	18.21
299.478	18.34
299.691	18.93
299.903	17.09
300.116	17.04
300.329	17.43
300.542	17.92
300.755	17.61
300.967	17.52
301.18	17.58
301.393	18.5
301.605	18.61
301.818	18.03
302.031	19.1
302.243	20.99
302.456	20.14
302.669	20.21
302.881	19.57
303.094	19.59
303.307	18.44
303.519	17.59
303.732	16.36
303.944	17.28
304.157	19.65
304.37	18.79
304.582	18.27
304.795	20.06
305.007	19.93
305.22	18.67
305.432	18.8
305.645	20.02
305.857	19.42
306.069	19.64
306.282	18.47
306.494	17.73
306.707	17.36
306.919	17.21
307.132	16.54
307.344	16.47
307.556	18.48
307.769	17.28
307.981	16.32
308.193	16.37
308.406	15.97
308.618	15.69
308.83	14.9
309.043	14.45
309.255	14.21
309.467	13.99
309.679	13.56
309.892	13.12
310.104	14.48
310.316	15.86
310.528	16.7
310.74	15.85
310.953	16.83
311.165	17.31
311.377	18.36
311.589	18.67
311.801	18.33
312.013	18.23
312.225	17.66
312.437	15.91
312.649	13.11
312.862	13.22
313.074	15.31
313.286	13.93
313.498	13.79
313.71	13.32
313.922	13.44
314.134	13.79
314.346	15.75
314.558	17.23
314.77	19.57
314.982	21.95
315.193	21.11
315.405	20.59
315.617	21.36
315.829	22.42
316.041	23.67
316.253	23.01
316.465	24.73
316.677	23.58
316.888	25.07
317.1	23.5
317.312	24.46
317.524	27.4
317.736	29.94
317.947	30.86
318.159	29.68
318.371	28.58
318.583	29.38
318.794	28.87
319.006	28.91
319.218	26.62
319.43	28.56
319.641	28.15
319.853	26.99
320.064	24.05
320.276	24.31
320.488	25.28
320.699	25.06
320.911	24.15
321.123	24.28
321.334	24.64
321.546	22.62
321.757	22.8
321.969	21.95
322.18	21.64
322.392	21.57
322.603	20.93
322.815	19.28
323.026	17.87
323.238	17.78
323.449	16.23
323.661	15.31
323.872	16.63
324.083	17.27
324.295	17.03
324.506	15.73
324.718	16.38
324.929	16.89
325.14	19.63
325.352	21.07
325.563	22.52
325.774	23.35
325.986	25.06
326.197	26.06
326.408	24.52
326.62	25.31
326.831	26.9
327.042	27.24
327.253	27.76
327.464	27.87
327.676	28.21
327.887	27.99
328.098	28.04
328.309	27.67
328.52	28.96
328.732	29.13
328.943	28.92
329.154	29.08
329.365	29.9
329.576	28.9
329.787	28.09
329.998	28.51
330.209	30.09
330.42	31.29
330.631	31.06
330.842	31.59
331.053	31.82
331.264	31.92
331.475	31.93
331.686	31.91
331.897	31.72
332.108	31.43
332.319	30.98
332.53	29.46
332.741	28.34
332.952	28.3
333.163	26.61
333.374	27.92
333.585	28.36
333.795	28.9
334.006	29.49
334.217	31.16
334.428	30.7
334.639	29.91
334.849	30.86
335.06	32.56
335.271	32.89
335.482	32.4
335.692	31.96
335.903	30.59
336.114	29.92
336.325	30.1
336.535	30.48
336.746	30.72
336.957	30.78
337.167	29.3
337.378	29.99
337.589	30.13
337.799	30.02
338.01	30.16
338.22	31.01
338.431	30.5
338.642	31.01
338.852	29.78
339.063	29.73
339.273	30.38
339.484	30.52
339.694	28.76
339.905	28.74
340.115	30.56
340.326	29.62
340.536	29.66
340.746	29.73
340.957	29.49
341.167	29.7
341.378	29.83
341.588	29.59
341.799	30.74
342.009	30.4
342.219	29.24
342.43	28.75
342.64	28.23
342.85	29.29
343.061	30.61
343.271	29.53
343.481	28.06
343.691	28.85
343.902	29.01
344.112	28.75
344.322	27.96
344.532	28.29
344.743	28.91
344.953	29.76
345.163	28.63
345.373	27.58
345.583	28.27
345.793	30.78
346.004	30.46
346.214	30.31
346.424	29.62
346.634	31.5
346.844	33.23
347.054	31.52
347.264	31.99
347.474	32.03
347.684	32.18
347.894	30.72
348.104	28.27
348.314	28.35
348.524	28.23
348.734	28.28
348.944	27.34
349.154	25.5
349.364	26.19
349.574	25.38
349.784	25.1
349.994	24.25
350.204	24.4
350.413	24.04
350.623	23.55
350.833	24.61
351.043	25.48
351.253	25.38
351.463	24.99
351.672	25.33
351.882	25.46
352.092	26.73
352.302	27.02
352.511	27.97
352.721	29.28
352.931	28.86
353.141	28.94
353.35	27.44
353.56	27.63
353.77	28.38
353.979	28.15
354.189	27.77
354.399	27.16
354.608	27.02
354.818	26.26
355.027	26.31
355.237	27.02
355.447	26.23
355.656	26.99
355.866	25.64
356.075	25.7
356.285	24.96
356.494	25.6
356.704	26.47
356.913	26.51
357.123	25.98
357.332	25.33
357.542	25.2
357.751	25.36
357.96	24.59
358.17	24.94
358.379	24.6
358.589	24.68
358.798	23.39
359.007	23.49
359.217	24.17
359.426	24.15
359.635	24.95
359.845	24.26
360.054	22.79
360.263	23.27
360.472	23.45
360.682	23.6
360.891	23.45
361.1	24.66
361.309	24.48
361.519	23.36
361.728	23.58
361.937	23.51
362.146	24.1
362.355	24.89
362.564	24.13
362.774	24.14
362.983	24.15
363.192	24.6
363.401	24.32
363.61	23.48
363.819	24.04
364.028	23.8
364.237	22.71
364.446	22.87
364.655	21.92
364.864	22.43
365.073	22.05
365.282	21.58
365.491	21.94
365.7	21.84
365.909	21.57
366.118	22
366.327	22.42
366.536	22.18
366.745	22.07
366.954	23.59
367.162	23.99
367.371	24.57
367.58	25.44
367.789	25.3
367.998	24.96
368.207	24.56
368.415	24.74
368.624	23.84
368.833	24.92
369.042	24.07
369.25	23.36
369.459	23.35
369.668	23.25
369.877	23.09
370.085	22.95
370.294	22.37
370.503	22.96
370.711	21.82
370.92	22.9
371.129	22.02
371.337	22
371.546	22
371.754	21.62
371.963	21.76
372.171	20.32
372.38	19.78
372.589	20.07
372.797	19.48
373.006	20.54
373.214	19.79
373.423	20.43
373.631	21.15
373.84	20.13
374.048	19.85
374.256	19.86
374.465	20.83
374.673	21.64
374.882	20.29
375.09	20.47
375.298	20.45
375.507	20.06
375.715	19.87
375.923	19.08
376.132	20.1
376.34	20.24
376.548	20.08
376.757	19.9
376.965	19.37
377.173	20.98
377.381	21.08
377.59	20.89
377.798	21.25
378.006	21.04
378.214	21.4
378.423	21.14
378.631	21.53
378.839	21.58
379.047	22.37
379.255	22.92
379.463	22.81
379.671	22.67
379.879	22.75
380.088	23.1
380.296	24.31
380.504	24.69
380.712	25.51
380.92	25.34
381.128	25.6
381.336	24.57
381.544	23.76
381.752	22.79
381.96	22.95
382.168	21.85
382.376	21.11
382.584	20.12
382.791	19.35
382.999	18.45
383.207	18.22
383.415	18.77
383.623	19.7
383.831	19.77
384.039	20.05
384.247	20.32
384.454	21.46
384.662	21.15
384.87	21.35
385.078	20.96
385.285	20.79
385.493	21.62
385.701	20.57
385.909	20.15
386.116	20.08
386.324	20.13
386.532	19.8
386.739	19.35
386.947	19.51
387.155	18.78
387.362	19.18
387.57	18.68
387.778	17.55
387.985	16.21
388.193	15.66
388.4	15.84
388.608	16.29
388.816	16.04
389.023	15.58
389.231	15.74
389.438	16.02
389.646	16.46
389.853	16.84
390.061	17.38
390.268	18.53
390.475	18.19
390.683	18.46
390.89	18.15
391.098	17.88
391.305	17.85
391.512	17.99
391.72	17.71
391.927	17.65
392.135	18.17
392.342	17.46
392.549	16.89
392.756	17.29
392.964	16.3
393.171	16.86
393.378	16.71
393.586	16.7
393.793	16.47
394	16.57
394.207	15.87
394.414	15.57
394.622	16.19
394.829	17.04
395.036	17.15
395.243	17.42
395.45	17.12
395.657	17.16
395.864	17.57
396.072	18.77
396.279	19.28
396.486	19.07
396.693	18.59
396.9	18.2
397.107	17.68
397.314	17.67
397.521	17.97
397.728	17.52
397.935	17.9
398.142	17.34
398.349	15.88
398.556	15.77
398.763	16.36
398.97	17.06
399.177	17.19
399.383	17.5
399.59	16.95
399.797	16.69
400.004	17.04
400.211	17.08
400.418	17.16
400.625	18.52
400.831	18.75
401.038	18.02
401.245	17.71
401.452	17.57
401.658	17.45
401.865	18.07
402.072	17.92
402.279	18.16
402.485	18.35
402.692	18.84
402.899	17.07
403.105	16.16
403.312	17.41
403.519	17.4
403.725	17.59
403.932	17.06
404.138	17.08
404.345	17.59
404.552	17.07
404.758	17.31
404.965	17.11
405.171	17.97
405.378	18.66
405.584	18.29
405.791	18.1
405.997	17.55
406.204	18.24
406.41	18.35
406.617	17.94
406.823	17.44
407.029	16.59
407.236	16.73
407.442	16.62
407.649	16.64
407.855	16.3
408.061	16.64
408.268	16.93
408.474	17.02
408.68	16.72
408.887	16.98
409.093	17.72
409.299	18.13
409.505	17.94
409.712	18.18
409.918	17.34
410.124	16.43
410.33	16.41
410.537	16.22
410.743	15.96
410.949	16.08
411.155	15.49
411.361	14.92
411.567	14.75
411.773	14.76
411.98	14.66
412.186	15.34
412.392	15.93
412.598	15.34
412.804	15.42
413.01	15.1
413.216	14.96
413.422	15.09
413.628	15.7
413.834	15.36
414.04	14.76
414.246	14.38
414.452	14.19
414.658	13.81
414.864	14.3
415.07	14.12
415.275	14.1
415.481	13.95
415.687	14.09
415.893	13.91
416.099	14.39
416.305	14.63
416.511	14.96
416.716	14.84
416.922	15.21
417.128	15.12
417.334	15.26
417.539	15.32
417.745	15.5
417.951	15.2
418.157	15.54
418.362	15.66
418.568	15.66
418.774	15.22
418.979	15.3
419.185	15.17
419.391	15
419.596	14.81
419.802	14.72
420.008	14.21
420.213	14.46
420.419	13.84
420.624	13.55
420.83	13.58
421.035	13.86
421.241	13.84
421.446	13.82
421.652	13.97
421.857	14.26
422.063	14.24
422.268	14.63
422.474	14.53
422.679	14.74
422.885	14.72
423.09	14.84
423.295	14.48
423.501	14.54
423.706	14.42
423.911	14.4
424.117	14.27
424.322	14.48
424.527	14.33
424.733	14.65
424.938	14.45
425.143	14.43
425.349	14.01
425.554	14.41
425.759	14.61
425.964	14.79
426.169	14.62
426.375	15.26
426.58	15.25
426.785	15.29
426.99	15.5
427.195	15.54
427.4	15.82
427.605	16.26
427.811	16.08
428.016	15.7
428.221	15.78
428.426	16.11
428.631	15.16
428.836	14.64
429.041	14.7
429.246	14.23
429.451	14.61
429.656	14.46
429.861	14.75
430.066	14.9
430.271	15.11
430.476	14.95
430.681	14.45
430.886	14.5
431.09	14.71
431.295	14.35
431.5	14.52
431.705	14.61
431.91	14.82
432.115	14.29
432.32	13.96
432.524	13.56
432.729	13.72
432.934	14.13
433.139	14.38
433.343	14.7
433.548	15.37
433.753	15.16
433.958	14.92
434.162	14.68
434.367	14.73
434.572	14.94
434.776	15
434.981	15.15
435.186	15.29
435.39	15.28
435.595	15.04
435.799	14.59
436.004	14.12
436.209	14.31
436.413	14.23
436.618	14.24
436.822	14.4
437.027	14.68
437.231	14.32
437.436	13.99
437.64	14.16
437.845	14.03
438.049	13.93
438.253	14.14
438.458	14.24
438.662	14.37
438.867	14.54
439.071	14.3
439.275	14.22
439.48	14.26
439.684	14.5
439.888	14.47
440.093	14.67
440.297	14.72
440.501	14.73
440.706	14.78
440.91	14.54
441.114	14.53
441.318	14.63
441.523	14.58
441.727	14.72
441.931	14.77
442.135	14.55
442.339	14.39
442.543	14.37
442.748	14.48
442.952	14.49
443.156	14.68
443.36	14.69
443.564	14.73
443.768	14.9
443.972	14.97
444.176	14.89
444.38	14.9
444.584	14.93
444.788	15.04
444.992	15.01
445.196	14.57
445.4	14.63
445.604	14.31
445.808	14.3
446.012	13.89
446.216	13.92
446.42	13.77
446.624	14.02
446.828	14.08
447.032	13.87
447.235	13.86
447.439	13.87
447.643	13.9
447.847	14.47
448.051	14.72
448.254	14.96
448.458	15.01
448.662	14.86
448.866	14.59
449.069	14.62
449.273	14.9
449.477	14.97
449.681	15.21
449.884	14.87
450.088	14.36
450.292	14.06
450.495	14.08
450.699	14.13
450.902	14.14
451.106	14.07
451.31	13.91
451.513	14.02
451.717	14.07
