Data from JASIL_3049_Reflection_02.txt Node
Date: Mon Nov 09 11:17:29 EST 2015
User: Geneva
Spectrometer: USB4E03002
Autoset integration time: false
Trigger mode: 4
Integration Time (sec): 1.000000E-1
Scans to average: 10
Electric dark correction enabled: false
Nonlinearity correction enabled: false
Boxcar width: 5
Stray light correction enabled: false
XAxis mode: Wavelengths
Stop averaging: false
Number of Pixels in Spectrum: 3648
>>>>>Begin Spectral Data<<<<<
177.575	323.48
177.794	4122.22
178.014	-43700
178.233	-824.53
178.452	-433.77
178.672	-2152.94
178.891	1022.22
179.11	458.9
179.33	365.62
179.549	-2700
179.768	-1037.5
179.987	-101.83
180.207	-3585.71
180.426	658.82
180.645	139.66
180.864	243.45
181.084	246.32
181.303	-23500
181.522	-171.15
181.741	-253.95
181.96	-44.44
182.179	21.59
182.398	-10.16
182.618	1.73
182.837	-3.56
183.056	9.33
183.275	12.05
183.494	9.2
183.713	6.35
183.932	27.95
184.151	23.42
184.37	28.79
184.589	179.66
184.808	97.27
185.027	170.79
185.246	116.85
185.465	198.13
185.684	-113.24
185.903	-157.58
186.122	-3.21
186.341	-23.35
186.56	6.12
186.779	31.42
186.998	36.48
187.216	39.07
187.435	72.95
187.654	70.32
187.873	81.3
188.092	111.11
188.311	129.94
188.53	209.03
188.748	141.76
188.967	153.9
189.186	118.07
189.405	114.5
189.623	156.35
189.842	43.9
190.061	68.1
190.28	23.56
190.498	2.46
190.717	-44.21
190.936	-64.33
191.154	-98.86
191.373	-7300
191.592	6100
191.81	-105
192.029	86.54
192.248	-86.81
192.466	-24.39
192.685	31.82
192.904	1310.53
193.122	341.82
193.341	338.98
193.559	-942.11
193.778	-248.68
193.996	-3060
194.215	111.72
194.433	419.05
194.652	142.86
194.87	119.28
195.089	-51.72
195.307	-404.84
195.526	-885.71
195.744	-42.05
195.963	-800
196.181	-277.22
196.399	-146.15
196.618	-305.3
196.836	-201.69
197.055	-100.97
197.273	-103.47
197.491	-103.67
197.71	-142.7
197.928	-69.64
198.146	-94.41
198.365	-22.03
198.583	119.71
198.801	-174.14
199.019	59.8
199.238	13.92
199.456	32.35
199.674	-6.86
199.892	11.16
200.111	-21.43
200.329	21.81
200.547	227.66
200.765	295
200.983	9.09
201.202	608.33
201.42	-60.38
201.638	-47.92
201.856	16.18
202.074	22.79
202.292	22.97
202.51	-15.38
202.728	44.48
202.946	40.91
203.165	71.17
203.383	102.5
203.601	187.5
203.819	103.57
204.037	117.81
204.255	70.36
204.473	80.72
204.691	214.63
204.909	-590.63
205.127	327.59
205.345	95.59
205.562	82.84
205.78	470.37
205.998	-642.11
206.216	-95.12
206.434	61.11
206.652	24.37
206.87	-32.5
207.088	-17.36
207.306	-408.33
207.523	32.04
207.741	7.17
207.959	-18.46
208.177	-37.08
208.395	-1323.08
208.612	27.2
208.83	64.79
209.048	122.41
209.266	38.89
209.483	-124.59
209.701	439.71
209.919	-96.64
210.136	-103.03
210.354	-498.73
210.572	-459.05
210.79	-447.37
211.007	416.26
211.225	-350.55
211.442	-234.78
211.66	-89.58
211.878	-52.46
212.095	-19.82
212.313	-216.44
212.53	-137.18
212.748	-44.12
212.966	-59.43
213.183	147.24
213.401	-167.57
213.618	194.85
213.836	106.94
214.053	74.78
214.271	96.71
214.488	149.53
214.705	268.57
214.923	-12.03
215.14	37.32
215.358	29.19
215.575	26.88
215.793	12.74
216.01	-4.39
216.227	-9.25
216.445	-59.35
216.662	-125.62
216.879	-255.65
217.097	-185.29
217.314	-17.82
217.531	24
217.749	-12.35
217.966	35.71
218.183	112.11
218.4	281.69
218.618	-10633.33
218.835	-225.32
219.052	-381.25
219.269	-109.84
219.487	-13.33
219.704	-198.06
219.921	-256.25
220.138	460.24
220.355	-3650
220.572	-866.67
220.79	43.37
221.007	-307.46
221.224	-162.77
221.441	-350.67
221.658	-185.51
221.875	-38.21
222.092	-136.08
222.309	-15.52
222.526	-2344.44
222.743	-581.82
222.96	372.83
223.177	-2256.25
223.394	-1223.08
223.611	451.16
223.828	444.94
224.045	428.42
224.262	353.75
224.479	-341.51
224.696	1252.63
224.913	-32.93
225.13	-39.94
225.347	32.28
225.564	52.14
225.781	70.74
225.997	52.91
226.214	69.07
226.431	44.57
226.648	32.1
226.865	21.66
227.082	10.51
227.298	13.23
227.515	11.79
227.732	3.19
227.949	2.78
228.165	3.49
228.382	2.51
228.599	-5.39
228.816	-12.71
229.032	-14.89
229.249	-13.99
229.466	-8.09
229.682	-16.01
229.899	-16.92
230.116	-21.84
230.332	-28.52
230.549	-73.04
230.765	-88.69
230.982	-65.02
231.199	-48.89
231.415	-73.48
231.632	-77.07
231.848	-38.95
232.065	-1.72
232.281	8.24
232.498	11.39
232.714	-5.81
232.931	10.79
233.147	-8.38
233.364	-4.12
233.58	-8.67
233.797	6.29
234.013	-8.51
234.23	-26.57
234.446	-33.2
234.662	-19.73
234.879	-22.11
235.095	-24.21
235.312	-11.96
235.528	12.15
235.744	2.88
235.961	-11.78
236.177	-39.78
236.393	-6.48
236.61	5.99
236.826	10.14
237.042	-10.26
237.258	-7.46
237.475	1.21
237.691	-15.14
237.907	-51.68
238.123	-34.37
238.339	-8.9
238.556	3.57
238.772	-5.2
238.988	-5.25
239.204	-5.94
239.42	-1.8
239.636	-2.24
239.853	2.97
240.069	5.28
240.285	12.2
240.501	8.41
240.717	5.11
240.933	0.18
241.149	-4.53
241.365	-5.29
241.581	-3.78
241.797	-2.65
242.013	-3.61
242.229	-4.62
242.445	3.39
242.661	1.09
242.877	7.4
243.093	6.93
243.309	9.58
243.525	15.46
243.741	15.69
243.957	13.22
244.173	11.23
244.388	15.12
244.604	13.28
244.82	5.93
245.036	5.84
245.252	3.28
245.468	5.12
245.683	7.32
245.899	5.93
246.115	4.18
246.331	2.07
246.547	1.97
246.762	2.04
246.978	1.77
247.194	2.59
247.409	2.9
247.625	4.75
247.841	3.11
248.057	-1.55
248.272	-0
248.488	1.97
248.703	4.33
248.919	2.36
249.135	-1.94
249.35	-11.93
249.566	-14.95
249.782	-22.14
249.997	-21.12
250.213	-17.38
250.428	-13.97
250.644	-14.13
250.859	-16.46
251.075	-19.08
251.29	-14.71
251.506	-12.4
251.721	-7.36
251.937	-8.93
252.152	-2.14
252.368	-6.05
252.583	-5.27
252.798	-6.48
253.014	3.66
253.229	12.46
253.445	17.87
253.66	10.78
253.875	11.66
254.091	4.25
254.306	4.77
254.521	-0.72
254.737	2.42
254.952	-2.3
255.167	4.89
255.383	-9.91
255.598	-7.36
255.813	-13.89
256.028	-5.98
256.244	-8.76
256.459	0.24
256.674	2.68
256.889	4.12
257.104	3.7
257.32	5.84
257.535	1.38
257.75	4.12
257.965	2.81
258.18	4.33
258.395	2.09
258.61	4.71
258.826	3.02
259.041	4.58
259.256	3.2
259.471	3.29
259.686	3.16
259.901	7.44
260.116	7.38
260.331	6.11
260.546	4.26
260.761	7.11
260.976	3.41
261.191	3.48
261.406	-1.77
261.621	2.49
261.836	1.28
262.05	1.63
262.265	-7.22
262.48	-9.53
262.695	-3.6
262.91	-5.87
263.125	-8.39
263.34	-7.48
263.555	2.39
263.769	2.41
263.984	-4.19
264.199	-5.04
264.414	-4.65
264.629	-1.97
264.843	-2.4
265.058	-4.85
265.273	1.89
265.488	3.68
265.702	5.25
265.917	0.77
266.132	4.01
266.346	4.88
266.561	8.98
266.776	8.95
266.99	8.71
267.205	7.55
267.42	5.92
267.634	1.76
267.849	-3.04
268.063	-4.26
268.278	-6.49
268.492	-8.46
268.707	-5.96
268.922	-8.28
269.136	-10.53
269.351	-9.03
269.565	-5.95
269.78	-4.05
269.994	-0.09
270.209	6.65
270.423	5.43
270.637	7.26
270.852	3.93
271.066	1.92
271.281	2.87
271.495	4.1
271.709	4.36
271.924	4.69
272.138	5.02
272.353	2.97
272.567	-2.52
272.781	-0.88
272.996	-2.57
273.21	1.6
273.424	3.32
273.638	1.18
273.853	-2.93
274.067	-3.11
274.281	0.62
274.495	-0.93
274.71	0.86
274.924	7.91
275.138	4.77
275.352	5.78
275.566	6.9
275.781	7.85
275.995	7.53
276.209	10.61
276.423	7.1
276.637	4.53
276.851	2.95
277.065	3.71
277.279	-0.94
277.493	2.97
277.707	1.25
277.921	-1.75
278.135	-1.67
278.349	-1.41
278.563	-1.73
278.777	3.64
278.991	1.89
279.205	0.45
279.419	0.42
279.633	-0.84
279.847	-1.06
280.061	1.73
280.275	0.96
280.489	0.8
280.703	3.41
280.917	0.54
281.131	1.78
281.344	2.53
281.558	4.82
281.772	3.09
281.986	2.4
282.2	3.64
282.414	2.81
282.627	3.1
282.841	2.46
283.055	0.71
283.269	3.02
283.482	-0.37
283.696	-4.57
283.91	-3.05
284.123	-3.72
284.337	-2.42
284.551	-3.32
284.764	-4.65
284.978	-3.05
285.192	-2.28
285.405	-3.95
285.619	-2.61
285.833	-3.74
286.046	0.03
286.26	-0.62
286.473	0.21
286.687	-0.64
286.9	-3.55
287.114	-3
287.327	-4.37
287.541	-4.02
287.754	-2.87
287.968	-2.83
288.181	-0.92
288.395	-0.62
288.608	1.15
288.822	2.56
289.035	6.16
289.248	8.32
289.462	9.68
289.675	10.54
289.889	9.03
290.102	7.39
290.315	5.93
290.529	6.37
290.742	4.09
290.955	3.96
291.169	-0.58
291.382	-3.31
291.595	-3.78
291.808	-1.71
292.022	-0.44
292.235	-1.66
292.448	2.05
292.661	1.24
292.875	-0.63
293.088	0.88
293.301	-1.67
293.514	3.3
293.727	4.71
293.94	6.37
294.153	1.04
294.367	0.91
294.58	0.54
294.793	-0.45
295.006	-0.31
295.219	0.5
295.432	0.11
295.645	1.19
295.858	-0.38
296.071	-0.61
296.284	-1.01
296.497	1.33
296.71	-0.99
296.923	0.53
297.136	-0.33
297.349	1.34
297.562	-1.53
297.775	-0.49
297.988	0.5
298.201	1.26
298.414	-0.43
298.626	-2.6
298.839	-4.21
299.052	-0.4
299.265	1.19
299.478	1.31
299.691	0.31
299.903	1.29
300.116	4.38
300.329	2.63
300.542	1.6
300.755	1.13
300.967	2.86
301.18	4.22
301.393	1.61
301.605	0.2
301.818	3.76
302.031	0.55
302.243	6.26
302.456	1.97
302.669	3.01
302.881	4.53
303.094	4.89
303.307	4.43
303.519	3.06
303.732	4.97
303.944	4.42
304.157	2.58
304.37	6.63
304.582	3.98
304.795	5.73
305.007	4.9
305.22	2.3
305.432	3.87
305.645	3.45
305.857	3.09
306.069	3.09
306.282	3.46
306.494	5.35
306.707	3.93
306.919	6.81
307.132	2.55
307.344	6.24
307.556	8.31
307.769	8.9
307.981	9.4
308.193	11.65
308.406	9.74
308.618	10.37
308.83	8.25
309.043	9.09
309.255	9.25
309.467	14.93
309.679	11.55
309.892	10.71
310.104	10.83
310.316	10.82
310.528	9.42
310.74	11.45
310.953	13.19
311.165	14.08
311.377	13.84
311.589	11.72
311.801	8.42
312.013	6.85
312.225	6.09
312.437	5.55
312.649	5.78
312.862	6.95
313.074	5.62
313.286	4.17
313.498	5.89
313.71	8.38
313.922	8.23
314.134	8.82
314.346	9.64
314.558	10.31
314.77	9.82
314.982	8.94
315.193	8.78
315.405	8.88
315.617	9.52
315.829	11.47
316.041	8.59
316.253	11.07
316.465	10.52
316.677	12.9
316.888	14.47
317.1	11.82
317.312	13.64
317.524	16.68
317.736	18.73
317.947	19.24
318.159	17.6
318.371	18.52
318.583	16.6
318.794	18.11
319.006	17.04
319.218	14.23
319.43	14.17
319.641	12.15
319.853	10.13
320.064	9.11
320.276	7.84
320.488	5.38
320.699	6.11
320.911	3.69
321.123	3.03
321.334	2
321.546	5.51
321.757	7.71
321.969	7.82
322.18	6.1
322.392	4.64
322.603	2.28
322.815	3.53
323.026	3.08
323.238	2.84
323.449	4.54
323.661	5.76
323.872	4.52
324.083	4.46
324.295	4.39
324.506	3.25
324.718	2.69
324.929	3.88
325.14	3.84
325.352	4.61
325.563	6.98
325.774	4.01
325.986	4.62
326.197	4.51
326.408	7.07
326.62	6.62
326.831	6.74
327.042	9.28
327.253	6.57
327.464	7.13
327.676	7.98
327.887	8.65
328.098	10.32
328.309	9.43
328.52	9.81
328.732	8.48
328.943	12.63
329.154	13.29
329.365	11.87
329.576	14.12
329.787	13.44
329.998	12.45
330.209	11.95
330.42	8.43
330.631	8.53
330.842	8.47
331.053	5.75
331.264	3.86
331.475	3.61
331.686	6.66
331.897	9.57
332.108	8.82
332.319	10.15
332.53	10.02
332.741	12.69
332.952	14.12
333.163	14.93
333.374	16.69
333.585	17.78
333.795	18.18
334.006	14.69
334.217	14.17
334.428	15.5
334.639	13.15
334.849	13.04
335.06	13.48
335.271	10.43
335.482	7.98
335.692	8.34
335.903	8.32
336.114	7.51
336.325	9
336.535	8.9
336.746	8.38
336.957	8.74
337.167	8.15
337.378	9.87
337.589	10.37
337.799	13.29
338.01	12.1
338.22	8.61
338.431	7.03
338.642	5.84
338.852	4.95
339.063	6.78
339.273	7.59
339.484	9.38
339.694	8.83
339.905	11.73
340.115	12.47
340.326	12.94
340.536	16.54
340.746	18.96
340.957	19.66
341.167	21.36
341.378	18.5
341.588	18.75
341.799	18.79
342.009	17.87
342.219	18.65
342.43	16.6
342.64	16.69
342.85	13.84
343.061	12.71
343.271	14.56
343.481	15.06
343.691	16.18
343.902	15.96
344.112	16.8
344.322	17.52
344.532	15.11
344.743	13.99
344.953	12
345.163	13.39
345.373	15.25
345.583	11.67
345.793	11.08
346.004	9.41
346.214	9.93
346.424	3.25
346.634	1.5
346.844	3.33
347.054	4.74
347.264	7.73
347.474	8.19
347.684	7.26
347.894	8.32
348.104	8.08
348.314	9.87
348.524	8.68
348.734	14.98
348.944	14.98
349.154	15.89
349.364	13.93
349.574	13.72
349.784	15.11
349.994	14.57
350.204	14.02
350.413	13.94
350.623	15.23
350.833	15.79
351.043	12.67
351.253	15.25
351.463	11.54
351.672	14
351.882	13.47
352.092	11.66
352.302	11.53
352.511	12.78
352.721	9.82
352.931	6.74
353.141	6.27
353.35	4.14
353.56	2.3
353.77	3.98
353.979	3.99
354.189	4.19
354.399	3.95
354.608	5.56
354.818	5.23
355.027	7.18
355.237	8.68
355.447	8.57
355.656	10.82
355.866	11.8
356.075	12.14
356.285	12.87
356.494	12.82
356.704	13.09
356.913	10.53
357.123	11.11
357.332	11.75
357.542	12.51
357.751	14.23
357.96	13.45
358.17	11.85
358.379	10.53
358.589	8.06
358.798	7.25
359.007	7.47
359.217	10.08
359.426	10.03
359.635	10.71
359.845	11.38
360.054	12.07
360.263	12.65
360.472	13.83
360.682	15.5
360.891	17.14
361.1	17.36
361.309	17.51
361.519	16.79
361.728	17.31
361.937	16.35
362.146	14.91
362.355	11.41
362.564	12.01
362.774	12.17
362.983	11.84
363.192	11.5
363.401	11.15
363.61	10.65
363.819	10.82
364.028	10.86
364.237	11.91
364.446	11.55
364.655	12.76
364.864	11.59
365.073	10.77
365.282	9.78
365.491	9.52
365.7	10.59
365.909	10.39
366.118	11.34
366.327	8.84
366.536	7.65
366.745	8.01
366.954	8.32
367.162	9.47
367.371	9.12
367.58	9.45
367.789	8.65
367.998	8.29
368.207	9.52
368.415	8.9
368.624	10.5
368.833	11.34
369.042	11.52
369.25	12.79
369.459	12.24
369.668	12.39
369.877	11.88
370.085	13.94
370.294	13.08
370.503	12.46
370.711	12.07
370.92	11.74
371.129	12.21
371.337	12.67
371.546	12.08
371.754	11.87
371.963	12.84
372.171	14.38
372.38	12.73
372.589	12.27
372.797	12.08
373.006	13.05
373.214	13.88
373.423	13.21
373.631	14.22
373.84	13.43
374.048	12.4
374.256	13.61
374.465	11.59
374.673	11.39
374.882	13.22
375.09	12.55
375.298	12.23
375.507	11.87
375.715	13.26
375.923	10.55
376.132	11.36
376.34	12.92
376.548	11.71
376.757	13.53
376.965	13.99
377.173	12.52
377.381	12.46
377.59	13.06
377.798	14.58
378.006	11.43
378.214	13.65
378.423	13.8
378.631	11.47
378.839	10.14
379.047	9.36
379.255	11.07
379.463	12.16
379.671	12.94
379.879	11.66
380.088	11.65
380.296	12.12
380.504	11.42
380.712	11.59
380.92	13.29
381.128	13.69
381.336	14.31
381.544	11.4
381.752	12.39
381.96	14.02
382.168	13.22
382.376	12.43
382.584	12.53
382.791	13.76
382.999	13.14
383.207	11.57
383.415	10.53
383.623	9.7
383.831	10.9
384.039	9.87
384.247	8.98
384.454	10.64
384.662	8.45
384.87	8.03
385.078	6.77
385.285	6
385.493	7.81
385.701	9.76
385.909	8.65
386.116	8.56
386.324	8.68
386.532	6.94
386.739	5.3
386.947	7.17
387.155	8.29
387.362	9.4
387.57	11.23
387.778	10.58
387.985	10.01
388.193	9.95
388.4	10.6
388.608	11.59
388.816	12.6
389.023	12.27
389.231	11.67
389.438	10.73
389.646	10.36
389.853	9.37
390.061	8.78
390.268	9.14
390.475	9.9
390.683	9.68
390.89	8.31
391.098	7.31
391.305	7.83
391.512	7.71
391.72	9.06
391.927	8.9
392.135	8.66
392.342	9.69
392.549	9.66
392.756	10.05
392.964	9.32
393.171	9.26
393.378	9.6
393.586	9.17
393.793	10.68
394	10.87
394.207	10.44
394.414	10.55
394.622	10.28
394.829	9.75
395.036	8.84
395.243	8.87
395.45	9.58
395.657	9.5
395.864	10.09
396.072	10.31
396.279	9.49
396.486	9.96
396.693	11.41
396.9	11.18
397.107	10.75
397.314	10.38
397.521	11.75
397.728	12.4
397.935	13.3
398.142	13.3
398.349	12.28
398.556	13.31
398.763	13.88
398.97	13.28
399.177	13.13
399.383	12.5
399.59	13.5
399.797	12.39
400.004	12.17
400.211	11.24
400.418	11.59
400.625	13.18
400.831	12.7
401.038	12.92
401.245	12.46
401.452	13.06
401.658	14.11
401.865	14.55
402.072	15.53
402.279	15.58
402.485	17.41
402.692	17.51
402.899	15.77
403.105	14.82
403.312	13.96
403.519	14.5
403.725	14.31
403.932	15.13
404.138	14.34
404.345	14.01
404.552	13.96
404.758	13.13
404.965	13.6
405.171	14.35
405.378	14.3
405.584	14.57
405.791	14.25
405.997	15.58
406.204	14.47
406.41	15.71
406.617	15.17
406.823	15.8
407.029	14.32
407.236	14.14
407.442	13.61
407.649	14.77
407.855	14.13
408.061	13.83
408.268	11.81
408.474	12.7
408.68	13.16
408.887	12.94
409.093	12.4
409.299	13.24
409.505	13.23
409.712	13.19
409.918	12.93
410.124	13.32
410.33	13.31
410.537	13.04
410.743	13.35
410.949	12.44
411.155	12.99
411.361	12.09
411.567	12.9
411.773	12.28
411.98	12.11
412.186	11.76
412.392	13.55
412.598	13.96
412.804	15.29
413.01	14.36
413.216	15.2
413.422	15.08
413.628	16.36
413.834	16.63
414.04	16.81
414.246	17.03
414.452	18.19
414.658	16.75
414.864	16.97
415.07	17.29
415.275	17.87
415.481	17.8
415.687	17.71
415.893	17.24
416.099	17.51
416.305	17.82
416.511	18.01
416.716	17.42
416.922	17.76
417.128	17.45
417.334	17.9
417.539	17.78
417.745	16.56
417.951	16.29
418.157	16.08
418.362	15.63
418.568	16.16
418.774	15.82
418.979	16.02
419.185	15.8
419.391	15.84
419.596	15.18
419.802	15.39
420.008	16.1
420.213	12.49
420.419	12.62
420.624	12.81
420.83	12.28
421.035	12.62
421.241	12.11
421.446	12.24
421.652	12.39
421.857	12.19
422.063	11.69
422.268	11.71
422.474	15.84
422.679	15.96
422.885	15.59
423.09	15.44
423.295	15.63
423.501	16.22
423.706	16.59
423.911	16.44
424.117	16.57
424.322	17.24
424.527	17.4
424.733	17.69
424.938	17.6
425.143	18.2
425.349	18.35
425.554	18.09
425.759	17.91
425.964	17.21
426.169	17.69
426.375	18.14
426.58	17.66
426.785	17.25
426.99	16.71
427.195	16.23
427.4	15.04
427.605	15.3
427.811	15.57
428.016	15.81
428.221	16.45
428.426	16.78
428.631	16.6
428.836	16.55
429.041	16.55
429.246	16.76
429.451	17.62
429.656	18.46
429.861	18.59
430.066	19.45
430.271	19.12
430.476	18.72
430.681	18.04
430.886	17.36
431.09	17.87
431.295	17.98
431.5	18.35
431.705	18.1
431.91	17.72
432.115	17.02
432.32	16.3
432.524	16.08
432.729	15.66
432.934	15.46
433.139	16.26
433.343	15.9
433.548	15.42
433.753	14.54
433.958	14.55
434.162	15.75
434.367	16.63
434.572	16.21
434.776	16.22
434.981	16.41
435.186	16.6
435.39	16.59
435.595	16.74
435.799	17.78
436.004	17.85
436.209	17.91
436.413	17.13
436.618	17.3
436.822	17.63
437.027	17.26
437.231	17.09
437.436	16.91
437.64	16.89
437.845	16.39
438.049	15.94
438.253	16.13
438.458	16.18
438.662	15.57
438.867	14.68
439.071	14.53
439.275	14.45
439.48	14.99
439.684	14.88
439.888	14.89
440.093	15.52
440.297	15.41
440.501	15.87
440.706	15.58
440.91	15.62
441.114	16.19
441.318	16.09
441.523	16.38
441.727	15.59
441.931	15.46
442.135	15.28
442.339	14.89
442.543	14.98
442.748	14.71
442.952	14.56
443.156	14.63
443.36	14.38
443.564	14.08
443.768	14.35
443.972	14.81
444.176	15.48
444.38	15.42
444.584	15.44
444.788	15.17
444.992	15.52
445.196	15.97
445.4	16.17
445.604	16.44
445.808	16.38
446.012	16.35
446.216	16.51
446.42	16.63
446.624	16.79
446.828	16.83
447.032	17.53
447.235	17.08
447.439	16.68
447.643	17.04
447.847	17.2
448.051	17.26
448.254	17.37
448.458	17.49
448.662	16.84
448.866	17.31
449.069	17.64
449.273	17.42
449.477	17.7
449.681	18.24
449.884	17.87
450.088	17.48
450.292	18.3
450.495	17.89
450.699	17.41
450.902	17.6
451.106	17.26
451.31	16.86
451.513	17.38
451.717	17.52
451.92	16.92
452.124	16.8
452.327	16.86
452.531	16.83
452.734	17.5
452.938	18.76
453.141	18.88
453.345	18.54
453.548	18.36
453.752	17.49
453.955	17.05
454.158	17.34
454.362	17.47
454.565	17.6
454.769	17.55
454.972	16.91
455.175	15.61
455.379	15.58
455.582	16.34
455.785	16.83
455.988	16.99
456.192	17.07
456.395	17.15
456.598	16.97
456.801	17.43
457.005	17.55
457.208	17.92
457.411	18.01
457.614	17.91
457.817	17.08
458.021	17.11
458.224	16.96
458.427	16.83
