Data from JASIL_3084_Reflection_01.txt Node
Date: Mon Nov 09 12:02:34 EST 2015
User: Geneva
Spectrometer: USB4E03002
Autoset integration time: false
Trigger mode: 4
Integration Time (sec): 1.000000E-1
Scans to average: 10
Electric dark correction enabled: false
Nonlinearity correction enabled: false
Boxcar width: 5
Stray light correction enabled: false
XAxis mode: Wavelengths
Stop averaging: false
Number of Pixels in Spectrum: 3648
>>>>>Begin Spectral Data<<<<<
177.575	210.24
177.794	-1121.05
178.014	491.84
178.233	221.39
178.452	248.55
178.672	236.36
178.891	167.95
179.11	330.21
179.33	169.27
179.549	124.1
179.768	164.06
179.987	120.57
180.207	103.17
180.426	122.87
180.645	167.72
180.864	134.24
181.084	144.83
181.303	247.39
181.522	238.37
181.741	4000
181.96	-281.58
182.179	-553.85
182.398	-172.49
182.618	-115.99
182.837	-192.86
183.056	-199.47
183.275	-1313.89
183.494	304.35
183.713	5875
183.932	1100
184.151	119.61
184.37	37.53
184.589	53.96
184.808	42.97
185.027	19.39
185.246	11.26
185.465	22.45
185.684	61.69
185.903	338.3
186.122	405.66
186.341	262.79
186.56	415.79
186.779	-161.97
186.998	-344.94
187.216	-1116
187.435	-168.84
187.654	4614.29
187.873	664.71
188.092	251
188.311	149.59
188.53	211.52
188.748	177.27
188.967	156.04
189.186	143.53
189.405	124.72
189.623	138.6
189.842	161.64
190.061	221.79
190.28	303.23
190.498	1074.24
190.717	474.44
190.936	270
191.154	269.29
191.373	483.48
191.592	451.75
191.81	829.89
192.029	343.66
192.248	260.38
192.466	202.74
192.685	169.69
192.904	134.74
193.122	139.43
193.341	122.18
193.559	126.3
193.778	136.49
193.996	172.65
194.215	178.34
194.433	167.8
194.652	123.57
194.87	141.08
195.089	215.54
195.307	500
195.526	662.96
195.744	1111.43
195.963	320.28
196.181	530.11
196.399	152.43
196.618	164.96
196.836	151.79
197.055	205.65
197.273	232.76
197.491	163.75
197.71	113.08
197.928	123.99
198.146	127.27
198.365	133.49
198.583	126.9
198.801	131.42
199.019	145.14
199.238	312.96
199.456	366.06
199.674	977.08
199.892	-4709.09
200.111	-719.48
200.329	24333.33
200.547	415.91
200.765	257.35
200.983	223.48
201.202	277.14
201.42	220.41
201.638	156.77
201.856	132.69
202.074	91.19
202.292	92.88
202.51	97.83
202.728	75.84
202.946	93.51
203.165	88.33
203.383	99.4
203.601	70.82
203.819	54.99
204.037	65.7
204.255	61.23
204.473	122.96
204.691	97.38
204.909	78.8
205.127	76.67
205.345	50.91
205.562	78.05
205.78	73.41
205.998	87.82
206.216	133.11
206.434	103.61
206.652	114.54
206.87	103.66
207.088	83.51
207.306	78.59
207.523	92.2
207.741	133.59
207.959	715.15
208.177	-434.38
208.395	984.38
208.612	3411.11
208.83	429.27
209.048	342.72
209.266	12600
209.483	-584.09
209.701	-175.98
209.919	-127.46
210.136	-197.25
210.354	1135.48
210.572	1290.2
210.79	-458.26
211.007	-639.06
211.225	-230.29
211.442	-76.67
211.66	-111.24
211.878	-36.53
212.095	-246.77
212.313	235.9
212.53	627.27
212.748	-115.56
212.966	-171.43
213.183	1183.33
213.401	-39.86
213.618	54.75
213.836	17.76
214.053	-4.51
214.271	-192.31
214.488	2.8
214.705	1.2
214.923	12.46
215.14	36.96
215.358	29.52
215.575	40.37
215.793	-20.9
216.01	-154.2
216.227	-36.59
216.445	32.38
216.662	74.88
216.879	-39.1
217.097	-18.79
217.314	-168.75
217.531	452.27
217.749	1171.87
217.966	-3940
218.183	40000
218.4	-250.93
218.618	373.53
218.835	-1520.59
219.052	-293.6
219.269	-207.04
219.487	-200.57
219.704	-1512
219.921	-159.09
220.138	127.19
220.355	329.03
220.572	111.27
220.79	123.56
221.007	139.46
221.224	94.92
221.441	45.86
221.658	26.32
221.875	39.25
222.092	36.25
222.309	98.02
222.526	101.27
222.743	86.97
222.96	85.29
223.177	49.22
223.394	47.45
223.611	59.97
223.828	69.04
224.045	80.83
224.262	70.95
224.479	71.97
224.696	62.98
224.913	65.5
225.13	41.68
225.347	58.02
225.564	58.19
225.781	52.59
225.997	47.95
226.214	54.29
226.431	54.1
226.648	56.38
226.865	41.44
227.082	35.11
227.298	25.06
227.515	32.57
227.732	26.67
227.949	32.8
228.165	33.86
228.382	33.32
228.599	31.92
228.816	27.78
229.032	26.58
229.249	27.75
229.466	28.5
229.682	38.15
229.899	27.73
230.116	29.12
230.332	20.49
230.549	14.81
230.765	14.94
230.982	5.91
231.199	2
231.415	5.05
231.632	19.55
231.848	20.45
232.065	28.65
232.281	25.51
232.498	13.35
232.714	9.77
232.931	16.56
233.147	12.18
233.364	15.3
233.58	16.44
233.797	9.98
234.013	5.5
234.23	-7.93
234.446	-4.56
234.662	14.89
234.879	15.37
235.095	17.69
235.312	11.9
235.528	22.37
235.744	15.38
235.961	6.78
236.177	11.72
236.393	11.31
236.61	22.77
236.826	8.15
237.042	-15.12
237.258	-11.78
237.475	-21.68
237.691	-17.46
237.907	-22.52
238.123	-15.36
238.339	-1.85
238.556	-0.24
238.772	10.53
238.988	12.15
239.204	17.52
239.42	21.28
239.636	35.97
239.853	31.64
240.069	24.55
240.285	27.02
240.501	24.25
240.717	21.44
240.933	20.12
241.149	17.31
241.365	18.61
241.581	13.9
241.797	15.71
242.013	10.36
242.229	12.27
242.445	14.27
242.661	10.65
242.877	10.1
243.093	10.39
243.309	8.75
243.525	9.55
243.741	5.83
243.957	6.9
244.173	2.34
244.388	5.04
244.604	4.52
244.82	7.22
245.036	9.62
245.252	11.6
245.468	9.51
245.683	9.26
245.899	11.11
246.115	11.68
246.331	13.33
246.547	13.87
246.762	14.25
246.978	15.99
247.194	13.44
247.409	10.9
247.625	10.81
247.841	12.19
248.057	16.34
248.272	13.42
248.488	9.84
248.703	5.29
248.919	9.31
249.135	5.15
249.35	-0.43
249.566	8.33
249.782	3.02
249.997	-3.64
250.213	-1.13
250.428	-8.03
250.644	-5.26
250.859	1.49
251.075	5.48
251.29	0.62
251.506	4.15
251.721	8.08
251.937	5.75
252.152	10.41
252.368	13.17
252.583	14.93
252.798	15.29
253.014	17.27
253.229	16.41
253.445	9.67
253.66	10.6
253.875	7.14
254.091	1.34
254.306	6.4
254.521	4.13
254.737	4.04
254.952	3.47
255.167	11.26
255.383	14.3
255.598	17.22
255.813	22.25
256.028	24.6
256.244	23.51
256.459	25.87
256.674	19.73
256.889	20.11
257.104	16.34
257.32	15.64
257.535	12.48
257.75	7.02
257.965	3.25
258.18	2.56
258.395	-0.34
258.61	1.79
258.826	1.67
259.041	2.61
259.256	1.7
259.471	1.17
259.686	-0.18
259.901	1.26
260.116	3.23
260.331	2.53
260.546	2.47
260.761	7.77
260.976	6.04
261.191	6.3
261.406	6.92
261.621	7.04
261.836	13.62
262.05	13.42
262.265	12.94
262.48	13.25
262.695	18.58
262.91	20.72
263.125	19.15
263.34	17.51
263.555	16.44
263.769	16.52
263.984	17.05
264.199	11.36
264.414	12.11
264.629	9.39
264.843	9.23
265.058	4.91
265.273	6.72
265.488	2.76
265.702	1.65
265.917	4.34
266.132	3.47
266.346	6.03
266.561	8.72
266.776	14.09
266.99	11.54
267.205	12.73
267.42	12.36
267.634	6.63
267.849	10.85
268.063	11.04
268.278	9.57
268.492	8.72
268.707	7.21
268.922	5.86
269.136	-3.28
269.351	3.07
269.565	4.89
269.78	9.2
269.994	12.5
270.209	10.51
270.423	14.69
270.637	13.97
270.852	13.06
271.066	15.74
271.281	16.18
271.495	17.72
271.709	14.9
271.924	10.4
272.138	7.63
272.353	8.97
272.567	10.11
272.781	6.8
272.996	9.58
273.21	10.53
273.424	5.12
273.638	2.97
273.853	4.39
274.067	3.18
274.281	4.42
274.495	7.65
274.71	8.34
274.924	6.64
275.138	4.7
275.352	-3.22
275.566	-1.54
275.781	-1.58
275.995	1.48
276.209	4.08
276.423	8.23
276.637	9.89
276.851	4.42
277.065	4.98
277.279	4.39
277.493	4.19
277.707	8.44
277.921	7.07
278.135	10.12
278.349	9.32
278.563	5.6
278.777	7.39
278.991	6.31
279.205	9.22
279.419	3.09
279.633	1.99
279.847	2.49
280.061	4.56
280.275	4.68
280.489	6.93
280.703	5.85
280.917	8.52
281.131	5.25
281.344	6.58
281.558	3.79
281.772	4.99
281.986	7.08
282.2	8.89
282.414	4.45
282.627	5.23
282.841	0.71
283.055	0.89
283.269	0.32
283.482	2.12
283.696	3.65
283.91	6.97
284.123	7.23
284.337	7.17
284.551	5.44
284.764	7.37
284.978	5.7
285.192	6.95
285.405	9.23
285.619	7.3
285.833	7.96
286.046	8.62
286.26	6.74
286.473	6.73
286.687	5.47
286.9	8.45
287.114	6.95
287.327	7.85
287.541	8.5
287.754	6.64
287.968	8.06
288.181	6.63
288.395	4.9
288.608	5.98
288.822	6.98
289.035	6.25
289.248	6.54
289.462	7.81
289.675	7.24
289.889	8.18
290.102	7.66
290.315	8.64
290.529	6.52
290.742	5.81
290.955	7.19
291.169	9.22
291.382	10.67
291.595	7.32
291.808	7.49
292.022	7.53
292.235	4.62
292.448	5.67
292.661	4.57
292.875	7.53
293.088	8.27
293.301	8.18
293.514	6.11
293.727	7.28
293.94	9.07
294.153	9.82
294.367	11.11
294.58	11.75
294.793	10.72
295.006	9.47
295.219	8.43
295.432	7.94
295.645	9.46
295.858	8.27
296.071	9.69
296.284	7.94
296.497	7
296.71	7.12
296.923	6.98
297.136	7.62
297.349	8.74
297.562	9.87
297.775	9.53
297.988	8.42
298.201	6.75
298.414	5.28
298.626	6.17
298.839	8.42
299.052	6.55
299.265	7.75
299.478	8.03
299.691	6.28
299.903	6.11
300.116	4.73
300.329	1.76
300.542	5.01
300.755	4.77
300.967	4.49
301.18	3.46
301.393	3.84
301.605	2.89
301.818	0.77
302.031	3.86
302.243	3.45
302.456	3.94
302.669	6.16
302.881	8.07
303.094	5.89
303.307	8.09
303.519	8.91
303.732	7.32
303.944	8.13
304.157	9.57
304.37	7.86
304.582	6.39
304.795	8.06
305.007	5.78
305.22	4.14
305.432	6.81
305.645	4.69
305.857	2.46
306.069	4.25
306.282	2.83
306.494	2.08
306.707	-1.21
306.919	0.27
307.132	-1.22
307.344	2.32
307.556	1.43
307.769	-1.03
307.981	-0.56
308.193	-0.68
308.406	0.62
308.618	3.16
308.83	3.46
309.043	6.72
309.255	6.52
309.467	5.12
309.679	5.33
309.892	6.22
310.104	11.03
310.316	10.35
310.528	10.56
310.74	10.32
310.953	8.63
311.165	10.34
311.377	9.13
311.589	9.41
311.801	10.47
312.013	7.02
312.225	7.46
312.437	-0.02
312.649	0.11
312.862	0.38
313.074	-3.72
313.286	-2.18
313.498	-4.31
313.71	-2.68
313.922	-2.26
314.134	0.73
314.346	4.83
314.558	5.64
314.77	11.72
314.982	11.97
315.193	13.52
315.405	13.42
315.617	13.17
315.829	11.69
316.041	12.79
316.253	14.38
316.465	14.93
316.677	13.63
316.888	9.88
317.1	9.95
317.312	9.69
317.524	8.51
317.736	12.71
317.947	12.55
318.159	13.14
318.371	10.21
318.583	9.82
318.794	11.6
319.006	10.48
319.218	13.51
319.43	10.77
319.641	11.54
319.853	11.57
320.064	12.83
320.276	13.23
320.488	12.87
320.699	14.56
320.911	12.62
321.123	9.61
321.334	12.56
321.546	15.02
321.757	12.63
321.969	12.93
322.18	15.11
322.392	16.04
322.603	13.73
322.815	13.89
323.026	13.22
323.238	14.73
323.449	15.9
323.661	14.45
323.872	10.6
324.083	12.31
324.295	8.62
324.506	7.21
324.718	2.41
324.929	5.85
325.14	6.95
325.352	5.82
325.563	5.23
325.774	5.08
325.986	4.82
326.197	5.66
326.408	5.19
326.62	8.61
326.831	5.8
327.042	8.86
327.253	6.91
327.464	8.18
327.676	12.9
327.887	10.51
328.098	8.23
328.309	7.14
328.52	7.49
328.732	4.62
328.943	7.11
329.154	9.88
329.365	8.1
329.576	7.77
329.787	5.65
329.998	3.56
330.209	6.06
330.42	9.14
330.631	10.54
330.842	12.2
331.053	14.25
331.264	10.98
331.475	11.03
331.686	12.23
331.897	12.65
332.108	11.42
332.319	10.28
332.53	10.07
332.741	8.44
332.952	8.8
333.163	8.2
333.374	11.93
333.585	14.76
333.795	14.68
334.006	13.29
334.217	12.69
334.428	15.27
334.639	15.66
334.849	16.35
335.06	14.93
335.271	13.01
335.482	10.27
335.692	5.34
335.903	4.72
336.114	5.25
336.325	4.91
336.535	4.33
336.746	5.12
336.957	4.67
337.167	4.32
337.378	7.58
337.589	8.88
337.799	11.26
338.01	13.51
338.22	12.99
338.431	10.1
338.642	10.81
338.852	10.54
339.063	8.21
339.273	7.03
339.484	8.02
339.694	7.35
339.905	7.21
340.115	7.61
340.326	7.34
340.536	5.14
340.746	4.1
340.957	5.05
341.167	5.82
341.378	6.11
341.588	7.44
341.799	7.42
342.009	8.2
342.219	8.24
342.43	7.03
342.64	6.95
342.85	8.07
343.061	9.95
343.271	8.89
343.481	10.56
343.691	12.42
343.902	12.64
344.112	10.57
344.322	8.69
344.532	9.18
344.743	9.65
344.953	11.39
345.163	13.54
345.373	14.81
345.583	15.41
345.793	13.8
346.004	14.17
346.214	12.51
346.424	12.53
346.634	13.71
346.844	14.21
347.054	13.64
347.264	11.62
347.474	9.73
347.684	9.31
347.894	9.36
348.104	10.49
348.314	7.65
348.524	6.82
348.734	7.63
348.944	7.05
349.154	7.02
349.364	7.99
349.574	8.35
349.784	7.21
349.994	7.95
350.204	7.29
350.413	7.88
350.623	7.92
350.833	8.72
351.043	8.53
351.253	8.84
351.463	7.82
351.672	6.01
351.882	8.07
352.092	9.44
352.302	8.2
352.511	7.74
352.721	5.38
352.931	5.53
353.141	4.25
353.35	4.69
353.56	4.66
353.77	5.12
353.979	6.07
354.189	4.61
354.399	5.16
354.608	6.67
354.818	9.48
355.027	11.35
355.237	12.43
355.447	15.39
355.656	14.68
355.866	15.25
356.075	14.26
356.285	14.54
356.494	14.57
356.704	14.11
356.913	12.21
357.123	10.41
357.332	8.9
357.542	7.33
357.751	5.36
357.96	4.96
358.17	6.12
358.379	6.89
358.589	6.77
358.798	7.24
359.007	6.96
359.217	8.02
359.426	8.09
359.635	9.88
359.845	11.34
360.054	11.84
360.263	12.36
360.472	10.3
360.682	10.01
360.891	9.67
361.1	8.68
361.309	8.53
361.519	7.92
361.728	7.01
361.937	5.72
362.146	5.86
362.355	6.93
362.564	8.07
362.774	7.11
362.983	9.02
363.192	10.34
363.401	10.28
363.61	10.72
363.819	13.02
364.028	14.64
364.237	14.05
364.446	13.04
364.655	12
364.864	11.05
365.073	13.13
365.282	11.32
365.491	9.6
365.7	9.9
365.909	10.18
366.118	8.46
366.327	8.16
366.536	9.64
366.745	8.68
366.954	9.43
367.162	10.18
367.371	9.68
367.58	9.55
367.789	10.08
367.998	10.51
368.207	11.46
368.415	12.65
368.624	10.77
368.833	9.96
369.042	9.5
369.25	10.09
369.459	9.6
369.668	9.52
369.877	9.39
370.085	8.47
370.294	8.79
370.503	8.03
370.711	7.47
370.92	9.04
371.129	9.94
371.337	11.74
371.546	10.79
371.754	11.29
371.963	11.16
372.171	12.96
372.38	14.32
372.589	14.88
372.797	14.48
373.006	14.46
373.214	13.91
373.423	14.92
373.631	13.41
373.84	12.41
374.048	11.97
374.256	12.28
374.465	9.96
374.673	10.75
374.882	9.01
375.09	8.23
375.298	7.53
375.507	6.73
375.715	5.71
375.923	8.02
376.132	6.9
376.34	7.64
376.548	6.77
376.757	7.97
376.965	6.91
377.173	8.32
377.381	9
377.59	9.36
377.798	11.09
378.006	9.17
378.214	8.85
378.423	9.92
378.631	8.48
378.839	8.83
379.047	8.33
379.255	9.59
379.463	9.21
379.671	10.59
379.879	10.08
380.088	8.45
380.296	9.27
380.504	8.79
380.712	8.82
380.92	7.44
381.128	6.17
381.336	5.12
381.544	2.73
381.752	1.69
381.96	0.3
382.168	0.05
382.376	1.38
382.584	2.84
382.791	1.44
382.999	1.62
383.207	3.62
383.415	4.24
383.623	5.31
383.831	6.96
384.039	6.89
384.247	6.75
384.454	6.46
384.662	6.7
384.87	5.71
385.078	7.8
385.285	6.85
385.493	6.99
385.701	8.26
385.909	8.75
386.116	7.92
386.324	8.57
386.532	8.72
386.739	10.03
386.947	9.49
387.155	10
387.362	10.37
387.57	10.02
387.778	9.14
387.985	7.53
388.193	8.04
388.4	8.51
388.608	8.4
388.816	7.91
389.023	9.19
389.231	7.69
389.438	8.83
389.646	8.66
389.853	9.76
390.061	10.83
390.268	12.48
390.475	11.71
390.683	12.02
390.89	11.02
391.098	11.57
391.305	10.21
391.512	11.8
391.72	10.49
391.927	9.04
392.135	9.83
392.342	9.04
392.549	8.77
392.756	8.88
392.964	8.41
393.171	9.16
393.378	9.29
393.586	10.28
393.793	10.44
394	10.46
394.207	10.84
394.414	11.44
394.622	12.15
394.829	12.34
395.036	11.98
395.243	12.12
395.45	12.33
395.657	13.52
395.864	12.41
396.072	12.33
396.279	12.47
396.486	13.05
396.693	11.29
396.9	11.66
397.107	11.81
397.314	13.04
397.521	12
397.728	11.89
397.935	10.1
398.142	10.64
398.349	10.45
398.556	10.51
398.763	10.02
398.97	11.13
399.177	10.8
399.383	10.55
399.59	10.3
399.797	10.44
400.004	10.46
400.211	10.91
400.418	11.14
400.625	10.92
400.831	10.51
401.038	10.74
401.245	11.85
401.452	11.55
401.658	11.58
401.865	11.06
402.072	12.1
402.279	12.02
402.485	12.63
402.692	12.22
402.899	12.34
403.105	12.18
403.312	11.97
403.519	9.84
403.725	10.01
403.932	9.59
404.138	10
404.345	9.47
404.552	10.48
404.758	9.96
404.965	10.37
405.171	11.57
405.378	12.49
405.584	12.74
405.791	13.15
405.997	13.61
406.204	13.47
406.41	13.34
406.617	12.9
406.823	11.9
407.029	12.44
407.236	11.69
407.442	10
407.649	9.26
407.855	8.94
408.061	9.3
408.268	8.16
408.474	8.48
408.68	8.59
408.887	8.48
409.093	8.41
409.299	7.98
409.505	8.78
409.712	8.97
409.918	8.68
410.124	8.98
410.33	9.2
410.537	10.13
410.743	10.32
410.949	11.04
411.155	11.05
411.361	11.5
411.567	11.69
411.773	11.39
411.98	11.67
412.186	11.98
412.392	11.56
412.598	12.35
412.804	11.18
413.01	11.03
413.216	9.57
413.422	9.93
413.628	9.78
413.834	9.36
414.04	9.19
414.246	9.63
414.452	9.84
414.658	10.07
414.864	10.13
415.07	11.59
415.275	11.7
415.481	12.38
415.687	12.42
415.893	12.59
416.099	12.76
416.305	11.98
416.511	10.7
416.716	11.45
416.922	11.85
417.128	11.92
417.334	11.4
417.539	11.54
417.745	10.72
417.951	10.53
418.157	10.6
418.362	10.41
418.568	10.43
418.774	10.64
418.979	9.58
419.185	9.18
419.391	7.91
419.596	8.04
419.802	7.81
420.008	8.22
420.213	3.67
420.419	3.29
420.624	3.35
420.83	3.82
421.035	3.95
421.241	4.73
421.446	4.52
421.652	4.84
421.857	4.66
422.063	4.28
422.268	4.24
422.474	8.9
422.679	9.42
422.885	9.36
423.09	9
423.295	9.22
423.501	8.99
423.706	9.08
423.911	9.3
424.117	8.92
424.322	9
424.527	9.22
424.733	9.47
424.938	8.88
425.143	9.05
425.349	9.35
425.554	8.87
425.759	9.07
425.964	9.54
426.169	9.39
426.375	9.98
426.58	10.32
426.785	10.52
426.99	10.44
427.195	10.18
427.4	9.88
427.605	10.37
427.811	11.21
428.016	10.6
428.221	10.73
428.426	11.2
428.631	10.7
428.836	11.31
429.041	10.53
429.246	11.08
429.451	11.6
429.656	12.51
429.861	12.6
430.066	11.92
430.271	11.72
430.476	11.27
430.681	10.83
430.886	11.07
431.09	10.6
431.295	11.04
431.5	10.03
431.705	10.39
431.91	9.69
432.115	9.1
432.32	9.17
432.524	9.91
432.729	9.91
432.934	10.23
433.139	10.76
433.343	10.77
433.548	10.73
433.753	11.35
433.958	11.42
434.162	11.63
434.367	11.33
434.572	11.69
434.776	11.09
434.981	10.89
435.186	11.05
435.39	10.66
435.595	10.57
435.799	10.25
436.004	9.93
436.209	9.34
436.413	8.67
436.618	8.96
436.822	8.79
437.027	9.14
437.231	9.36
437.436	9.54
437.64	9.38
437.845	9.77
438.049	10.14
438.253	10.22
438.458	10.01
438.662	10.46
438.867	10.35
439.071	10.28
439.275	9.68
439.48	9.86
439.684	9.5
439.888	9.42
440.093	8.95
440.297	8.54
440.501	8.56
440.706	8.42
440.91	8.34
441.114	8.18
441.318	8.64
441.523	9.18
441.727	9.01
441.931	9.04
442.135	9.49
442.339	9.65
442.543	9.71
442.748	9.59
442.952	10.03
443.156	10.02
443.36	10.25
443.564	9.7
443.768	9.49
443.972	9.52
444.176	9.26
444.38	8.94
444.584	8.84
444.788	8.77
444.992	9.07
445.196	8.99
445.4	9.12
445.604	9.44
445.808	9.83
446.012	9.75
446.216	9.49
446.42	9.74
446.624	9.61
446.828	10.04
447.032	10.23
447.235	10.08
447.439	9.91
447.643	10.03
447.847	9.88
448.051	8.97
448.254	8.93
448.458	8.9
448.662	8.88
448.866	9.13
449.069	8.98
449.273	9.17
449.477	9.21
449.681	9.9
449.884	9.64
450.088	9.24
450.292	10.71
450.495	11.23
450.699	11.57
450.902	11.04
451.106	11.07
451.31	11.11
451.513	11.29
451.717	10.92
451.92	10.8
452.124	10.38
452.327	10.71
452.531	10.49
452.734	10.22
452.938	10.59
453.141	11.42
453.345	11.64
453.548	10.53
453.752	10.11
453.955	10.27
454.158	10.46
454.362	10.59
454.565	9.82
454.769	8.91
454.972	8.77
455.175	8.44
455.379	8.58
455.582	8.51
455.785	9.55
455.988	9.13
456.192	9.43
456.395	8.88
456.598	8.89
456.801	9.46
457.005	10.01
457.208	9.82
457.411	9.64
457.614	8.77
457.817	8.57
458.021	8.09
458.224	8.49
458.427	8.27
458.63	8.13
458.833	8.36
459.036	8.41
459.239	8.13
459.442	8.37
459.645	8.07
459.848	8.07
460.051	7.77
460.254	8.11
460.457	7.68
460.66	7.34
460.863	7.25
461.066	6.91
461.269	6.46
461.472	7.29
461.675	6.94
461.878	7.64
462.081	8.25
462.284	8.39
462.486	8.02
