Data from JASIL_3285_Reflection_1.txt Node
Date: Tue Nov 17 19:33:23 EST 2015
User: Geneva
Spectrometer: USB4E03002
Autoset integration time: false
Trigger mode: 4
Integration Time (sec): 1.000000E-1
Scans to average: 10
Electric dark correction enabled: false
Nonlinearity correction enabled: false
Boxcar width: 5
Stray light correction enabled: false
XAxis mode: Wavelengths
Stop averaging: false
Number of Pixels in Spectrum: 3648
>>>>>Begin Spectral Data<<<<<
177.575	82.18
177.794	-50
178.014	-113.48
178.233	-69.81
178.452	88.33
178.672	41.73
178.891	27.59
179.11	200
179.33	336.96
179.549	300
179.768	-2245.45
179.987	290.91
180.207	100.41
180.426	84.93
180.645	140
180.864	1611.76
181.084	198.19
181.303	134.37
181.522	158.62
181.741	110.67
181.96	211.11
182.179	394.12
182.398	207.79
182.618	121.89
182.837	89.52
183.056	94.54
183.275	135.56
183.494	104.63
183.713	69.61
183.932	60.11
184.151	63.92
184.37	61.18
184.589	51.97
184.808	44.88
185.027	40.35
185.246	23.74
185.465	28.75
185.684	35.34
185.903	9.39
186.122	23.75
186.341	-18.58
186.56	-45.24
186.779	-225.93
186.998	43.39
187.216	83.89
187.435	63.64
187.654	138.18
187.873	91.07
188.092	138.46
188.311	103.57
188.53	42.39
188.748	67.65
188.967	75.42
189.186	57.31
189.405	47.33
189.623	41.56
189.842	22.35
190.061	27.52
190.28	27.09
190.498	1.66
190.717	37.15
190.936	60.26
191.154	-1.65
191.373	80.46
191.592	-430.23
191.81	-247.57
192.029	-202.11
192.248	-55.39
192.466	-95.58
192.685	-7.37
192.904	-64.85
193.122	-26.01
193.341	-36.13
193.559	-140.11
193.778	-9.39
193.996	41.71
194.215	59.42
194.433	55
194.652	23.78
194.87	46.88
195.089	27.69
195.307	-215.79
195.526	209.18
195.744	112.95
195.963	-61.33
196.181	-33.06
196.399	-113.79
196.618	260.53
196.836	124.82
197.055	158.11
197.273	170.15
197.491	84.68
197.71	109.13
197.928	119.54
198.146	132.53
198.365	235.71
198.583	66.67
198.801	89.52
199.019	41.57
199.238	25.9
199.456	29.46
199.674	21.01
199.892	14.63
200.111	-2.58
200.329	-6.99
200.547	-21.47
200.765	519.61
200.983	-196.58
201.202	459.21
201.42	119.64
201.638	91.81
201.856	84.19
202.074	166.67
202.292	122.5
202.51	70.57
202.728	120.79
202.946	446.43
203.165	-19.23
203.383	10.11
203.601	1.52
203.819	53.64
204.037	263.64
204.255	-48.15
204.473	62.94
204.691	35.88
204.909	56.64
205.127	318.75
205.345	-102.42
205.562	146.51
205.78	109.69
205.998	78.83
206.216	100
206.434	108.38
206.652	170.34
206.87	381.44
207.088	361.9
207.306	333.53
207.523	235.29
207.741	120.55
207.959	163.06
208.177	92.23
208.395	133.82
208.612	50.46
208.83	48.92
209.048	15.16
209.266	-19.89
209.483	-21.41
209.701	-22.57
209.919	1.27
210.136	1.2
210.354	-4.23
210.572	14.91
210.79	5
211.007	47.89
211.225	-160
211.442	35.59
211.66	-116
211.878	31.23
212.095	-128.27
212.313	-206.78
212.53	-145.97
212.748	-131.87
212.966	-96.81
213.183	-140.86
213.401	2650
213.618	237.3
213.836	166.21
214.053	179.36
214.271	103.21
214.488	57.14
214.705	79.5
214.923	58.46
215.14	28.27
215.358	18.64
215.575	26.88
215.793	3.7
216.01	-86.26
216.227	-95.69
216.445	-64.58
216.662	62.5
216.879	-26.09
217.097	4.36
217.314	-7.78
217.531	575
217.749	85.15
217.966	65.38
218.183	62.98
218.4	20.65
218.618	-46.05
218.835	-18.47
219.052	-51.84
219.269	-54.88
219.487	9.06
219.704	3.88
219.921	-21.48
220.138	-25.29
220.355	-30.35
220.572	-45.33
220.79	-20.95
221.007	-19.43
221.224	-95.06
221.441	-8.71
221.658	-5.98
221.875	297.14
222.092	70.45
222.309	-430.3
222.526	-78.79
222.743	49.76
222.96	94.24
223.177	220.93
223.394	205.26
223.611	253.15
223.828	115.2
224.045	45.6
224.262	34.86
224.479	12.44
224.696	119.71
224.913	70.25
225.13	-133.02
225.347	-211.72
225.564	-105.1
225.781	-71.69
225.997	-45.95
226.214	-42.44
226.431	-33.29
226.648	-34.13
226.865	-26.79
227.082	-35.54
227.298	-15.33
227.515	-8.38
227.732	-3.59
227.949	-3.58
228.165	-6.4
228.382	-15.22
228.599	-14.58
228.816	-13.3
229.032	-6.74
229.249	-1.58
229.466	9.35
229.682	12.06
229.899	15.89
230.116	22.59
230.332	32.28
230.549	33.17
230.765	39.08
230.982	36.3
231.199	34.06
231.415	15.71
231.632	23.61
231.848	2.83
232.065	-2.59
232.281	-17
232.498	-11.05
232.714	-22.56
232.931	-14.71
233.147	-22.12
233.364	-12.13
233.58	-14.17
233.797	-11.29
234.013	-16.44
234.23	-3.35
234.446	-1.74
234.662	7.52
234.879	-38.43
235.095	-32.08
235.312	-32.23
235.528	-11.21
235.744	-65.44
235.961	-80.3
236.177	-53.83
236.393	-132.67
236.61	-78.01
236.826	-53.55
237.042	-39.92
237.258	-45.28
237.475	-44.97
237.691	-70.77
237.907	-95.11
238.123	-50.99
238.339	-39.16
238.556	-19.8
238.772	0.34
238.988	-13.28
239.204	-14.66
239.42	-8.52
239.636	2.01
239.853	5.56
240.069	12.23
240.285	17.08
240.501	19.82
240.717	16.12
240.933	14.06
241.149	11.72
241.365	14.4
241.581	12.53
241.797	12.26
242.013	10.99
242.229	7.9
242.445	-1.22
242.661	-3.42
242.877	-5.96
243.093	-3.14
243.309	-6.35
243.525	-9.79
243.741	-5.77
243.957	-2.91
244.173	-2
244.388	-0.37
244.604	3.37
244.82	6.8
245.036	9.63
245.252	9.64
245.468	9.61
245.683	8.91
245.899	10.51
246.115	8.21
246.331	7.62
246.547	8.42
246.762	7.47
246.978	7.43
247.194	7.57
247.409	5.95
247.625	5.06
247.841	2.68
248.057	5.53
248.272	6.99
248.488	3.09
248.703	0.3
248.919	-1.41
249.135	-2.22
249.35	-5.23
249.566	-8.6
249.782	-4.12
249.997	-1.98
250.213	-0.61
250.428	-0.59
250.644	-1.07
250.859	3.26
251.075	3.38
251.29	-0.17
251.506	-1.1
251.721	1.62
251.937	0.71
252.152	0.03
252.368	-0.6
252.583	-0.47
252.798	-5.69
253.014	-11.65
253.229	-12.21
253.445	-9.93
253.66	-9.24
253.875	-13.34
254.091	-22.11
254.306	-20.8
254.521	-31.41
254.737	-41.42
254.952	-38.33
255.167	-35.11
255.383	-31.3
255.598	-24.17
255.813	-26.36
256.028	-29.13
256.244	-18.45
256.459	-8.56
256.674	-2.12
256.889	1.28
257.104	3.28
257.32	2.5
257.535	2.58
257.75	4.42
257.965	2.47
258.18	2.66
258.395	3.19
258.61	2.99
258.826	0.78
259.041	0.53
259.256	-0.19
259.471	-1.3
259.686	-2.14
259.901	-2.47
260.116	-3.02
260.331	-1.07
260.546	0.88
260.761	2.56
260.976	2.63
261.191	4.4
261.406	2.91
261.621	4.62
261.836	8.25
262.05	9.11
262.265	10.44
262.48	8.03
262.695	4.56
262.91	-4.6
263.125	-7.83
263.34	-15.47
263.555	-19.2
263.769	-20.71
263.984	-23.72
264.199	-19.35
264.414	-14
264.629	-18.2
264.843	-10.74
265.058	-11.65
265.273	-8.55
265.488	-3.02
265.702	-1.66
265.917	1.84
266.132	3.29
266.346	7.02
266.561	5.01
266.776	2.99
266.99	5.16
267.205	4
267.42	2.21
267.634	0.57
267.849	-2.19
268.063	-5.36
268.278	-8.25
268.492	-9.59
268.707	-14.04
268.922	-11.92
269.136	-11.09
269.351	-8
269.565	-6.04
269.78	-5.13
269.994	-1.88
270.209	-2.61
270.423	0.41
270.637	-1.02
270.852	2.2
271.066	4.23
271.281	3.6
271.495	4.08
271.709	2.53
271.924	0.43
272.138	2.92
272.353	3.34
272.567	4.62
272.781	2.93
272.996	5.08
273.21	2.76
273.424	1.63
273.638	1.58
273.853	4.24
274.067	5.5
274.281	5.04
274.495	3.48
274.71	4.58
274.924	3.34
275.138	5.55
275.352	5.59
275.566	5.91
275.781	6.82
275.995	6.38
276.209	1.39
276.423	-1.85
276.637	-1.43
276.851	-1.56
277.065	-5.38
277.279	-7.65
277.493	-9.2
277.707	-8.92
277.921	-8.85
278.135	-5.77
278.349	-6.86
278.563	-6.03
278.777	-7.21
278.991	-8.1
279.205	-6.05
279.419	-8.14
279.633	-5.82
279.847	-4.39
280.061	-5.65
280.275	-4.34
280.489	-10.36
280.703	-8.31
280.917	-5.78
281.131	-3.95
281.344	-1.3
281.558	-2.77
281.772	-1.03
281.986	0.81
282.2	0.81
282.414	2.07
282.627	1.01
282.841	4.98
283.055	2.4
283.269	2.63
283.482	2.4
283.696	1.52
283.91	1.49
284.123	2.08
284.337	3.29
284.551	3.34
284.764	2.32
284.978	2.41
285.192	0.72
285.405	1.04
285.619	0.15
285.833	0.86
286.046	0.9
286.26	0.35
286.473	1.06
286.687	-2.52
286.9	-1.55
287.114	-0.77
287.327	0.09
287.541	0.58
287.754	2
287.968	2.58
288.181	3.55
288.395	5.41
288.608	6.43
288.822	6.67
289.035	7.37
289.248	7.2
289.462	7.23
289.675	6.19
289.889	6.82
290.102	6.59
290.315	6.43
290.529	6.32
290.742	3.59
290.955	4.88
291.169	3.66
291.382	3.39
291.595	2.13
291.808	3.12
292.022	2.68
292.235	3.36
292.448	3.1
292.661	3.86
292.875	3.14
293.088	3.3
293.301	-0
293.514	-0.6
293.727	-0.95
293.94	-1.48
294.153	-2.35
294.367	-1.04
294.58	-2.14
294.793	-3.11
295.006	-4.06
295.219	-4.56
295.432	-4.81
295.645	-2.45
295.858	-1.03
296.071	-0.49
296.284	1.16
296.497	1.19
296.71	1.66
296.923	1.44
297.136	2.79
297.349	3.6
297.562	4.95
297.775	5.62
297.988	4.51
298.201	5.09
298.414	5.76
298.626	3.72
298.839	3.69
299.052	2.64
299.265	3.36
299.478	3.01
299.691	0.66
299.903	0.42
300.116	0.76
300.329	0.69
300.542	-0.24
300.755	-0.35
300.967	1.71
301.18	1.52
301.393	2.04
301.605	0.31
301.818	-0.45
302.031	2.96
302.243	1.85
302.456	2.21
302.669	2.47
302.881	1.32
303.094	2.4
303.307	1.91
303.519	3.42
303.732	2.22
303.944	4.26
304.157	7.38
304.37	7.2
304.582	7.56
304.795	7.57
305.007	7.89
305.22	8.41
305.432	7.04
305.645	6.5
305.857	4.5
306.069	3.45
306.282	2.57
306.494	-1.62
306.707	-3.07
306.919	-2.53
307.132	-2.97
307.344	-3.74
307.556	-5.08
307.769	-5.69
307.981	-3.59
308.193	-1.87
308.406	0.07
308.618	-1.12
308.83	1.4
309.043	1.65
309.255	0.86
309.467	2.11
309.679	1.37
309.892	3.56
310.104	4.9
310.316	4.95
310.528	4.79
310.74	4.04
310.953	5.02
311.165	4.14
311.377	5.65
311.589	7.4
311.801	6.12
312.013	7.52
312.225	7.64
312.437	7.06
312.649	5.69
312.862	6.29
313.074	5.78
313.286	6.01
313.498	6.54
313.71	4.5
313.922	2.44
314.134	2.05
314.346	2.46
314.558	1.16
314.77	0.48
314.982	1.9
315.193	1.77
315.405	2.06
315.617	2.15
315.829	1.71
316.041	3.54
316.253	2.1
316.465	2.97
316.677	3.77
316.888	6.59
317.1	7.92
317.312	8.11
317.524	9.07
317.736	11.26
317.947	10.98
318.159	12.19
318.371	10.82
318.583	13.09
318.794	12.73
319.006	12.87
319.218	10.35
319.43	9.79
319.641	10
319.853	7.6
320.064	5.79
320.276	7.75
320.488	5.58
320.699	6.05
320.911	5.37
321.123	6.44
321.334	5.73
321.546	5.95
321.757	6.12
321.969	4.61
322.18	5.89
322.392	5.1
322.603	2.53
322.815	3.62
323.026	2.44
323.238	1.44
323.449	-0.36
323.661	0.05
323.872	0.16
324.083	0.39
324.295	0.25
324.506	0.96
324.718	1.88
324.929	3.88
325.14	5.92
325.352	5.71
325.563	6.31
325.774	7.83
325.986	7.72
326.197	7.18
326.408	6.41
326.62	7.72
326.831	6.87
327.042	7.03
327.253	6.48
327.464	5.26
327.676	5.81
327.887	4.9
328.098	5.72
328.309	4.73
328.52	6.06
328.732	6.19
328.943	5.59
329.154	5.28
329.365	5.53
329.576	6.43
329.787	6.44
329.998	7.94
330.209	9.81
330.42	8.42
330.631	10.1
330.842	10.99
331.053	11.15
331.264	12.3
331.475	12.27
331.686	14.26
331.897	12.99
332.108	12.17
332.319	11.43
332.53	10.45
332.741	12.04
332.952	10.32
333.163	8.71
333.374	11.55
333.585	10.6
333.795	11.1
334.006	9.4
334.217	10.18
334.428	10.51
334.639	11.13
334.849	12.93
335.06	12.48
335.271	14.62
335.482	13.33
335.692	12.28
335.903	11.41
336.114	12.88
336.325	13.49
336.535	12.86
336.746	13.65
336.957	11.99
337.167	9.66
337.378	10.32
337.589	9.21
337.799	9.51
338.01	8.74
338.22	9.61
338.431	7.51
338.642	7.2
338.852	7.62
339.063	7.07
339.273	7.76
339.484	9.79
339.694	8.23
339.905	8.41
340.115	10.34
340.326	10.29
340.536	10.09
340.746	10.46
340.957	10.57
341.167	10.26
341.378	10.8
341.588	9.41
341.799	9.47
342.009	9.55
342.219	9.38
342.43	9.23
342.64	8.83
342.85	8.92
343.061	9.46
343.271	8.39
343.481	8.2
343.691	8.76
343.902	11.12
344.112	11
344.322	11.09
344.532	11.81
344.743	12.24
344.953	12.36
345.163	11.32
345.373	11.02
345.583	12.51
345.793	13.16
346.004	12.46
346.214	12.24
346.424	10.85
346.634	11.19
346.844	11.01
347.054	11.05
347.264	10.9
347.474	10.59
347.684	10.09
347.894	8.91
348.104	8.32
348.314	6.33
348.524	4.33
348.734	5.7
348.944	4.81
349.154	3.41
349.364	2.09
349.574	2.33
349.784	4.18
349.994	3.78
350.204	3.58
350.413	2.86
350.623	4.64
350.833	7.44
351.043	7.79
351.253	8.35
351.463	7.62
351.672	8.47
351.882	6.94
352.092	7.47
352.302	8.7
352.511	9.86
352.721	10.32
352.931	10.23
353.141	9.02
353.35	7.84
353.56	7.87
353.77	9.94
353.979	10.14
354.189	11.38
354.399	10.35
354.608	10.17
354.818	8.83
355.027	9.68
355.237	9.41
355.447	9.9
355.656	10.07
355.866	9.99
356.075	9.3
356.285	9.86
356.494	9.69
356.704	10.38
356.913	9.88
357.123	10.24
357.332	9.85
357.542	10.34
357.751	10.68
357.96	10.6
358.17	11.12
358.379	9.85
358.589	9.04
358.798	9.37
359.007	9.5
359.217	10.12
359.426	10.03
359.635	11.01
359.845	9.86
360.054	8.8
360.263	8.94
360.472	8.81
360.682	10.34
360.891	10.23
361.1	9.81
361.309	9.75
361.519	8.85
361.728	8.99
361.937	8.52
362.146	9.74
362.355	10.22
362.564	9.19
362.774	8.87
362.983	7.86
363.192	7.34
363.401	7.95
363.61	7.84
363.819	8.4
364.028	7.85
364.237	8.25
364.446	7.92
364.655	6.46
364.864	7.4
365.073	6.7
365.282	5.57
365.491	6.69
365.7	7.15
365.909	6.02
366.118	6.04
366.327	6.79
366.536	5.57
366.745	4.98
366.954	5.91
367.162	5.95
367.371	6.69
367.58	7.92
367.789	7.83
367.998	6.81
368.207	6.86
368.415	8.71
368.624	8.64
368.833	8.22
369.042	8.64
369.25	7.59
369.459	7.4
369.668	7.2
369.877	7.39
370.085	6.87
370.294	7.79
370.503	8.64
370.711	6.92
370.92	6.71
371.129	7.55
371.337	7.71
371.546	8.67
371.754	9.06
371.963	9.88
372.171	10.09
372.38	9.8
372.589	9.94
372.797	9.22
373.006	9.64
373.214	9.09
373.423	8.92
373.631	8.32
373.84	7.4
374.048	7.48
374.256	6.85
374.465	7.7
374.673	8.77
374.882	6.67
375.09	6.83
375.298	6.22
375.507	5.77
375.715	5.34
375.923	6.37
376.132	8.11
376.34	7.51
376.548	7.65
376.757	6.98
376.965	5.95
377.173	7.62
377.381	7.93
377.59	8.16
377.798	9.27
378.006	9.47
378.214	8.73
378.423	8.22
378.631	8.3
378.839	8.28
379.047	9.21
379.255	10.51
379.463	10.89
379.671	11.18
379.879	11.07
380.088	9.86
380.296	11.06
380.504	11.49
380.712	11.18
380.92	11.42
381.128	12.06
381.336	10.59
381.544	9.13
381.752	7.84
381.96	7.3
382.168	6.66
382.376	8.85
382.584	7.52
382.791	6.85
382.999	6.27
383.207	5.76
383.415	4.81
383.623	5.43
383.831	6.09
384.039	6.57
384.247	7.35
384.454	8.37
384.662	7.01
384.87	7.37
385.078	6.96
385.285	7.35
385.493	8.29
385.701	8.99
385.909	9.27
386.116	9.08
386.324	7.59
386.532	6.32
386.739	5.77
386.947	5.58
387.155	5.12
387.362	5.9
387.57	5.36
387.778	3.78
387.985	2.59
388.193	1.71
388.4	1.09
388.608	2.54
388.816	3.94
389.023	4.23
389.231	5.33
389.438	5.97
389.646	6.01
389.853	6.98
390.061	7.9
390.268	7.83
390.475	7.2
390.683	7.01
390.89	7.14
391.098	6.75
391.305	6.49
391.512	6.62
391.72	6.48
391.927	6.99
392.135	6.57
392.342	6.71
392.549	6.7
392.756	7.45
392.964	7.66
393.171	7.97
393.378	7.29
393.586	7.51
393.793	6.76
394	7.14
394.207	5.96
394.414	6.13
394.622	6.53
394.829	7.41
395.036	7.29
395.243	7.76
395.45	7.41
395.657	6.88
395.864	7.04
396.072	7.58
396.279	6.3
396.486	6.23
396.693	5.89
396.9	5.8
397.107	5.78
397.314	5.62
397.521	5.54
397.728	5.6
397.935	6.33
398.142	6.84
398.349	6
398.556	7.29
398.763	7.7
398.97	8.52
399.177	7.94
399.383	8.41
399.59	9.08
399.797	9.2
400.004	8.68
400.211	8.61
400.418	7.92
400.625	8.67
400.831	8.23
401.038	8.55
401.245	7.46
401.452	7.41
401.658	6.87
401.865	6.72
402.072	6.32
402.279	7.09
402.485	7.62
402.692	7.44
402.899	6.57
403.105	6.59
403.312	6.47
403.519	6.99
403.725	6.99
403.932	6.84
404.138	6.94
404.345	7.15
404.552	6.84
404.758	6.9
404.965	6.58
405.171	7.14
405.378	7.41
405.584	7.66
405.791	7.74
405.997	7.67
406.204	7.96
406.41	8.16
406.617	8.02
406.823	7.84
407.029	7.56
407.236	8.63
407.442	8.29
407.649	8.13
407.855	7.62
408.061	7.7
408.268	8.45
408.474	8.63
408.68	7.84
408.887	8.14
409.093	8.45
409.299	8.54
409.505	8.15
409.712	8.57
409.918	8.04
410.124	7.34
410.33	6.89
410.537	6.43
410.743	5.67
410.949	6.45
411.155	5.91
411.361	5.17
411.567	4.9
411.773	4.87
411.98	4.97
412.186	5.36
412.392	6.59
412.598	6.51
412.804	6.25
413.01	6.56
413.216	6.3
413.422	6.34
413.628	7.61
413.834	7.32
414.04	6.84
414.246	6.23
414.452	6.11
414.658	5.16
414.864	5.72
415.07	5.84
415.275	5.15
415.481	5.21
415.687	5.74
415.893	5.08
416.099	6.08
416.305	6.31
416.511	6.61
416.716	6.7
416.922	6.96
417.128	6.87
417.334	6.8
417.539	7.55
417.745	7.88
417.951	7.38
418.157	7.63
418.362	7.32
418.568	7.32
418.774	7.07
418.979	7.01
419.185	7.24
419.391	7.1
419.596	7.13
419.802	6.87
420.008	6.29
420.213	6.7
420.419	6.41
420.624	6.22
420.83	6.32
421.035	6.87
421.241	6.93
421.446	7.04
421.652	7.18
421.857	7.48
422.063	7.85
422.268	7.9
422.474	7.64
422.679	7.56
422.885	7.4
423.09	7.34
423.295	7.06
423.501	6.84
423.706	6.62
423.911	6.83
424.117	6.5
424.322	6.47
424.527	6.67
424.733	6.93
424.938	7.01
425.143	7.21
425.349	7.1
425.554	6.91
425.759	7.16
425.964	6.91
426.169	6.75
426.375	7.24
426.58	6.73
426.785	6.54
426.99	6.31
427.195	6.34
427.4	6.19
427.605	6.65
427.811	6.99
428.016	6.93
428.221	7.56
428.426	7.21
428.631	6.73
428.836	6.72
429.041	6.67
429.246	6.82
429.451	6.95
429.656	7.02
429.861	6.86
430.066	6.67
430.271	6.66
430.476	6.28
430.681	6.13
430.886	6.11
431.09	6.3
431.295	6.67
431.5	6.8
431.705	6.87
431.91	6.92
432.115	6.64
432.32	6.64
432.524	6.83
432.729	6.94
432.934	7.35
433.139	7.05
433.343	7.05
433.548	6.76
433.753	6.4
433.958	6.51
434.162	6.57
434.367	6.74
434.572	6.38
434.776	6.31
434.981	6.39
435.186	5.9
435.39	6.5
435.595	6.3
435.799	6.36
436.004	6.41
436.209	6.09
436.413	6.12
436.618	6.06
436.822	6.72
437.027	6.98
437.231	6.71
437.436	6.73
437.64	6.79
437.845	7.16
438.049	7.46
438.253	7.33
438.458	7.34
438.662	7.36
438.867	7.58
439.071	7.42
439.275	7.25
439.48	7.58
439.684	7.86
439.888	7.74
440.093	7.69
440.297	7.5
440.501	7.64
440.706	7.89
440.91	7.61
441.114	7.53
441.318	7.56
441.523	7.58
441.727	7.12
441.931	7.45
442.135	7.53
442.339	7.41
442.543	7.32
442.748	7.44
442.952	7.06
443.156	6.91
443.36	6.57
443.564	6.56
443.768	6.74
443.972	7.4
444.176	7.02
444.38	7.03
444.584	7
444.788	6.92
444.992	7.07
445.196	7.28
445.4	7.55
445.604	7.51
445.808	7.37
446.012	6.87
446.216	7.04
446.42	7
446.624	7.06
446.828	7.06
447.032	7.02
447.235	7
447.439	6.77
447.643	6.77
447.847	7.3
448.051	7.16
448.254	7.65
448.458	7.16
448.662	7.01
448.866	7.01
449.069	6.96
449.273	7.25
449.477	7.03
449.681	7.3
449.884	7.23
450.088	6.59
450.292	6.78
450.495	6.51
450.699	6.29
450.902	6.5
451.106	6.31
451.31	6.18
451.513	6.28
451.717	6.48
451.92	6.23
452.124	6.51
452.327	6.7
452.531	6.87
452.734	7.11
452.938	7.34
453.141	7.22
453.345	7.04
453.548	7.35
453.752	6.88
453.955	6.48
454.158	6.44
454.362	6
454.565	5.88
454.769	6.08
454.972	5.98
455.175	5.87
455.379	6.28
455.582	6.63
455.785	6.05
455.988	6.17
456.192	6.02
456.395	6.11
456.598	6.61
456.801	7.05
457.005	6.66
457.208	6.28
457.411	6.3
457.614	5.98
457.817	5.7
458.021	5.94
458.224	5.95
458.427	6.23
458.63	6.11
458.833	6.39
459.036	6.1
459.239	5.97
459.442	5.94
459.645	5.8
459.848	6
460.051	6.11
460.254	6.4
460.457	6.38
460.66	6.27
460.863	6.46
461.066	6.18
461.269	6.16
461.472	6.74
461.675	7
461.878	7.07
462.081	6.91
462.284	7.26
462.486	6.87
462.689	6.82
462.892	7.02
463.095	7.36
463.298	6.8
463.5	7.01
463.703	6.65
463.906	6.95
464.109	7.26
464.311	7.47
464.514	6.8
464.717	6.65
464.92	7.23
465.122	7.01
465.325	6.54
465.528	6.45
465.73	6.65
465.933	6.59
466.135	6.11
466.338	5.61
