Data from JASIL_3001_Reflection_01.txt Node
Date: Mon Nov 09 10:03:07 EST 2015
User: Geneva
Spectrometer: USB4E03002
Autoset integration time: false
Trigger mode: 4
Integration Time (sec): 1.000000E-1
Scans to average: 10
Electric dark correction enabled: false
Nonlinearity correction enabled: false
Boxcar width: 5
Stray light correction enabled: false
XAxis mode: Wavelengths
Stop averaging: false
Number of Pixels in Spectrum: 3648
>>>>>Begin Spectral Data<<<<<
177.575	82.34
177.794	73.68
178.014	68.04
178.233	60.36
178.452	56.61
178.672	48.12
178.891	33.46
179.11	19.26
179.33	-14.66
179.549	-27.75
179.768	-67.82
179.987	-20.66
180.207	10.57
180.426	-4.9
180.645	5.31
180.864	-0.35
181.084	22.88
181.303	28.97
181.522	32.33
181.741	57.25
181.96	51.65
182.179	75.45
182.398	46.25
182.618	77.61
182.837	103.97
183.056	95.34
183.275	86.14
183.494	77.97
183.713	87.73
183.932	92.24
184.151	79.88
184.37	65.4
184.589	32.48
184.808	38.85
185.027	7.11
185.246	-20.07
185.465	-19.81
185.684	11.64
185.903	-6.21
186.122	-12.89
186.341	-40.25
186.56	-48.49
186.779	-34.2
186.998	-1.36
187.216	1.94
187.435	-6.36
187.654	17.91
187.873	13.39
188.092	4.95
188.311	38.01
188.53	50.14
188.748	43.91
188.967	3.19
189.186	49.05
189.405	72.33
189.623	77.96
189.842	130
190.061	138.1
190.28	154.55
190.498	103.59
190.717	112.41
190.936	90.18
191.154	227.05
191.373	148.53
191.592	138.87
191.81	105.78
192.029	244.14
192.248	140.54
192.466	119.08
192.685	139.71
192.904	164.69
193.122	163.51
193.341	170.46
193.559	165.22
193.778	153.64
193.996	66.16
194.215	63.41
194.433	40
194.652	53.61
194.87	7.22
195.089	-35.74
195.307	-101.98
195.526	-27.32
195.744	-22.08
195.963	-32.65
196.181	-40.09
196.399	-58.44
196.618	-47.35
196.836	-83.77
197.055	-77.39
197.273	-69.36
197.491	-38.14
197.71	4.14
197.928	-24.94
198.146	12.21
198.365	12.23
198.583	11.43
198.801	18.62
199.019	-7.59
199.238	-7.41
199.456	-40.31
199.674	-53.93
199.892	-29.21
200.111	-102.46
200.329	-71.99
200.547	-28.67
200.765	-30.07
200.983	-35.82
201.202	-98.26
201.42	-90.76
201.638	-24.38
201.856	-60.56
202.074	21.62
202.292	46.34
202.51	10.84
202.728	-22.22
202.946	-150
203.165	-59.77
203.383	-82.8
203.601	-160.14
203.819	-266.28
204.037	-197.13
204.255	-161.86
204.473	-93.71
204.691	-132.78
204.909	-213.99
205.127	-206.41
205.345	-191.7
205.562	-471.91
205.78	-168.75
205.998	-27.74
206.216	-58.12
206.434	-62.29
206.652	-25.93
206.87	-44.73
207.088	-54.91
207.306	-47.6
207.523	-51.75
207.741	-29.45
207.959	-37.87
208.177	-123.72
208.395	-85.51
208.612	-28.49
208.83	-10.2
209.048	-11.9
209.266	-14.32
209.483	44.93
209.701	115.81
209.919	89.44
210.136	42.19
210.354	38.35
210.572	92.35
210.79	52.62
211.007	70.31
211.225	96.51
211.442	71.32
211.66	67.1
211.878	36.79
212.095	8.92
212.313	7.97
212.53	22.85
212.748	30.35
212.966	34.42
213.183	39.49
213.401	28.57
213.618	25.48
213.836	31.67
214.053	27.05
214.271	23.75
214.488	42.23
214.705	40.43
214.923	32.39
215.14	35.16
215.358	25.17
215.575	26.45
215.793	34.53
216.01	47.48
216.227	98.67
216.445	140.32
216.662	124.75
216.879	116.12
217.097	161.11
217.314	163.51
217.531	145.64
217.749	93.54
217.966	89.27
218.183	101.54
218.4	107.44
218.618	-0.33
218.835	-11.01
219.052	-185.71
219.269	-364.91
219.487	-166.08
219.704	-379.37
219.921	436.84
220.138	179.49
220.355	275.34
220.572	0
220.79	-321.21
221.007	-45.45
221.224	114.71
221.441	48.75
221.658	50.33
221.875	72.69
222.092	38.26
222.309	53.69
222.526	55.5
222.743	70.92
222.96	64.16
223.177	60.27
223.394	64.25
223.611	50.64
223.828	83.23
224.045	50.49
224.262	61
224.479	53.85
224.696	37.4
224.913	7.54
225.13	-14.31
225.347	-0.99
225.564	-33.24
225.781	-15.32
225.997	-22.17
226.214	-18.58
226.431	-12.28
226.648	-34.08
226.865	-19.15
227.082	-23.86
227.298	-32.21
227.515	-24.16
227.732	-21.95
227.949	-11.77
228.165	-7.48
228.382	2.09
228.599	6.66
228.816	5.91
229.032	3.93
229.249	2.14
229.466	5.08
229.682	10.87
229.899	13.32
230.116	6.64
230.332	4.71
230.549	3.48
230.765	-31.95
230.982	-40.46
231.199	-39.69
231.415	-6.91
231.632	-24.66
231.848	-21.86
232.065	-14.81
232.281	-28.45
232.498	-6.52
232.714	2.89
232.931	-9.24
233.147	13.59
233.364	21.32
233.58	28.84
233.797	19.37
234.013	27.47
234.23	20.74
234.446	32.42
234.662	49.03
234.879	31.42
235.095	30.97
235.312	33.72
235.528	28.13
235.744	29.48
235.961	32.61
236.177	28.4
236.393	31.02
236.61	21.98
236.826	11.14
237.042	14.97
237.258	15.01
237.475	16.7
237.691	22.55
237.907	20.08
238.123	13.57
238.339	-4.74
238.556	-6.82
238.772	-25.71
238.988	-2.72
239.204	2.5
239.42	-5.65
239.636	5.38
239.853	7.01
240.069	1.65
240.285	5.29
240.501	9.47
240.717	14.23
240.933	14.31
241.149	17.82
241.365	16.47
241.581	15.91
241.797	17.49
242.013	13.1
242.229	8.3
242.445	11.9
242.661	10.05
242.877	4.07
243.093	-2.39
243.309	-4.78
243.525	-10.69
243.741	-9.22
243.957	-2.8
244.173	-4.99
244.388	-2.72
244.604	-2.07
244.82	-0.86
245.036	2.6
245.252	8.33
245.468	11.85
245.683	12.33
245.899	12.66
246.115	10.79
246.331	5.6
246.547	4.39
246.762	7.73
246.978	8.42
247.194	6.94
247.409	3.43
247.625	-1.34
247.841	-1.41
248.057	0.03
248.272	5.9
248.488	9.7
248.703	18.92
248.919	17.18
249.135	9.85
249.35	10.73
249.566	14.92
249.782	16.05
249.997	19.82
250.213	12.55
250.428	11.25
250.644	5.47
250.859	1.36
251.075	0.03
251.29	4.07
251.506	7.37
251.721	8.19
251.937	5.99
252.152	7.24
252.368	7.04
252.583	11.7
252.798	9.21
253.014	14.86
253.229	15.19
253.445	5.43
253.66	6.64
253.875	-1.77
254.091	-3.42
254.306	-0
254.521	3.96
254.737	6.82
254.952	10.41
255.167	13.77
255.383	14.37
255.598	11.05
255.813	17.26
256.028	11.04
256.244	14.46
256.459	14.44
256.674	16.14
256.889	16.91
257.104	11.04
257.32	10.41
257.535	10.19
257.75	7.63
257.965	9.53
258.18	8.35
258.395	9.73
258.61	10.11
258.826	8.88
259.041	6.69
259.256	3.34
259.471	5.78
259.686	4.77
259.901	3.59
260.116	1.16
260.331	0.18
260.546	2
260.761	0.68
260.976	-3.08
261.191	2.75
261.406	-1.42
261.621	3.61
261.836	2.47
262.05	0.55
262.265	-1.08
262.48	3.8
262.695	4.66
262.91	4.94
263.125	6.32
263.34	6.13
263.555	1.64
263.769	7.31
263.984	11.93
264.199	8.1
264.414	9.95
264.629	14.64
264.843	13.51
265.058	13
265.273	11.35
265.488	14.38
265.702	13.19
265.917	17.73
266.132	16.14
266.346	11.09
266.561	16.85
266.776	21.2
266.99	20.02
267.205	26.96
267.42	24.77
267.634	23.39
267.849	20.04
268.063	22.62
268.278	19.79
268.492	23.45
268.707	24.64
268.922	24.31
269.136	16.2
269.351	15.1
269.565	13.01
269.78	15.1
269.994	17.88
270.209	19.75
270.423	18.61
270.637	17.68
270.852	15.23
271.066	15.55
271.281	11.35
271.495	14.47
271.709	13.4
271.924	10.38
272.138	10.73
272.353	7.77
272.567	5.87
272.781	7.53
272.996	8.16
273.21	6.5
273.424	3.48
273.638	3.08
273.853	5.1
274.067	6.77
274.281	4.93
274.495	5.09
274.71	6.67
274.924	7.57
275.138	6.14
275.352	5.45
275.566	8.12
275.781	8.77
275.995	12.15
276.209	10.43
276.423	10.76
276.637	11.42
276.851	11.72
277.065	9.9
277.279	9.31
277.493	9.48
277.707	8.36
277.921	3.79
278.135	4.47
278.349	1.21
278.563	-0.05
278.777	-2.23
278.991	-1.03
279.205	-3.01
279.419	-2.61
279.633	-1.45
279.847	-4.01
280.061	-3.12
280.275	2.78
280.489	4.82
280.703	4.26
280.917	5.09
281.131	7.25
281.344	10.38
281.558	10.49
281.772	12.83
281.986	11.12
282.2	11.91
282.414	10.61
282.627	9.94
282.841	8.01
283.055	7.97
283.269	8.06
283.482	8.99
283.696	7.53
283.91	8.04
284.123	4.77
284.337	6.42
284.551	9.81
284.764	11.26
284.978	11.35
285.192	10.74
285.405	11.11
285.619	10.71
285.833	9.12
286.046	6.17
286.26	5.01
286.473	7.58
286.687	6.64
286.9	4.89
287.114	5.63
287.327	3.47
287.541	3.57
287.754	3.03
287.968	5.71
288.181	2.57
288.395	3.45
288.608	1.86
288.822	1.71
289.035	1.61
289.248	-0.15
289.462	-2.11
289.675	-1.28
289.889	-0.98
290.102	2.26
290.315	0
290.529	1.39
290.742	3.16
290.955	5.67
291.169	5.06
291.382	4.67
291.595	2.07
291.808	4
292.022	4.85
292.235	4.96
292.448	4.11
292.661	3.71
292.875	3.95
293.088	2.07
293.301	3.06
293.514	0.1
293.727	0.75
293.94	2.86
294.153	0.76
294.367	-1.29
294.58	-1.95
294.793	-2.46
295.006	-3.35
295.219	0
295.432	0.6
295.645	1.52
295.858	3.02
296.071	2.93
296.284	3.83
296.497	3.08
296.71	3.59
296.923	4.61
297.136	3.53
297.349	6.4
297.562	4.77
297.775	4.16
297.988	4.73
298.201	8.21
298.414	9.03
298.626	9.53
298.839	10.19
299.052	11.55
299.265	12.41
299.478	14.31
299.691	14.75
299.903	14.89
300.116	13.82
300.329	11.37
300.542	9.34
300.755	9.21
300.967	9.94
301.18	11.91
301.393	11.55
301.605	11.26
301.818	9.97
302.031	9.72
302.243	8.03
302.456	9.64
302.669	10.51
302.881	9.08
303.094	10.57
303.307	9.59
303.519	8.13
303.732	7.31
303.944	8.16
304.157	9.76
304.37	8.03
304.582	8.99
304.795	11.73
305.007	12.92
305.22	14.51
305.432	10.47
305.645	12.52
305.857	13.45
306.069	13.58
306.282	12.93
306.494	13.56
306.707	13.8
306.919	14.49
307.132	12.75
307.344	8.66
307.556	9.72
307.769	12.71
307.981	9.78
308.193	8.97
308.406	10.15
308.618	10.29
308.83	10.16
309.043	11.32
309.255	12.13
309.467	11.84
309.679	13.33
309.892	13.7
310.104	13.82
310.316	14.8
310.528	17.09
310.74	18.35
310.953	18.39
311.165	17.53
311.377	17.04
311.589	16.73
311.801	17.11
312.013	17.99
312.225	16.4
312.437	16.46
312.649	15.9
312.862	14.22
313.074	10.58
313.286	12.47
313.498	12.54
313.71	12.18
313.922	12
314.134	12.35
314.346	10.19
314.558	10.37
314.77	7.45
314.982	9.93
315.193	11.91
315.405	14.44
315.617	10.34
315.829	10.36
316.041	11.21
316.253	10.97
316.465	12.33
316.677	15.58
316.888	17.11
317.1	18.93
317.312	16.25
317.524	16.17
317.736	16.63
317.947	20.41
318.159	20.34
318.371	17.83
318.583	16.47
318.794	12.93
319.006	11.4
319.218	9.13
319.43	7.12
319.641	8.62
319.853	6.41
320.064	4.61
320.276	2.93
320.488	3.6
320.699	3.76
320.911	3.95
321.123	10.41
321.334	9.7
321.546	8.78
321.757	7.71
321.969	6.57
322.18	7.46
322.392	7.65
322.603	5.44
322.815	4.93
323.026	9.32
323.238	11.86
323.449	8.33
323.661	9.75
323.872	10.27
324.083	12.15
324.295	13.55
324.506	13.41
324.718	11.66
324.929	12.29
325.14	13.12
325.352	10.85
325.563	11.49
325.774	12.33
325.986	12.24
326.197	14.65
326.408	15.23
326.62	14
326.831	14.89
327.042	15.38
327.253	16.21
327.464	16.66
327.676	19.7
327.887	19.7
328.098	18.28
328.309	16.17
328.52	15.31
328.732	15.58
328.943	13.99
329.154	9.23
329.365	6.73
329.576	6.07
329.787	6.7
329.998	5.55
330.209	3.98
330.42	5.35
330.631	5.48
330.842	4.66
331.053	4.98
331.264	6.78
331.475	9.38
331.686	13.88
331.897	15.41
332.108	13.02
332.319	10.35
332.53	10.23
332.741	12.21
332.952	14.42
333.163	15.4
333.374	16.37
333.585	15.58
333.795	16.59
334.006	18.71
334.217	20.04
334.428	20.65
334.639	22.57
334.849	21.14
335.06	20.3
335.271	19.66
335.482	19.12
335.692	18.68
335.903	20.47
336.114	20.92
336.325	20.19
336.535	15.83
336.746	16.51
336.957	15.98
337.167	18.54
337.378	18.17
337.589	18.4
337.799	18.32
338.01	17.25
338.22	16.64
338.431	14.66
338.642	10.94
338.852	12.41
339.063	10.52
339.273	13.87
339.484	13.59
339.694	11.2
339.905	9.36
340.115	11.16
340.326	10.06
340.536	10.37
340.746	13.68
340.957	16.28
341.167	17.74
341.378	17.52
341.588	13.38
341.799	11.23
342.009	14.75
342.219	14.55
342.43	12.88
342.64	14.28
342.85	15.81
343.061	13.4
343.271	13.36
343.481	14.26
343.691	15.54
343.902	17.9
344.112	17.8
344.322	15.38
344.532	17.06
344.743	17.45
344.953	18.17
345.163	18.39
345.373	20.42
345.583	19.29
345.793	18.19
346.004	18.46
346.214	17.63
346.424	19.25
346.634	20.57
346.844	21.42
347.054	21
347.264	16.82
347.474	15.91
347.684	15.89
347.894	17.47
348.104	18.73
348.314	19.29
348.524	18.87
348.734	19.41
348.944	18.03
349.154	16.37
349.364	15.01
349.574	17.84
349.784	17.6
349.994	19.04
350.204	18.59
350.413	16.58
350.623	17.32
350.833	16.68
351.043	13.98
351.253	14.11
351.463	16.12
351.672	18.11
351.882	18.84
352.092	19.88
352.302	18.49
352.511	17.37
352.721	17.99
352.931	16.39
353.141	16.94
353.35	19.42
353.56	21.24
353.77	16.44
353.979	17.23
354.189	17.74
354.399	13.82
354.608	12.14
354.818	11.17
355.027	11.94
355.237	11.54
355.447	12.26
355.656	11.26
355.866	9.92
356.075	13.69
356.285	11.59
356.494	9.7
356.704	9.83
356.913	10.28
357.123	10.42
357.332	8.16
357.542	8.06
357.751	6.09
357.96	6.6
358.17	6.07
358.379	5.05
358.589	4.85
358.798	6.77
359.007	8.58
359.217	8.6
359.426	8.98
359.635	9.86
359.845	8.77
360.054	8.56
360.263	8.96
360.472	11.17
360.682	11.13
360.891	12.61
361.1	11.58
361.309	12.08
361.519	11
361.728	11.73
361.937	11.27
362.146	13.56
362.355	14.83
362.564	14.86
362.774	13.73
362.983	14.18
363.192	13.8
363.401	14.79
363.61	14.03
363.819	15.32
364.028	14.55
364.237	16.09
364.446	15.34
364.655	16.21
364.864	16.14
365.073	14.54
365.282	14.06
365.491	15.46
365.7	15.78
365.909	15.32
366.118	15.14
366.327	16.12
366.536	15.67
366.745	15.35
366.954	14.51
367.162	15.28
367.371	15.43
367.58	16.07
367.789	14.77
367.998	14.41
368.207	16.37
368.415	17.31
368.624	15.94
368.833	17.19
369.042	17.67
369.25	17.73
369.459	16.94
369.668	17.36
369.877	18
370.085	18.95
370.294	18.53
370.503	17.39
370.711	16.66
370.92	16.71
371.129	16.93
371.337	15.55
371.546	15.48
371.754	15.91
371.963	15.23
372.171	14.16
372.38	13.61
372.589	12.36
372.797	12.1
373.006	12.98
373.214	12.95
373.423	12.46
373.631	14.29
373.84	15.61
374.048	14.43
374.256	14
374.465	14.67
374.673	13.46
374.882	14.47
375.09	13.74
375.298	12.32
375.507	14.27
375.715	13.59
375.923	12.97
376.132	11.48
376.34	12.08
376.548	13.21
376.757	12.62
376.965	13.42
377.173	14.52
377.381	13.87
377.59	13.98
377.798	13.02
378.006	12.17
378.214	11.64
378.423	11.73
378.631	10.45
378.839	11.32
379.047	11.61
379.255	11.04
379.463	10.48
379.671	11.6
379.879	11.86
380.088	10.62
380.296	10.95
380.504	12.22
380.712	11.11
380.92	11.68
381.128	11.83
381.336	11.56
381.544	12.65
381.752	12.3
381.96	12.43
382.168	12.28
382.376	12.98
382.584	12.98
382.791	11.91
382.999	13.05
383.207	13.92
383.415	11.92
383.623	12.68
383.831	12.52
384.039	11.37
384.247	11.69
384.454	11.68
384.662	11.74
384.87	11.11
385.078	11.46
385.285	11.33
385.493	10.28
385.701	11.64
385.909	11.47
386.116	11.23
386.324	13.32
386.532	13.14
386.739	13.21
386.947	12.86
387.155	14.61
387.362	14.59
387.57	14.04
387.778	14.68
387.985	14.19
388.193	13.2
388.4	12.74
388.608	12.65
388.816	11.85
389.023	12.25
389.231	12.38
389.438	12.32
389.646	12.54
389.853	13.53
390.061	12.96
390.268	12.94
390.475	12.9
390.683	12.07
390.89	11.11
391.098	11.66
391.305	11.05
391.512	13.12
391.72	12.57
391.927	11.54
392.135	11.43
392.342	11.66
392.549	11.88
392.756	11.78
392.964	12.66
393.171	12.39
393.378	12.66
393.586	13.59
393.793	11.88
394	12.36
394.207	14
394.414	13.8
394.622	14.24
394.829	13.58
395.036	15.14
395.243	16.25
395.45	17.12
395.657	16.65
395.864	14.08
396.072	14.96
396.279	14.69
396.486	12.82
396.693	14.14
396.9	13.72
397.107	15.49
397.314	14.22
397.521	13.28
397.728	12.93
397.935	12.71
398.142	14.36
398.349	12.24
398.556	12.06
398.763	13.39
398.97	12.3
399.177	12.34
399.383	12.06
399.59	12.06
399.797	12.19
400.004	13.01
400.211	13.39
400.418	14.43
400.625	17
400.831	17.06
401.038	16.26
401.245	15.02
401.452	15.58
401.658	15.79
401.865	16.85
402.072	16.79
402.279	16.17
402.485	16.11
402.692	15.24
402.899	14.43
403.105	14.99
403.312	15.47
403.519	16.59
403.725	16.37
403.932	16.17
404.138	15.77
404.345	16
404.552	16.21
404.758	15.73
404.965	16.56
405.171	16.68
405.378	16.93
405.584	17.11
405.791	17.55
405.997	18.16
406.204	17.33
406.41	17.33
406.617	17.73
406.823	16.74
407.029	17.73
407.236	17.48
407.442	18.43
407.649	18.26
407.855	17.27
408.061	16.31
408.268	16.23
408.474	16.82
408.68	17.09
408.887	16.86
409.093	18.04
409.299	18.25
409.505	18.6
409.712	16.63
409.918	15.99
410.124	17.35
410.33	17.72
410.537	18.17
410.743	18.72
410.949	17.77
411.155	18.2
411.361	18.63
411.567	18.54
411.773	18.91
411.98	19.77
412.186	19.98
412.392	19.27
412.598	19.98
412.804	19.27
413.01	18.74
413.216	19.64
413.422	19.39
413.628	18.31
413.834	18.17
414.04	17.24
414.246	18.39
414.452	18.99
414.658	18.6
414.864	18.27
415.07	18.79
415.275	18.48
415.481	18.03
415.687	17.4
415.893	17.05
416.099	16.82
416.305	17.31
416.511	17.1
416.716	16.99
416.922	17.99
417.128	17.85
417.334	17.02
417.539	17.48
417.745	17.77
417.951	17.45
418.157	17.41
418.362	17.22
418.568	16.59
418.774	16.11
418.979	15.59
419.185	15.2
419.391	14.81
419.596	14.93
419.802	14.93
420.008	15.05
420.213	11.03
420.419	11.29
420.624	11.34
420.83	11.36
421.035	11.71
421.241	11.58
421.446	10.98
421.652	11.59
421.857	11.53
422.063	11.35
422.268	10.88
422.474	14.68
422.679	14.73
422.885	14.88
423.09	15.16
423.295	14.53
423.501	14.74
423.706	14.77
423.911	13.98
424.117	14
424.322	14.48
424.527	14.79
424.733	15.09
424.938	14.85
425.143	14.57
425.349	14.7
425.554	15.78
425.759	15.37
425.964	15.74
426.169	16.53
426.375	17.06
426.58	16.35
426.785	16.54
426.99	16.92
427.195	17.31
427.4	17.9
427.605	17.22
427.811	16.63
428.016	17.07
428.221	17.9
428.426	17.48
428.631	17.46
428.836	17.4
429.041	16.85
429.246	17.2
429.451	17.23
429.656	16.9
429.861	17.1
430.066	17.04
430.271	17.66
430.476	16.93
430.681	17.02
430.886	16.89
431.09	17.03
431.295	16.94
431.5	16.75
431.705	16.63
431.91	16.48
432.115	16.39
432.32	16.71
432.524	16.13
432.729	16.24
432.934	16.32
433.139	16.49
433.343	16.6
433.548	17.22
433.753	17.11
433.958	17.76
434.162	18.51
434.367	18.5
434.572	17.28
434.776	17.77
434.981	17.21
435.186	17.69
435.39	17.83
435.595	17.62
435.799	16.77
436.004	17.32
436.209	17.19
436.413	16.49
436.618	16.77
436.822	17.65
437.027	16.78
437.231	16.95
437.436	16.86
437.64	16.22
437.845	15.88
438.049	16.74
438.253	16.07
438.458	15.26
438.662	15.62
438.867	15.65
439.071	15.43
439.275	16.19
439.48	16.36
439.684	16.03
439.888	16.23
440.093	16.57
440.297	16.61
440.501	17.2
440.706	17.56
440.91	17.49
441.114	17.72
441.318	18.15
441.523	18.44
441.727	18.89
441.931	19.14
442.135	19.23
442.339	18.94
442.543	18.7
442.748	18.6
442.952	18.3
443.156	17.67
443.36	17.65
443.564	16.93
443.768	16.15
443.972	15.47
444.176	15.79
444.38	15.58
444.584	15.58
444.788	15.42
444.992	14.95
445.196	14.84
445.4	15.98
445.604	15.93
445.808	16.14
446.012	16.38
446.216	16.58
446.42	16.67
446.624	16.69
446.828	17.21
447.032	17.1
447.235	17.28
447.439	17.31
447.643	16.97
447.847	16.64
448.051	16.46
448.254	16.58
448.458	16.77
448.662	16.55
448.866	16.62
449.069	15.86
449.273	15.93
449.477	15.88
449.681	16.73
449.884	16.16
450.088	16.3
450.292	16.56
450.495	16.3
450.699	16.59
450.902	16.09
451.106	16.11
451.31	16.75
451.513	17.23
451.717	17.26
451.92	16.87
452.124	17.15
452.327	17.31
452.531	18.08
452.734	18.02
452.938	17.65
453.141	18.56
453.345	18.67
453.548	18.67
453.752	18.44
453.955	18.7
454.158	18.38
454.362	18.73
454.565	18.84
454.769	18.35
454.972	18.4
455.175	18.15
455.379	17.18
455.582	17.17
455.785	16.67
455.988	15.23
456.192	15.08
456.395	15.81
456.598	14.72
456.801	14.22
457.005	14.66
457.208	14.64
457.411	14.92
457.614	15.33
457.817	15.16
458.021	14.99
458.224	15.89
