Data from JASIL_2912_Reflection_1.txt Node
Date: Sat Nov 07 20:32:35 EST 2015
User: Geneva
Spectrometer: USB4E03002
Autoset integration time: false
Trigger mode: 4
Integration Time (sec): 1.000000E-1
Scans to average: 10
Electric dark correction enabled: true
Nonlinearity correction enabled: false
Boxcar width: 5
Stray light correction enabled: false
XAxis mode: Wavelengths
Stop averaging: false
Number of Pixels in Spectrum: 3648
>>>>>Begin Spectral Data<<<<<
177.575	137.98
177.794	165.77
178.014	96.33
178.233	131.33
178.452	117.98
178.672	119.78
178.891	-29.07
179.11	116.03
179.33	114.5
179.549	141.52
179.768	159.26
179.987	140.1
180.207	145.27
180.426	117.52
180.645	132.6
180.864	128.76
181.084	128.6
181.303	142.59
181.522	146.21
181.741	153.66
181.96	123.93
182.179	124.31
182.398	139.87
182.618	137.13
182.837	137.98
183.056	114.97
183.275	127.91
183.494	99.87
183.713	81.39
183.932	77.74
184.151	82.18
184.37	99.8
184.589	99.34
184.808	91.96
185.027	94.52
185.246	93.64
185.465	102.06
185.684	95.19
185.903	114.9
186.122	132.71
186.341	127.61
186.56	125.25
186.779	139.79
186.998	133.72
187.216	133.99
187.435	122.68
187.654	123.23
187.873	124.98
188.092	123.77
188.311	111.35
188.53	104.68
188.748	98.69
188.967	96.01
189.186	93.6
189.405	98.88
189.623	103.82
189.842	110.04
190.061	106.02
190.28	106.01
190.498	101.57
190.717	109.68
190.936	114.34
191.154	113.26
191.373	113.68
191.592	107.22
191.81	103.12
192.029	95.47
192.248	84.41
192.466	84.63
192.685	83.9
192.904	84.96
193.122	80.75
193.341	75.34
193.559	76.51
193.778	74.55
193.996	70.54
194.215	72.12
194.433	71.07
194.652	71.51
194.87	70.28
195.089	71.44
195.307	80.85
195.526	73.7
195.744	73.38
195.963	78.08
196.181	76.46
196.399	79.17
196.618	81.33
196.836	86.03
197.055	91.16
197.273	97.93
197.491	98.84
197.71	95.94
197.928	93.98
198.146	94.26
198.365	85.58
198.583	87.06
198.801	88.22
199.019	78.44
199.238	69.56
199.456	68.39
199.674	64.79
199.892	59.27
200.111	65.05
200.329	76.39
200.547	73.16
200.765	76.52
200.983	72.16
201.202	74.36
201.42	81.6
201.638	86.72
201.856	86.62
202.074	73.85
202.292	76.39
202.51	73.35
202.728	76.83
202.946	85.16
203.165	82.46
203.383	82.53
203.601	76.37
203.819	72.13
204.037	71.57
204.255	64.56
204.473	71.47
204.691	71.45
204.909	64.03
205.127	62.22
205.345	46.93
205.562	53
205.78	57.17
205.998	63.54
206.216	69.19
206.434	69.34
206.652	77.85
206.87	84.3
207.088	83.02
207.306	85.73
207.523	82.85
207.741	95.15
207.959	95.82
208.177	100.69
208.395	98.35
208.612	98.7
208.83	96.24
209.048	91.6
209.266	87.9
209.483	91.1
209.701	93.04
209.919	98.48
210.136	85.61
210.354	84.03
210.572	75.34
210.79	78.58
211.007	76.44
211.225	77.43
211.442	72.73
211.66	72.66
211.878	69.83
212.095	119.01
212.313	116.47
212.53	121.11
212.748	117.58
212.966	120.53
213.183	117.02
213.401	114.14
213.618	108.15
213.836	121.84
214.053	122.42
214.271	118.83
214.488	64.07
214.705	64.67
214.923	68.14
215.14	65.79
215.358	72.11
215.575	74.11
215.793	73.64
216.01	80.98
216.227	77.49
216.445	78.46
216.662	79.13
216.879	80.97
217.097	80.92
217.314	74.89
217.531	77.33
217.749	70.15
217.966	73.55
218.183	70.8
218.4	61.74
218.618	59.71
218.835	53.6
219.052	50.27
219.269	50.45
219.487	51.05
219.704	49.12
219.921	45.95
220.138	44.29
220.355	35.9
220.572	38.78
220.79	40.73
221.007	38.82
221.224	38.92
221.441	42.66
221.658	46.03
221.875	41.84
222.092	42.13
222.309	41.02
222.526	42.76
222.743	46.4
222.96	46.56
223.177	44.26
223.394	44.71
223.611	45.6
223.828	42.66
224.045	39.72
224.262	41.04
224.479	37.71
224.696	37.77
224.913	34.25
225.13	31.22
225.347	29.97
225.564	30.58
225.781	28.23
225.997	26.44
226.214	25.28
226.431	22.7
226.648	21.9
226.865	22.51
227.082	21.63
227.298	21.38
227.515	21.09
227.732	20.87
227.949	20.74
228.165	20.56
228.382	20.08
228.599	19.73
228.816	20.11
229.032	20.08
229.249	19.9
229.466	19.88
229.682	19.99
229.899	20.22
230.116	19.9
230.332	19.37
230.549	20.18
230.765	21.59
230.982	21.1
231.199	21.88
231.415	21.76
231.632	21.75
231.848	21.82
232.065	21.3
232.281	21.07
232.498	21.45
232.714	21.74
232.931	21.46
233.147	20.01
233.364	20.04
233.58	19.2
233.797	19.84
234.013	20.03
234.23	19.67
234.446	19.29
234.662	18.77
234.879	18.38
235.095	17.96
235.312	17.75
235.528	19.02
235.744	19.7
235.961	20.3
236.177	18.56
236.393	18.87
236.61	19.77
236.826	21.02
237.042	21.7
237.258	22.43
237.475	22.81
237.691	22.44
237.907	20.86
238.123	20.86
238.339	20.29
238.556	21.41
238.772	20.56
238.988	20.34
239.204	19.66
239.42	19.26
239.636	18.43
239.853	17.7
240.069	17.61
240.285	17.5
240.501	16.96
240.717	16.66
240.933	16.18
241.149	15.93
241.365	15.65
241.581	15.66
241.797	15.46
242.013	15.35
242.229	15.79
242.445	15.61
242.661	15.38
242.877	15.74
243.093	15.78
243.309	15.51
243.525	15.52
243.741	15.7
243.957	15.32
244.173	15.57
244.388	15.6
244.604	14.56
244.82	14.25
245.036	14.07
245.252	13.92
245.468	13.9
245.683	13.98
245.899	13.58
246.115	13.44
246.331	13.29
246.547	13.02
246.762	12.85
246.978	13.04
247.194	12.97
247.409	13.04
247.625	12.86
247.841	12.82
248.057	13.02
248.272	13.3
248.488	13.14
248.703	13.17
248.919	13.66
249.135	14.17
249.35	14.25
249.566	14.71
249.782	14.9
249.997	14.91
250.213	14.85
250.428	14.24
250.644	14.67
250.859	14.56
251.075	14.59
251.29	13.83
251.506	13.61
251.721	13.24
251.937	13.25
252.152	12.91
252.368	13.15
252.583	13.24
252.798	13.69
253.014	13.48
253.229	13.4
253.445	13.55
253.66	14.78
253.875	14.49
254.091	15.1
254.306	14.51
254.521	14.88
254.737	15.01
254.952	14.4
255.167	14
255.383	13.51
255.598	14.12
255.813	13.64
256.028	13.23
256.244	13.15
256.459	12.95
256.674	12.54
256.889	11.84
257.104	11.17
257.32	11.43
257.535	11.32
257.75	10.92
257.965	10.72
258.18	10.91
258.395	10.51
258.61	10.42
258.826	10.2
259.041	10.39
259.256	10.48
259.471	10.46
259.686	10.28
259.901	10.2
260.116	10.39
260.331	10.18
260.546	10.06
260.761	10.12
260.976	10.18
261.191	10.07
261.406	9.82
261.621	10.02
261.836	10.17
262.05	10.18
262.265	10.18
262.48	10.11
262.695	10.29
262.91	10.56
263.125	10.88
263.34	11.03
263.555	11.87
263.769	11.94
263.984	11.79
264.199	11.64
264.414	11.66
264.629	11.93
264.843	12.11
265.058	12.11
265.273	11.5
265.488	11.11
265.702	10.8
265.917	10.55
266.132	10.44
266.346	10.4
266.561	10.5
266.776	10.7
266.99	10.2
267.205	10.15
267.42	10.02
267.634	10.11
267.849	10.42
268.063	10.54
268.278	10.51
268.492	10.65
268.707	10.5
268.922	10.59
269.136	10.23
269.351	10.15
269.565	9.98
269.78	10.19
269.994	10.21
270.209	10.15
270.423	10.19
270.637	9.93
270.852	9.9
271.066	9.94
271.281	9.86
271.495	9.86
271.709	10.05
271.924	10.16
272.138	10.04
272.353	10.09
272.567	9.82
272.781	9.77
272.996	9.95
273.21	9.96
273.424	10
273.638	9.88
273.853	9.96
274.067	10.02
274.281	10.13
274.495	10.27
274.71	10.2
274.924	10.25
275.138	10.21
275.352	10.13
275.566	10.25
275.781	10.39
275.995	10.7
276.209	11
276.423	10.9
276.637	10.45
276.851	10.28
277.065	10.19
277.279	10.4
277.493	10.26
277.707	10.49
277.921	10.35
278.135	9.89
278.349	9.48
278.563	9.01
278.777	8.94
278.991	9.29
279.205	9.3
279.419	9.37
279.633	9.53
279.847	9.64
280.061	9.48
280.275	9.35
280.489	9.71
280.703	9.69
280.917	9.82
281.131	9.87
281.344	9.49
281.558	9.32
281.772	9.13
281.986	8.94
282.2	8.9
282.414	9
282.627	9.04
282.841	9.01
283.055	9.25
283.269	9.15
283.482	9.16
283.696	9.29
283.91	9.1
284.123	9.19
284.337	9.02
284.551	8.72
284.764	8.63
284.978	8.47
285.192	8.4
285.405	8.09
285.619	8.1
285.833	8.15
286.046	8.12
286.26	8.36
286.473	8.34
286.687	8.43
286.9	8.85
287.114	8.8
287.327	8.86
287.541	8.74
287.754	8.84
287.968	8.9
288.181	8.75
288.395	8.73
288.608	8.66
288.822	8.57
289.035	8.51
289.248	8.42
289.462	8.64
289.675	8.76
289.889	8.82
290.102	8.82
290.315	8.94
290.529	8.93
290.742	9
290.955	9.12
291.169	9.3
291.382	9.33
291.595	9.39
291.808	9.2
292.022	9.13
292.235	9.17
292.448	9.3
292.661	9.02
292.875	8.97
293.088	8.94
293.301	9.02
293.514	8.81
293.727	8.78
293.94	8.82
294.153	8.65
294.367	8.72
294.58	8.63
294.793	8.6
295.006	8.56
295.219	8.66
295.432	8.63
295.645	8.58
295.858	8.48
296.071	8.5
296.284	8.39
296.497	8.52
296.71	8.42
296.923	8.59
297.136	8.44
297.349	8.71
297.562	8.68
297.775	8.69
297.988	8.73
298.201	8.92
298.414	9.08
298.626	9.04
298.839	8.94
299.052	9.08
299.265	9.09
299.478	9.27
299.691	9.23
299.903	9.11
300.116	9.22
300.329	9.06
300.542	9.03
300.755	9
300.967	8.88
301.18	8.82
301.393	8.8
301.605	8.64
301.818	8.65
302.031	8.49
302.243	8.8
302.456	8.84
302.669	9.03
302.881	9.34
303.094	9.11
303.307	9.18
303.519	9.32
303.732	9.27
303.944	9.39
304.157	9.48
304.37	9.68
304.582	9.58
304.795	9.4
305.007	9.46
305.22	9.39
305.432	9.56
305.645	9.69
305.857	9.77
306.069	9.62
306.282	9.45
306.494	9.53
306.707	9.43
306.919	9.44
307.132	9.39
307.344	9.16
307.556	9.09
307.769	9.35
307.981	9.32
308.193	9.29
308.406	9.4
308.618	9.33
308.83	9.2
309.043	9.08
309.255	9.1
309.467	9.24
309.679	9.42
309.892	9.23
310.104	8.95
310.316	8.94
310.528	8.94
310.74	8.99
310.953	9.13
311.165	9.21
311.377	9.32
311.589	9.32
311.801	9.33
312.013	9.34
312.225	9.67
312.437	9.94
312.649	10.31
312.862	10.2
313.074	10.16
313.286	10.21
313.498	10.37
313.71	10.53
313.922	10.58
314.134	10.57
314.346	10.48
314.558	10.54
314.77	10.74
314.982	10.62
315.193	10.72
315.405	10.88
315.617	10.78
315.829	10.72
316.041	10.88
316.253	11.09
316.465	11.26
316.677	11.5
316.888	11.45
317.1	11.43
317.312	11.41
317.524	11.64
317.736	11.92
317.947	12.31
318.159	12.37
318.371	12.07
318.583	12.12
318.794	12.19
319.006	12.42
319.218	12.46
319.43	12.36
319.641	12.63
319.853	12.96
320.064	13.12
320.276	13.17
320.488	13.37
320.699	13.78
320.911	14.11
321.123	14.41
321.334	14.6
321.546	15.11
321.757	15.56
321.969	15.78
322.18	15.97
322.392	16.06
322.603	16.38
322.815	16.83
323.026	17.03
323.238	17.05
323.449	17.16
323.661	17.47
323.872	17.92
324.083	18.39
324.295	18.91
324.506	19.37
324.718	19.89
324.929	20.4
325.14	20.87
325.352	21.44
325.563	22.23
325.774	22.96
325.986	23.44
326.197	23.89
326.408	24.43
326.62	24.85
326.831	25.34
327.042	25.99
327.253	26.54
327.464	27.11
327.676	27.82
327.887	28.34
328.098	28.91
328.309	29.65
328.52	30.2
328.732	30.81
328.943	31.64
329.154	32.31
329.365	32.9
329.576	33.53
329.787	34.01
329.998	34.47
330.209	34.88
330.42	35.15
330.631	35.59
330.842	36.1
331.053	36.36
331.264	36.66
331.475	37.18
331.686	37.3
331.897	37.67
332.108	37.86
332.319	37.9
332.53	38.3
332.741	38.63
332.952	38.86
333.163	38.83
333.374	39.05
333.585	39.01
333.795	39
334.006	39.15
334.217	39.16
334.428	39.45
334.639	39.7
334.849	39.33
335.06	39.39
335.271	39.29
335.482	39.42
335.692	39.35
335.903	39.49
336.114	39.65
336.325	39.8
336.535	39.97
336.746	40.12
336.957	40.2
337.167	40.6
337.378	40.73
337.589	40.92
337.799	41
338.01	41.1
338.22	41.08
338.431	40.87
338.642	40.87
338.852	40.76
339.063	40.37
339.273	40.26
339.484	40.18
339.694	40.25
339.905	40.16
340.115	40.05
340.326	40.03
340.536	39.87
340.746	39.84
340.957	39.77
341.167	39.77
341.378	39.93
341.588	39.96
341.799	39.93
342.009	39.69
342.219	39.46
342.43	39.42
342.64	39.32
342.85	39.23
343.061	38.96
343.271	38.95
343.481	38.64
343.691	38.37
343.902	38.43
344.112	38.24
344.322	38.29
344.532	38.31
344.743	38.14
344.953	38.05
345.163	38.17
345.373	38.48
345.583	38.49
345.793	38.57
346.004	38.65
346.214	38.43
346.424	38.51
346.634	38.43
346.844	38.41
347.054	38.6
347.264	38.73
347.474	38.7
347.684	38.4
347.894	38.31
348.104	38.23
348.314	38.34
348.524	38.19
348.734	37.94
348.944	37.82
349.154	37.77
349.364	37.54
349.574	37.37
349.784	37.2
349.994	37.15
350.204	36.97
350.413	36.91
350.623	36.66
350.833	36.58
351.043	36.54
351.253	36.54
351.463	36.39
351.672	36.58
351.882	36.54
352.092	36.45
352.302	36.48
352.511	36.49
352.721	36.56
352.931	36.58
353.141	36.78
353.35	36.93
353.56	36.77
353.77	36.76
353.979	36.53
354.189	36.52
354.399	36.51
354.608	36.27
354.818	36.13
355.027	36.01
355.237	35.97
355.447	35.83
355.656	35.82
355.866	35.69
356.075	35.81
356.285	35.77
356.494	35.62
356.704	35.59
356.913	35.68
357.123	35.59
357.332	35.4
357.542	35.31
357.751	35.22
357.96	35.06
358.17	35.13
358.379	34.99
358.589	35
358.798	34.86
359.007	34.87
359.217	34.86
359.426	34.79
359.635	34.82
359.845	34.86
360.054	34.83
360.263	34.74
360.472	34.72
360.682	34.64
360.891	34.47
361.1	34.49
361.309	34.42
361.519	34.28
361.728	34.38
361.937	34.37
362.146	34.29
362.355	34.26
362.564	34.2
362.774	34.17
362.983	34.15
363.192	34.23
363.401	34.23
363.61	34.11
363.819	34.19
364.028	34.16
364.237	34.1
364.446	33.97
364.655	33.98
364.864	33.94
365.073	33.96
365.282	33.87
365.491	33.71
365.7	33.74
365.909	33.83
366.118	33.71
366.327	33.62
366.536	33.57
366.745	33.63
366.954	33.6
367.162	33.62
367.371	33.47
367.58	33.53
367.789	33.6
367.998	33.54
368.207	33.47
368.415	33.45
368.624	33.36
368.833	33.46
369.042	33.38
369.25	33.32
369.459	33.42
369.668	33.4
369.877	33.34
370.085	33.27
370.294	33.11
370.503	33.05
370.711	33.11
370.92	33.18
371.129	33.1
371.337	33.01
371.546	32.96
371.754	32.92
371.963	32.84
372.171	32.8
372.38	32.77
372.589	32.78
372.797	32.87
373.006	32.66
373.214	32.52
373.423	32.45
373.631	32.58
373.84	32.56
374.048	32.48
374.256	32.41
374.465	32.42
374.673	32.36
374.882	32.44
375.09	32.32
375.298	32.39
375.507	32.38
375.715	32.34
375.923	32.22
376.132	32.25
376.34	32.2
376.548	32.24
376.757	32.21
376.965	32.23
377.173	32.2
377.381	32.27
377.59	32.36
377.798	32.41
378.006	32.37
378.214	32.42
378.423	32.25
378.631	32.15
378.839	32.16
379.047	32.04
379.255	32.02
379.463	31.93
379.671	31.77
379.879	31.69
380.088	31.69
380.296	31.77
380.504	31.79
380.712	31.9
380.92	31.96
381.128	31.94
381.336	31.87
381.544	31.82
381.752	31.81
381.96	31.83
382.168	31.69
382.376	31.63
382.584	31.67
382.791	31.62
382.999	31.74
383.207	31.67
383.415	31.69
383.623	31.81
383.831	31.83
384.039	31.82
384.247	31.75
384.454	31.82
384.662	31.66
384.87	31.47
385.078	31.42
385.285	31.13
385.493	31.09
385.701	31
385.909	30.84
386.116	30.77
386.324	30.84
386.532	30.78
386.739	30.73
386.947	30.75
387.155	30.71
387.362	30.62
387.57	30.59
387.778	30.6
387.985	30.5
388.193	30.68
388.4	30.77
388.608	30.72
388.816	30.76
389.023	30.72
389.231	30.73
389.438	30.78
389.646	30.8
389.853	30.83
390.061	30.82
390.268	30.92
390.475	30.74
390.683	30.64
390.89	30.56
391.098	30.52
391.305	30.5
391.512	30.54
391.72	30.57
391.927	30.54
392.135	30.62
392.342	30.54
392.549	30.53
392.756	30.58
392.964	30.67
393.171	30.6
393.378	30.65
393.586	30.63
393.793	30.55
394	30.43
394.207	30.37
394.414	30.25
394.622	30.25
394.829	30.13
395.036	30.08
395.243	29.89
395.45	29.83
395.657	29.75
395.864	29.69
396.072	29.65
396.279	29.67
396.486	29.59
396.693	29.52
396.9	29.48
397.107	29.49
397.314	29.58
397.521	29.54
397.728	29.65
397.935	29.74
398.142	29.68
398.349	29.68
398.556	29.65
398.763	29.72
398.97	29.75
399.177	29.77
399.383	29.78
399.59	29.63
399.797	29.69
400.004	29.57
400.211	29.47
400.418	29.57
400.625	29.52
400.831	29.6
401.038	29.51
401.245	29.58
401.452	29.52
401.658	29.43
401.865	29.42
402.072	29.46
402.279	29.46
402.485	29.36
402.692	29.24
402.899	29.22
403.105	29.15
403.312	29.23
403.519	29.14
403.725	29.18
403.932	29.21
404.138	29.13
404.345	28.99
404.552	28.99
404.758	29.06
404.965	29.07
405.171	29.09
405.378	29.03
405.584	29
405.791	28.92
405.997	28.86
406.204	28.86
406.41	28.91
406.617	29
406.823	29
407.029	29.1
407.236	29.15
407.442	29.19
407.649	29.2
407.855	29.09
408.061	29.23
408.268	29.29
408.474	29.26
408.68	29.28
408.887	29.29
409.093	29.26
409.299	29.11
409.505	28.97
409.712	28.9
409.918	28.89
410.124	28.92
410.33	28.92
410.537	28.87
410.743	28.87
410.949	28.84
411.155	28.84
411.361	28.86
411.567	28.86
411.773	29
411.98	29.06
412.186	29.18
412.392	29.27
412.598	29.2
412.804	29.17
413.01	29.17
413.216	29.19
413.422	29.24
413.628	29.26
413.834	29.2
414.04	29.08
414.246	29.03
414.452	28.82
414.658	28.83
414.864	28.75
415.07	28.69
415.275	28.66
415.481	28.58
415.687	28.5
415.893	28.47
416.099	28.51
416.305	28.44
416.511	28.45
416.716	28.51
416.922	28.44
417.128	28.49
417.334	28.52
417.539	28.43
417.745	28.43
417.951	28.35
418.157	28.35
418.362	28.31
418.568	28.36
418.774	28.34
418.979	28.35
419.185	28.34
419.391	28.32
419.596	28.32
419.802	28.37
420.008	28.37
420.213	28.22
420.419	28.23
420.624	28.19
420.83	28.22
421.035	28.22
421.241	28.2
421.446	28.23
421.652	28.24
421.857	28.27
422.063	28.2
422.268	28.21
422.474	28.38
422.679	28.36
422.885	28.45
423.09	28.44
423.295	28.41
423.501	28.47
423.706	28.41
423.911	28.42
424.117	28.41
424.322	28.49
424.527	28.51
424.733	28.52
424.938	28.56
425.143	28.52
425.349	28.52
425.554	28.59
425.759	28.52
425.964	28.58
426.169	28.62
426.375	28.61
426.58	28.61
426.785	28.64
426.99	28.69
427.195	28.76
427.4	28.77
427.605	28.82
427.811	28.83
428.016	28.9
428.221	28.92
428.426	28.9
428.631	28.97
428.836	28.96
429.041	28.93
429.246	28.93
429.451	28.86
429.656	28.92
429.861	28.86
430.066	28.86
430.271	28.86
430.476	28.87
430.681	28.86
430.886	28.9
431.09	28.93
431.295	28.96
431.5	28.97
431.705	28.91
431.91	28.91
432.115	28.96
432.32	28.98
432.524	29
432.729	28.98
432.934	28.96
433.139	28.93
433.343	28.96
433.548	28.99
433.753	28.99
433.958	29.08
434.162	29.13
434.367	29.11
434.572	29.11
434.776	29.09
434.981	29.16
435.186	29.2
435.39	29.22
435.595	29.16
435.799	29.13
436.004	29.19
436.209	29.18
436.413	29.1
436.618	29.09
436.822	29.07
437.027	29.06
437.231	29.03
437.436	29.01
437.64	28.99
437.845	29.05
438.049	29.05
438.253	28.96
438.458	28.91
438.662	28.95
438.867	29.01
439.071	29.03
439.275	29.09
439.48	29.1
439.684	29.14
439.888	29.16
440.093	29.13
440.297	29.12
440.501	29.15
440.706	29.19
440.91	29.19
441.114	29.14
441.318	29.15
441.523	29.16
441.727	29.15
441.931	29.14
442.135	29.16
442.339	29.19
442.543	29.25
442.748	29.28
442.952	29.24
443.156	29.21
443.36	29.27
443.564	29.26
443.768	29.15
443.972	29.14
444.176	29.15
444.38	29.09
444.584	29.03
444.788	28.96
444.992	28.91
445.196	28.91
445.4	28.86
445.604	28.83
445.808	28.81
446.012	28.8
446.216	28.76
446.42	28.72
446.624	28.75
446.828	28.75
447.032	28.74
447.235	28.75
447.439	28.79
447.643	28.83
447.847	28.83
448.051	28.84
448.254	28.87
448.458	28.94
448.662	28.95
448.866	28.93
449.069	28.89
449.273	28.94
449.477	28.94
449.681	28.89
449.884	28.85
450.088	28.86
450.292	28.77
450.495	28.71
450.699	28.73
450.902	28.77
451.106	28.75
451.31	28.79
451.513	28.75
451.717	28.76
451.92	28.78
452.124	28.82
452.327	28.79
452.531	28.8
452.734	28.84
452.938	28.81
453.141	28.81
453.345	28.78
453.548	28.77
453.752	28.8
453.955	28.8
454.158	28.81
454.362	28.74
454.565	28.76
454.769	28.77
454.972	28.86
455.175	28.8
455.379	28.73
455.582	28.72
455.785	28.7
455.988	28.61
456.192	28.59
456.395	28.53
456.598	28.6
456.801	28.54
457.005	28.49
457.208	28.4
457.411	28.36
457.614	28.29
457.817	28.28
458.021	28.21
458.224	28.19
458.427	28.14
458.63	28.08
458.833	28.05
