Data from JASIL_3019_Reflection_01.txt Node
Date: Mon Nov 09 10:43:07 EST 2015
User: Geneva
Spectrometer: USB4E03002
Autoset integration time: false
Trigger mode: 4
Integration Time (sec): 1.000000E-1
Scans to average: 10
Electric dark correction enabled: false
Nonlinearity correction enabled: false
Boxcar width: 5
Stray light correction enabled: false
XAxis mode: Wavelengths
Stop averaging: false
Number of Pixels in Spectrum: 3648
>>>>>Begin Spectral Data<<<<<
177.575	72.3
177.794	36.81
178.014	25.95
178.233	26.62
178.452	-27.05
178.672	-261.4
178.891	-730.43
179.11	639.02
179.33	2890.91
179.549	184.62
179.768	181.12
179.987	501.39
180.207	-360
180.426	-165.67
180.645	-18.34
180.864	35.01
181.084	61.24
181.303	72.22
181.522	57.18
181.741	66.67
181.96	14.89
182.179	109.25
182.398	100.93
182.618	100
182.837	112.14
183.056	91.58
183.275	20
183.494	-78.89
183.713	-462.5
183.932	-85.11
184.151	-424.24
184.37	-25.13
184.589	-1955.56
184.808	205.56
185.027	137.27
185.246	164.31
185.465	91.42
185.684	142.2
185.903	42.75
186.122	43.97
186.341	32.76
186.56	46.19
186.779	28.57
186.998	38.46
187.216	62.4
187.435	54.17
187.654	24.57
187.873	20.57
188.092	34.64
188.311	-12.03
188.53	-14.36
188.748	-53.26
188.967	-208.84
189.186	401.08
189.405	183.15
189.623	333.64
189.842	555.56
190.061	-2480
190.28	-117.02
190.498	-123.81
190.717	-51.43
190.936	-96.55
191.154	-34.18
191.373	41.71
191.592	-6.99
191.81	-56.77
192.029	-87.3
192.248	-147.62
192.466	-66.81
192.685	-44.33
192.904	-917.39
193.122	202.9
193.341	-2200
193.559	1100
193.778	153.41
193.996	80.36
194.215	-34.04
194.433	-124.77
194.652	-175.32
194.87	34.58
195.089	62.39
195.307	133.33
195.526	153.09
195.744	117.07
195.963	151.47
196.181	-423.4
196.399	-119.28
196.618	-39.42
196.836	-45.66
197.055	-68.22
197.273	-27.18
197.491	9.5
197.71	18.87
197.928	-1.52
198.146	-13.47
198.365	-106.1
198.583	-2611.11
198.801	142.92
199.019	120.85
199.238	89.55
199.456	110.2
199.674	98.28
199.892	147.22
200.111	91
200.329	-348.21
200.547	2241.67
200.765	-449.35
200.983	196.69
201.202	251.19
201.42	151.34
201.638	98.07
201.856	175.56
202.074	69.7
202.292	233.33
202.51	112.5
202.728	-1050
202.946	135.61
203.165	-842.11
203.383	238.46
203.601	1150
203.819	-239.53
204.037	-93.75
204.255	-16
204.473	48.87
204.691	-124.51
204.909	876.19
205.127	-772.73
205.345	-680.39
205.562	288.89
205.78	40
205.998	298.55
206.216	237.74
206.434	77.53
206.652	785.71
206.87	177.97
207.088	104.24
207.306	40.76
207.523	30.3
207.741	-157.14
207.959	14.86
208.177	99.34
208.395	144.59
208.612	178.62
208.83	163.91
209.048	182.89
209.266	279.41
209.483	378.69
209.701	-1279.31
209.919	8700
210.136	558.18
210.354	3441.67
210.572	-670.21
210.79	-1425
211.007	316.06
211.225	210.53
211.442	357.89
211.66	-42.62
211.878	72.37
212.095	303.77
212.313	766.67
212.53	156.56
212.748	185.31
212.966	790.24
213.183	12450
213.401	158.85
213.618	134.3
213.836	150.6
214.053	200.94
214.271	114.77
214.488	69.29
214.705	-0
214.923	-55.38
215.14	-241.73
215.358	-106.15
215.575	32.62
215.793	-30.3
216.01	-333.33
216.227	-405.56
216.445	220.85
216.662	414.29
216.879	156.98
217.097	84.98
217.314	79.84
217.531	-84.48
217.749	75.81
217.966	78.46
218.183	58.35
218.4	73.33
218.618	113.26
218.835	96.42
219.052	109.21
219.269	116.45
219.487	108.6
219.704	134.53
219.921	158.28
220.138	193.21
220.355	160.91
220.572	4600
220.79	-60.19
221.007	16.18
221.224	137.5
221.441	191.95
221.658	-36.49
221.875	-18.66
222.092	-0.49
222.309	26.5
222.526	15.56
222.743	10.92
222.96	6.99
223.177	22.34
223.394	27.83
223.611	43.12
223.828	54.01
224.045	64.98
224.262	62.36
224.479	59.53
224.696	37.5
224.913	39.1
225.13	50.09
225.347	52.57
225.564	53.55
225.781	54.71
225.997	61.74
226.214	50.93
226.431	39.58
226.648	32.91
226.865	30.03
227.082	29.12
227.298	30.41
227.515	21.44
227.732	24.81
227.949	19.69
228.165	21.55
228.382	14.11
228.599	14.78
228.816	17.59
229.032	13.26
229.249	6.7
229.466	14.93
229.682	7.48
229.899	17.17
230.116	14.89
230.332	21.18
230.549	8.27
230.765	10.85
230.982	21.55
231.199	20.16
231.415	18.75
231.632	30.33
231.848	19.56
232.065	25.37
232.281	13.54
232.498	10.9
232.714	9.87
232.931	12.54
233.147	8.06
233.364	0.18
233.58	-11.74
233.797	-11.36
234.013	-14.96
234.23	-15.35
234.446	-19.48
234.662	-11.65
234.879	-10.74
235.095	-2.17
235.312	-1.09
235.528	-7.12
235.744	-10.78
235.961	-10.78
236.177	-3.86
236.393	2.68
236.61	-1.58
236.826	-7.33
237.042	4.73
237.258	8.35
237.475	7.05
237.691	12.64
237.907	19.62
238.123	31.62
238.339	35.59
238.556	36.67
238.772	36.23
238.988	32.72
239.204	36.35
239.42	31.35
239.636	27.71
239.853	26.67
240.069	21.18
240.285	15.54
240.501	13.71
240.717	13.76
240.933	12.61
241.149	13.61
241.365	12.89
241.581	14.46
241.797	16.28
242.013	16.41
242.229	13.12
242.445	13.9
242.661	18.18
242.877	18.1
243.093	13.8
243.309	11.28
243.525	7.51
243.741	16.16
243.957	13.97
244.173	12.65
244.388	15.39
244.604	17.75
244.82	16.8
245.036	18.09
245.252	17.67
245.468	17.37
245.683	15.39
245.899	14.49
246.115	12.77
246.331	13.52
246.547	13.28
246.762	11.22
246.978	9.02
247.194	9.79
247.409	7.08
247.625	3.75
247.841	4.11
248.057	6.58
248.272	6.79
248.488	6.77
248.703	9.32
248.919	4.49
249.135	6.85
249.35	9.62
249.566	10.45
249.782	10.16
249.997	13.1
250.213	11.94
250.428	15.23
250.644	16.44
250.859	10.78
251.075	8.08
251.29	10.93
251.506	10.95
251.721	11.36
251.937	10.2
252.152	13.06
252.368	12.3
252.583	13.07
252.798	15.2
253.014	13.38
253.229	19.63
253.445	10.11
253.66	10.2
253.875	5.44
254.091	2.68
254.306	3.78
254.521	4.53
254.737	-0.04
254.952	4.55
255.167	-2.73
255.383	-3.49
255.598	-2.09
255.813	3.3
256.028	-1.39
256.244	4.48
256.459	2.07
256.674	1.83
256.889	-0.54
257.104	4.18
257.32	1.59
257.535	-1.2
257.75	2.11
257.965	2.67
258.18	4.12
258.395	6.05
258.61	4.27
258.826	6.82
259.041	5.96
259.256	5.73
259.471	4.99
259.686	6.78
259.901	8.97
260.116	7.5
260.331	8
260.546	8.08
260.761	7.98
260.976	9.42
261.191	7.25
261.406	6.64
261.621	10.9
261.836	13.43
262.05	10.15
262.265	6.16
262.48	6.78
262.695	5.47
262.91	6.7
263.125	4.92
263.34	4.25
263.555	3.52
263.769	6.98
263.984	9.16
264.199	9.48
264.414	8.82
264.629	11.89
264.843	11.94
265.058	10.65
265.273	8.77
265.488	8.8
265.702	8.3
265.917	8.45
266.132	8.97
266.346	6.65
266.561	6.23
266.776	6.88
266.99	5.49
267.205	6.48
267.42	4.83
267.634	4.54
267.849	4.99
268.063	4.09
268.278	3.27
268.492	3.27
268.707	2.02
268.922	1.89
269.136	4.38
269.351	6.78
269.565	5.13
269.78	6.76
269.994	6.72
270.209	5.55
270.423	8.07
270.637	10.42
270.852	12.82
271.066	13.38
271.281	12.66
271.495	13.25
271.709	11.47
271.924	11.01
272.138	9.36
272.353	7.39
272.567	7.13
272.781	3.66
272.996	0.62
273.21	-2.66
273.424	-3.26
273.638	-2.59
273.853	-4.78
274.067	-1.62
274.281	-1.76
274.495	1.63
274.71	0.35
274.924	0.57
275.138	4.84
275.352	6.55
275.566	6.67
275.781	6.44
275.995	4.72
276.209	3.14
276.423	0.23
276.637	0.42
276.851	-1.78
277.065	2.56
277.279	1.28
277.493	2.65
277.707	-0.02
277.921	0.77
278.135	1.5
278.349	1.54
278.563	-1.02
278.777	-0.02
278.991	-0.87
279.205	1.65
279.419	-0.71
279.633	2.62
279.847	1.92
280.061	1.7
280.275	-1.87
280.489	-2.05
280.703	-4.5
280.917	-1.62
281.131	-2.55
281.344	-2.67
281.558	-5.7
281.772	-4.09
281.986	-4.27
282.2	-7.57
282.414	-3.5
282.627	-2.24
282.841	-5.11
283.055	-0.9
283.269	-0.27
283.482	0.68
283.696	1.82
283.91	3.18
284.123	3.35
284.337	3.55
284.551	3.98
284.764	3.2
284.978	4.74
285.192	7.25
285.405	6.34
285.619	6.37
285.833	4.25
286.046	4.24
286.26	4.36
286.473	4.89
286.687	3.33
286.9	4.77
287.114	1.5
287.327	0.66
287.541	-0.32
287.754	-0.17
287.968	-0.62
288.181	0.97
288.395	0.28
288.608	1.07
288.822	0.23
289.035	0.95
289.248	0.75
289.462	3.36
289.675	1.47
289.889	0.93
290.102	0.75
290.315	1.53
290.529	1.7
290.742	4.34
290.955	3.34
291.169	4.34
291.382	6.53
291.595	6.65
291.808	5.82
292.022	6.02
292.235	6.23
292.448	6.31
292.661	6.15
292.875	5.09
293.088	2.87
293.301	2.97
293.514	2.44
293.727	2.15
293.94	0.73
294.153	1.43
294.367	2.98
294.58	1.4
294.793	3.65
295.006	4.18
295.219	5.16
295.432	6.26
295.645	5.54
295.858	6.27
296.071	4.95
296.284	4.97
296.497	6.07
296.71	4.47
296.923	7.22
297.136	4.06
297.349	3.15
297.562	2.18
297.775	0.99
297.988	1.84
298.201	0.58
298.414	1.42
298.626	1.71
298.839	-0.74
299.052	3.28
299.265	1.22
299.478	3.43
299.691	4.66
299.903	4.49
300.116	3.87
300.329	4.53
300.542	7.11
300.755	6.83
300.967	7.83
301.18	5.89
301.393	4.35
301.605	4.92
301.818	4.26
302.031	3.72
302.243	4.16
302.456	5.85
302.669	4.1
302.881	1.47
303.094	0.11
303.307	0.87
303.519	1.46
303.732	-1
303.944	-2.91
304.157	-2.76
304.37	-2.88
304.582	-1.74
304.795	-2.31
305.007	-2.52
305.22	-2.34
305.432	-1.08
305.645	-2.59
305.857	-3.32
306.069	-2.02
306.282	-1.29
306.494	-0.49
306.707	-0.05
306.919	-0.83
307.132	-1.68
307.344	-0.53
307.556	2.12
307.769	2.4
307.981	2.01
308.193	3.07
308.406	3.84
308.618	4.26
308.83	2.57
309.043	2.46
309.255	4
309.467	3.15
309.679	3.46
309.892	2.06
310.104	1.61
310.316	3.78
310.528	4.86
310.74	5.3
310.953	6.66
311.165	5.77
311.377	7.15
311.589	5.03
311.801	8.15
312.013	8.8
312.225	8.84
312.437	9.55
312.649	6.41
312.862	7.69
313.074	4.93
313.286	3.51
313.498	7.55
313.71	5.7
313.922	7.85
314.134	3.5
314.346	1.21
314.558	2.67
314.77	1.33
314.982	3.51
315.193	4.02
315.405	5.47
315.617	4.12
315.829	7.12
316.041	7.72
316.253	7.61
316.465	9.39
316.677	9.83
316.888	6.21
317.1	7.86
317.312	7.06
317.524	5.86
317.736	6.03
317.947	9.78
318.159	7.17
318.371	8.02
318.583	10.71
318.794	12.94
319.006	13.27
319.218	15.17
319.43	14.78
319.641	15.75
319.853	13.76
320.064	13.3
320.276	10.32
320.488	10.29
320.699	10.92
320.911	7.97
321.123	9.27
321.334	7.38
321.546	7.34
321.757	8.89
321.969	9.16
322.18	12.25
322.392	16.46
322.603	15.59
322.815	13.07
323.026	10.07
323.238	11.66
323.449	8.03
323.661	10.95
323.872	9.14
324.083	6.95
324.295	6.87
324.506	4.52
324.718	2.29
324.929	2.95
325.14	2.1
325.352	2.63
325.563	0.14
325.774	0.65
325.986	0.55
326.197	3.03
326.408	2.55
326.62	1.65
326.831	1.8
327.042	3.8
327.253	6.67
327.464	8.49
327.676	10.61
327.887	10.42
328.098	10.3
328.309	11.14
328.52	12.04
328.732	13.83
328.943	14.34
329.154	15.97
329.365	13.01
329.576	11.66
329.787	11.68
329.998	10.96
330.209	11.36
330.42	13.92
330.631	15.24
330.842	14.46
331.053	15.94
331.264	16.69
331.475	14.04
331.686	14.65
331.897	14.65
332.108	10.91
332.319	11.48
332.53	11.94
332.741	11.03
332.952	7.88
333.163	5.9
333.374	4.11
333.585	5.26
333.795	9.15
334.006	9.47
334.217	9.2
334.428	13.78
334.639	12.01
334.849	11.57
335.06	11.55
335.271	14.46
335.482	17.33
335.692	18.22
335.903	16.89
336.114	14.93
336.325	14.88
336.535	17
336.746	16.81
336.957	16.63
337.167	17.99
337.378	17
337.589	13.8
337.799	12.43
338.01	13.32
338.22	15.23
338.431	14.68
338.642	14.2
338.852	12.03
339.063	11.33
339.273	11.57
339.484	8.8
339.694	9.13
339.905	10.13
340.115	8.82
340.326	8.39
340.536	6.09
340.746	5
340.957	6.03
341.167	5.9
341.378	6.53
341.588	6.17
341.799	6.46
342.009	6.39
342.219	6.92
342.43	8.99
342.64	8.9
342.85	8.84
343.061	10
343.271	9.45
343.481	8.32
343.691	5.54
343.902	5.52
344.112	7.95
344.322	8.14
344.532	6.28
344.743	6.79
344.953	5.7
345.163	7.47
345.373	10.36
345.583	10.79
345.793	11.89
346.004	14.65
346.214	16.07
346.424	14.18
346.634	14.39
346.844	17.33
347.054	14.92
347.264	14.01
347.474	12.56
347.684	9.11
347.894	7.93
348.104	9.18
348.314	8.8
348.524	7.05
348.734	9.61
348.944	7.29
349.154	7.58
349.364	10.45
349.574	10.66
349.784	9.98
349.994	9.8
350.204	10.98
350.413	9.5
350.623	9.08
350.833	9.6
351.043	8.52
351.253	10.68
351.463	9.02
351.672	5.98
351.882	8.26
352.092	8.88
352.302	10.67
352.511	11.22
352.721	10.23
352.931	10.87
353.141	10.54
353.35	9.97
353.56	11.12
353.77	13.11
353.979	14.53
354.189	13.5
354.399	13.99
354.608	15.32
354.818	12.8
355.027	14.04
355.237	13.64
355.447	14.49
355.656	13.77
355.866	12.85
356.075	10.04
356.285	9.71
356.494	11.1
356.704	11.86
356.913	8.68
357.123	10.34
357.332	9.81
357.542	9.48
357.751	8.67
357.96	8.21
358.17	8.59
358.379	8.96
358.589	10.03
358.798	8.44
359.007	8.2
359.217	10.31
359.426	11.19
359.635	10.77
359.845	10.5
360.054	11.16
360.263	11.79
360.472	12.38
360.682	13.43
360.891	12.92
361.1	13.65
361.309	12.91
361.519	11.05
361.728	10.77
361.937	11.48
362.146	12.28
362.355	12.29
362.564	13.66
362.774	13.26
362.983	11.83
363.192	12.44
363.401	11.06
363.61	12.21
363.819	13.6
364.028	12.76
364.237	12.46
364.446	11.03
364.655	10.37
364.864	10.98
365.073	10.56
365.282	10.88
365.491	10.84
365.7	14.05
365.909	12.88
366.118	13.73
366.327	13.83
366.536	15.69
366.745	17.47
366.954	18.03
367.162	16.41
367.371	16.83
367.58	15.43
367.789	13.8
367.998	10.38
368.207	11.28
368.415	11.02
368.624	11.38
368.833	8.68
369.042	7.3
369.25	6.87
369.459	6.54
369.668	6.3
369.877	8.19
370.085	8.87
370.294	9.99
370.503	9.32
370.711	7.95
370.92	7.02
371.129	7.33
371.337	7.19
371.546	6.75
371.754	6.45
371.963	6.75
372.171	8.17
372.38	8.22
372.589	7.38
372.797	6.72
373.006	6.97
373.214	7.26
373.423	8.78
373.631	10.66
373.84	10.56
374.048	12.05
374.256	12.08
374.465	12.02
374.673	11.05
374.882	11.64
375.09	13.05
375.298	13.26
375.507	14.81
375.715	13.77
375.923	12.4
376.132	13.62
376.34	12.74
376.548	12.98
376.757	12.39
376.965	14.12
377.173	13.38
377.381	14.11
377.59	14.95
377.798	13.11
378.006	12.58
378.214	12.03
378.423	11.27
378.631	12.38
378.839	11.54
379.047	10.74
379.255	9.9
379.463	9.61
379.671	8.65
379.879	8.78
380.088	9.77
380.296	10.77
380.504	11.88
380.712	12
380.92	10.37
381.128	9.99
381.336	9.44
381.544	9.61
381.752	9.85
381.96	9.15
382.168	8.81
382.376	10.36
382.584	8.59
382.791	9.06
382.999	9.2
383.207	10.45
383.415	10.48
383.623	10.64
383.831	9.71
384.039	11.03
384.247	11.85
384.454	10.16
384.662	8.31
384.87	10.4
385.078	9.57
385.285	10.41
385.493	10.13
385.701	10.8
385.909	11.31
386.116	11.81
386.324	11.29
386.532	11.44
386.739	13.06
386.947	13.55
387.155	13.25
387.362	12.47
387.57	11.64
387.778	11.11
387.985	9.41
388.193	8.74
388.4	9.71
388.608	9.29
388.816	8.35
389.023	8.46
389.231	8.71
389.438	7.74
389.646	7.92
389.853	7.09
390.061	6.89
390.268	9.4
390.475	10.04
390.683	8.84
390.89	8.19
391.098	8.31
391.305	7.99
391.512	7.4
391.72	7.57
391.927	8.05
392.135	8.38
392.342	8.8
392.549	7.13
392.756	6.69
392.964	7.91
393.171	9.04
393.378	9.76
393.586	9.32
393.793	10.03
394	11.03
394.207	11.45
394.414	11.75
394.622	11.72
394.829	12.36
395.036	13.95
395.243	14.08
395.45	13.91
395.657	13.22
395.864	13.66
396.072	12.71
396.279	12.01
396.486	11.69
396.693	11.95
396.9	11.85
397.107	11.74
397.314	9.1
397.521	7.61
397.728	7.84
397.935	7.36
398.142	7.36
398.349	6.89
398.556	5.87
398.763	4.52
398.97	3.83
399.177	3.02
399.383	2.92
399.59	4.4
399.797	4.85
400.004	4.36
400.211	5.47
400.418	4.98
400.625	6.07
400.831	6.56
401.038	7.82
401.245	8.79
401.452	9.94
401.658	9.36
401.865	9.02
402.072	9.84
402.279	10.05
402.485	9.04
402.692	9.66
402.899	8.94
403.105	9.84
403.312	9.28
403.519	9.76
403.725	9.66
403.932	10.46
404.138	11.31
404.345	10.56
404.552	10.53
404.758	11.26
404.965	10.1
405.171	10.41
405.378	9.98
405.584	10.33
405.791	9.19
405.997	9.38
406.204	9.71
406.41	9.32
406.617	9.13
406.823	9.14
407.029	9.16
407.236	10.4
407.442	10.18
407.649	9.64
407.855	9.97
408.061	10.3
408.268	9.45
408.474	8.03
408.68	7.07
408.887	8.57
409.093	8.17
409.299	6.77
409.505	6.55
409.712	7.14
409.918	8.21
410.124	8.89
410.33	7.84
410.537	7.23
410.743	7.1
410.949	7.34
411.155	6.38
411.361	7.03
411.567	7.69
411.773	7.32
411.98	6.96
412.186	6.19
412.392	6.21
412.598	7.51
412.804	9.09
413.01	10.3
413.216	11.3
413.422	11.26
413.628	11.13
413.834	10.66
414.04	10.45
414.246	10.69
414.452	10.25
414.658	9.59
414.864	9.57
415.07	7.76
415.275	6.58
415.481	5.89
415.687	5.59
415.893	4.01
416.099	4.63
416.305	4.94
416.511	4.93
416.716	4.96
416.922	4.69
417.128	4.26
417.334	5.66
417.539	5.85
417.745	5.92
417.951	5.92
418.157	6.72
418.362	6.27
418.568	5.85
418.774	5.38
418.979	5.07
419.185	5.31
419.391	5.12
419.596	4.76
419.802	4.72
420.008	4.3
420.213	4.39
420.419	4.11
420.624	4.12
420.83	4.51
421.035	4.38
421.241	4.98
421.446	5.04
421.652	5.58
421.857	5.52
422.063	5.91
422.268	6.51
422.474	6.26
422.679	6.23
422.885	6.49
423.09	6.34
423.295	6.49
423.501	6.37
423.706	6.36
423.911	6.73
424.117	6.63
424.322	6.28
424.527	6.43
424.733	7.04
424.938	7.57
425.143	7.5
425.349	7.37
425.554	7.45
425.759	7.44
425.964	7.16
426.169	6.45
426.375	6.73
426.58	7.21
426.785	6.56
426.99	5.95
427.195	5.85
427.4	6.1
427.605	6.79
427.811	7.37
428.016	7.24
428.221	7.57
428.426	7.09
428.631	7.07
428.836	6.6
429.041	6.59
429.246	6.57
429.451	6.75
429.656	6.65
429.861	6.15
430.066	6.57
430.271	6.78
430.476	7.01
430.681	8.05
430.886	7.87
431.09	8.01
431.295	8.15
431.5	8.38
431.705	8.37
431.91	8.47
432.115	8.86
432.32	7.87
432.524	8.46
432.729	7.99
432.934	7.31
433.139	7.48
433.343	7.07
433.548	6.87
433.753	6.26
433.958	6.16
434.162	5.73
434.367	5.87
434.572	5.98
434.776	5.7
434.981	5.91
435.186	5.89
435.39	5.98
435.595	7.05
435.799	6.53
436.004	7.01
436.209	7.35
436.413	7.43
436.618	6.89
436.822	7.45
437.027	6.83
437.231	6.92
437.436	6.97
437.64	6.73
437.845	6.08
438.049	6.5
438.253	6.44
438.458	6.28
438.662	6.24
438.867	6.11
439.071	6.01
439.275	6.22
439.48	5.65
439.684	5.26
439.888	5.32
440.093	5.05
440.297	5.01
440.501	4.93
440.706	4.47
440.91	4.57
441.114	4.8
441.318	4.71
441.523	4.73
441.727	5.13
441.931	5.95
442.135	5.78
442.339	6.37
442.543	6.73
442.748	6.79
442.952	6.9
443.156	6.82
443.36	6.52
443.564	6.44
443.768	6.36
443.972	6.65
444.176	5.95
444.38	6.71
444.584	7.21
444.788	7.27
444.992	7.52
445.196	7.24
445.4	6.9
445.604	6.74
445.808	6.46
446.012	6.24
446.216	5.47
446.42	5.21
446.624	4.77
446.828	4.2
447.032	4.12
447.235	3.27
447.439	3.57
447.643	4.38
447.847	4.35
448.051	4.9
448.254	4.33
448.458	4.45
448.662	5.72
448.866	5.71
449.069	5.78
449.273	5.33
449.477	6.03
449.681	6.27
449.884	5.68
450.088	5.9
450.292	6.41
450.495	7.62
450.699	7.87
450.902	7.74
451.106	7.59
451.31	7.5
451.513	7.25
451.717	7.47
451.92	7.04
452.124	6.94
452.327	7.22
452.531	6
452.734	6.02
452.938	6.06
453.141	5.31
453.345	5.72
453.548	5.8
453.752	6
453.955	6.2
454.158	6.28
454.362	6.67
454.565	6.7
454.769	6.93
454.972	7.22
455.175	6.94
455.379	7.75
455.582	7.29
455.785	7.39
455.988	7.47
456.192	7.56
456.395	8.26
456.598	7.95
456.801	6.98
457.005	7.56
457.208	6.78
457.411	7.01
457.614	6.78
457.817	6.92
458.021	6.52
458.224	6.43
458.427	6.52
458.63	6.07
458.833	6
459.036	6.68
459.239	6.33
459.442	6.25
459.645	6.37
459.848	6.21
460.051	5.86
460.254	5.9
460.457	5.41
460.66	4.7
460.863	4.72
461.066	4.47
461.269	4.27
461.472	3.86
461.675	4.19
461.878	3.68
462.081	3.66
462.284	3.43
462.486	3.37
462.689	3.69
462.892	3.78
463.095	4.07
463.298	4.81
463.5	4.49
463.703	4.26
463.906	4.39
464.109	4.48
464.311	4.06
464.514	4.46
