Data from JASIL_3080_Reflection_02.txt Node
Date: Mon Nov 09 11:55:11 EST 2015
User: Geneva
Spectrometer: USB4E03002
Autoset integration time: false
Trigger mode: 4
Integration Time (sec): 1.000000E-1
Scans to average: 10
Electric dark correction enabled: false
Nonlinearity correction enabled: false
Boxcar width: 5
Stray light correction enabled: false
XAxis mode: Wavelengths
Stop averaging: false
Number of Pixels in Spectrum: 3648
>>>>>Begin Spectral Data<<<<<
177.575	-29.13
177.794	778.95
178.014	-377.55
178.233	-68.79
178.452	-118.84
178.672	-36.36
178.891	-58.69
179.11	-234.37
179.33	-115.08
179.549	-41.27
179.768	-82.29
179.987	-11.35
180.207	20.37
180.426	11.15
180.645	31.41
180.864	8.93
181.084	-42.01
181.303	4.27
181.522	34.11
181.741	-1209.09
181.96	127.63
182.179	323.08
182.398	62.01
182.618	69.92
182.837	72.69
183.056	172.49
183.275	236.11
183.494	37.68
183.713	-6575
183.932	-3372.73
184.151	-111.76
184.37	-40.87
184.589	-20.83
184.808	-38.96
185.027	-3.71
185.246	4.13
185.465	23.47
185.684	-11.19
185.903	-317.02
186.122	-528.3
186.341	-143.02
186.56	-557.89
186.779	131.69
186.998	201.12
187.216	616
187.435	187.68
187.654	-4428.57
187.873	-649.02
188.092	-159
188.311	48.76
188.53	111.9
188.748	95.17
188.967	117.34
189.186	107.52
189.405	115.95
189.623	127.02
189.842	120.99
190.061	208.95
190.28	206.91
190.498	469.7
190.717	168.42
190.936	55.83
191.154	20.47
191.373	-213.91
191.592	-126.57
191.81	-177.01
192.029	-35.92
192.248	-7.28
192.466	5.66
192.685	14.63
192.904	11.48
193.122	25
193.341	34.66
193.559	34.18
193.778	40.24
193.996	48.8
194.215	35.35
194.433	113.56
194.652	95.29
194.87	116.24
195.089	140.24
195.307	270.1
195.526	344.44
195.744	871.43
195.963	342.66
196.181	583.87
196.399	177.15
196.618	143.87
196.836	118.16
197.055	153.11
197.273	155.86
197.491	113.25
197.71	96.46
197.928	106.48
198.146	115.15
198.365	78.29
198.583	95.11
198.801	117.76
199.019	129.71
199.238	319.44
199.456	371.56
199.674	962.5
199.892	-4827.27
200.111	-506.49
200.329	15500
200.547	306.25
200.765	244.41
200.983	240.61
201.202	282.57
201.42	253.51
201.638	174.34
201.856	149.1
202.074	117.52
202.292	133.33
202.51	148.74
202.728	129.99
202.946	139.19
203.165	121.57
203.383	97
203.601	51.13
203.819	44.74
204.037	22.02
204.255	34.49
204.473	63.52
204.691	61.35
204.909	33.81
205.127	43.53
205.345	30.51
205.562	24.19
205.78	49.27
205.998	71.7
206.216	66.67
206.434	99
206.652	67.73
206.87	59.24
207.088	42.88
207.306	46.9
207.523	44.44
207.741	59.17
207.959	278.79
208.177	60.94
208.395	368.75
208.612	1255.56
208.83	152.44
209.048	264.08
209.266	12033.33
209.483	-422.73
209.701	-103.54
209.919	-59.54
210.136	-72.94
210.354	638.71
210.572	994.12
210.79	-203.48
211.007	-275
211.225	-35.58
211.442	29.56
211.66	86.82
211.878	111.44
212.095	1846.77
212.313	-1232.05
212.53	-2600
212.748	1121.11
212.966	3140
213.183	-7875
213.401	744.06
213.618	549.32
213.836	1142.99
214.053	872.93
214.271	1990.38
214.488	110.75
214.705	121.39
214.923	174.74
215.14	232.61
215.358	172.29
215.575	199.38
215.793	211.89
216.01	290.84
216.227	204.39
216.445	184.84
216.662	243.96
216.879	198.72
217.097	199.33
217.314	180.36
217.531	25
217.749	-337.5
217.966	710
218.183	4600
218.4	75.93
218.618	232.35
218.835	-567.65
219.052	-43.35
219.269	-8.54
219.487	-51.7
219.704	-616
219.921	-87.88
220.138	300.88
220.355	598.39
220.572	183.57
220.79	151.13
221.007	152.41
221.224	129.38
221.441	158.56
221.658	138.76
221.875	104.34
222.092	106.18
222.309	127.16
222.526	80.47
222.743	68.13
222.96	42.21
223.177	34.24
223.394	9.52
223.611	11.36
223.828	1.21
224.045	-0.37
224.262	-12.32
224.479	0
224.696	-11.91
224.913	-23.12
225.13	-23.48
225.347	-9.18
225.564	-0.83
225.781	6.83
225.997	-1.7
226.214	3.77
226.431	-1.27
226.648	-2.07
226.865	-2.42
227.082	3.02
227.298	9.88
227.515	9.21
227.732	9.94
227.949	12.31
228.165	9.25
228.382	17.12
228.599	18.48
228.816	24.85
229.032	32.69
229.249	29.33
229.466	27.67
229.682	24.44
229.899	21.96
230.116	27.47
230.332	15.21
230.549	6.44
230.765	11.94
230.982	7.44
231.199	-2.72
231.415	-6.21
231.632	0.51
231.848	-2.68
232.065	-1.85
232.281	-0.87
232.498	-12.58
232.714	-6.64
232.931	6.77
233.147	-10.59
233.364	-10.47
233.58	2.24
233.797	3.03
234.013	-2.59
234.23	-7.46
234.446	-6.07
234.662	0.67
234.879	0.77
235.095	5.7
235.312	5.98
235.528	21.63
235.744	22.06
235.961	17.08
236.177	20.1
236.393	22.15
236.61	23.4
236.826	15.88
237.042	6.26
237.258	8.93
237.475	7.25
237.691	9.57
237.907	2.32
238.123	2.83
238.339	1.06
238.556	-7.23
238.772	-6.88
238.988	-0.31
239.204	-7.63
239.42	0.34
239.636	4.59
239.853	10.1
240.069	12.31
240.285	13.12
240.501	14.7
240.717	17.27
240.933	17.11
241.149	15.07
241.365	15.69
241.581	14.32
241.797	14.59
242.013	11.98
242.229	10.21
242.445	5.54
242.661	5.02
242.877	3.03
243.093	1.99
243.309	-0.27
243.525	0.38
243.741	3.84
243.957	2.51
244.173	-5.67
244.388	-3.9
244.604	-0.84
244.82	2.73
245.036	2.26
245.252	1.01
245.468	-0.2
245.683	0.5
245.899	6.86
246.115	4.65
246.331	8.14
246.547	9.15
246.762	9.39
246.978	9.11
247.194	6.81
247.409	6.83
247.625	8.86
247.841	8.97
248.057	11.3
248.272	2.56
248.488	3.33
248.703	-1.76
248.919	1.21
249.135	3.24
249.35	-3.26
249.566	5.67
249.782	0.32
249.997	-3.32
250.213	0.14
250.428	-4.72
250.644	3.84
250.859	3.25
251.075	4.31
251.29	5.76
251.506	8.2
251.721	10.66
251.937	9.31
252.152	15.26
252.368	14.81
252.583	16.26
252.798	18.86
253.014	16.45
253.229	17.62
253.445	15.92
253.66	11.7
253.875	7.05
254.091	11.6
254.306	13.82
254.521	4.49
254.737	8.34
254.952	4.67
255.167	5.84
255.383	7.24
255.598	6.87
255.813	15.06
256.028	12.81
256.244	13.92
256.459	14
256.674	8.61
256.889	11.52
257.104	8.78
257.32	9.86
257.535	8.2
257.75	4.36
257.965	3.11
258.18	0.49
258.395	0.09
258.61	-0.04
258.826	-1.73
259.041	0.47
259.256	-0.2
259.471	0.03
259.686	-0.49
259.901	1.16
260.116	3.44
260.331	3.9
260.546	3.05
260.761	5.29
260.976	3.05
261.191	2.85
261.406	0.71
261.621	0.76
261.836	1.84
262.05	-0.61
262.265	0.11
262.48	-0.95
262.695	-0.22
262.91	0.83
263.125	2.83
263.34	5.81
263.555	5.16
263.769	3.46
263.984	6.42
264.199	1.76
264.414	6.85
264.629	3.45
264.843	2.07
265.058	1.32
265.273	1.16
265.488	-0.7
265.702	2.3
265.917	6.78
266.132	10.73
266.346	11.36
266.561	15.73
266.776	19.78
266.99	18.35
267.205	20.8
267.42	21.39
267.634	22.63
267.849	23.39
268.063	17.08
268.278	12.99
268.492	11.61
268.707	9.35
268.922	4.44
269.136	-3.41
269.351	1.19
269.565	2.82
269.78	1.96
269.994	1.4
270.209	2.28
270.423	7.57
270.637	10.74
270.852	7.52
271.066	6.8
271.281	8.14
271.495	6.8
271.709	3.54
271.924	-0.42
272.138	-0.9
272.353	0.18
272.567	-1.13
272.781	-4.77
272.996	-9.4
273.21	-6.55
273.424	-4.88
273.638	-4.72
273.853	-1.3
274.067	-2.35
274.281	-0.81
274.495	-0.09
274.71	0.83
274.924	-0.78
275.138	0.66
275.352	-1.66
275.566	-3.72
275.781	-6.11
275.995	-2.17
276.209	1.39
276.423	8.79
276.637	8.87
276.851	6.06
277.065	6.85
277.279	6.15
277.493	3.3
277.707	5.35
277.921	5.39
278.135	7.62
278.349	2.59
278.563	-0.11
278.777	-2.09
278.991	-4.08
279.205	-1.72
279.419	-6.25
279.633	-6.4
279.847	-4.07
280.061	-0.68
280.275	0.97
280.489	1.64
280.703	-0.02
280.917	1.84
281.131	1.01
281.344	4.2
281.558	1.78
281.772	4.28
281.986	5.18
282.2	3.67
282.414	1.13
282.627	0.73
282.841	-2.3
283.055	-1.97
283.269	-3.49
283.482	-2.6
283.696	-4.16
283.91	-0.03
284.123	-1.81
284.337	-0.09
284.551	1.22
284.764	0.8
284.978	1.37
285.192	0.84
285.405	4.73
285.619	1.72
285.833	0.84
286.046	1.17
286.26	-0.15
286.473	1.46
286.687	-0.7
286.9	2.56
287.114	2.01
287.327	1.14
287.541	2.03
287.754	-2.21
287.968	-1.08
288.181	-1.02
288.395	-1.29
288.608	-1.58
288.822	-1.96
289.035	-0.06
289.248	-3.72
289.462	-4.06
289.675	-4.13
289.889	-2.81
290.102	-2.09
290.315	1.64
290.529	0.76
290.742	0.25
290.955	-0.58
291.169	1.42
291.382	0.66
291.595	-0.6
291.808	-0.93
292.022	-1.29
292.235	0.37
292.448	-0.17
292.661	-2.11
292.875	-0.93
293.088	-1.57
293.301	0.54
293.514	-0.69
293.727	0.86
293.94	2.92
294.153	5.93
294.367	7.22
294.58	4.89
294.793	6.33
295.006	6.04
295.219	4.94
295.432	6
295.645	5.86
295.858	4.57
296.071	3.93
296.284	3.78
296.497	2.93
296.71	4.36
296.923	5.2
297.136	6
297.349	8.44
297.562	8.31
297.775	7.33
297.988	7.56
298.201	9.21
298.414	9.4
298.626	9
298.839	9.91
299.052	6.47
299.265	7.32
299.478	7.08
299.691	2.38
299.903	4.32
300.116	4.5
300.329	5.95
300.542	5.96
300.755	5.28
300.967	5.99
301.18	6.41
301.393	8.53
301.605	7.27
301.818	6.04
302.031	9.58
302.243	11.61
302.456	9.76
302.669	8.25
302.881	8.75
303.094	7.13
303.307	9
303.519	9.61
303.732	7.93
303.944	9.73
304.157	10.06
304.37	7.1
304.582	4.06
304.795	7.23
305.007	5.68
305.22	7.9
305.432	11.69
305.645	9.7
305.857	5.34
306.069	7.34
306.282	6.79
306.494	9.43
306.707	9.58
306.919	13.24
307.132	13.45
307.344	16.36
307.556	13.71
307.769	9.61
307.981	7.86
308.193	11.87
308.406	11.3
308.618	10.69
308.83	9.35
309.043	9.13
309.255	7.09
309.467	5.93
309.679	4.87
309.892	3.64
310.104	6.12
310.316	7.04
310.528	6.38
310.74	4.71
310.953	4.6
311.165	6.02
311.377	6.32
311.589	7.16
311.801	7.01
312.013	4.57
312.225	5.04
312.437	1.72
312.649	1.27
312.862	-1.59
313.074	-2.69
313.286	-4.08
313.498	-7.04
313.71	-4.29
313.922	-2.1
314.134	0.3
314.346	2.93
314.558	3.17
314.77	6.94
314.982	6.93
315.193	8.23
315.405	8.72
315.617	9.88
315.829	9.41
316.041	9.08
316.253	5.82
316.465	4.89
316.677	4.61
316.888	3.16
317.1	3.72
317.312	4.56
317.524	2.64
317.736	4.08
317.947	3.9
318.159	4.23
318.371	2.71
318.583	5.61
318.794	5.72
319.006	6.25
319.218	6.32
319.43	5.21
319.641	7.22
319.853	9.97
320.064	12.51
320.276	12.29
320.488	10.26
320.699	12.64
320.911	10.73
321.123	9.83
321.334	10.59
321.546	15
321.757	15.58
321.969	13.1
322.18	12.48
322.392	11.97
322.603	11.16
322.815	11.49
323.026	10.12
323.238	7.84
323.449	8.31
323.661	7.04
323.872	3.18
324.083	2.4
324.295	0.08
324.506	1.65
324.718	-0.63
324.929	1.22
325.14	1.66
325.352	-0
325.563	3.1
325.774	5.32
325.986	6.25
326.197	8.55
326.408	9.27
326.62	10.9
326.831	10.5
327.042	12.03
327.253	12.06
327.464	15.57
327.676	19.19
327.887	15.27
328.098	12.38
328.309	11.15
328.52	10.93
328.732	6.59
328.943	11.04
329.154	9.92
329.365	9.07
329.576	9.07
329.787	4.57
329.998	3.32
330.209	6.16
330.42	8.38
330.631	8.65
330.842	8.92
331.053	13.35
331.264	9.99
331.475	11.2
331.686	12.04
331.897	12.28
332.108	13.37
332.319	12.6
332.53	15.58
332.741	13.63
332.952	11.59
333.163	13.37
333.374	12.3
333.585	13.86
333.795	13.3
334.006	11.57
334.217	8.61
334.428	10.14
334.639	10.1
334.849	7.96
335.06	7.11
335.271	11.34
335.482	8
335.692	7.41
335.903	5.45
336.114	4.83
336.325	5.87
336.535	7.45
336.746	7.6
336.957	8.27
337.167	7.04
337.378	9.51
337.589	7.87
337.799	11.12
338.01	10.24
338.22	9.84
338.431	9.35
338.642	6.62
338.852	7.31
339.063	6.4
339.273	4.56
339.484	7.87
339.694	7.27
339.905	8.05
340.115	7.09
340.326	6.72
340.536	6.01
340.746	5.05
340.957	8.03
341.167	7.95
341.378	5.41
341.588	6.2
341.799	5.11
342.009	5.63
342.219	3.22
342.43	1.87
342.64	3.34
342.85	6.29
343.061	7.29
343.271	7.47
343.481	7.83
343.691	10.97
343.902	10.56
344.112	9.22
344.322	8.07
344.532	7.71
344.743	6.25
344.953	6.81
345.163	5.4
345.373	6.53
345.583	5.81
345.793	4.87
346.004	2.29
346.214	1.14
346.424	0
346.634	1.04
346.844	2.31
347.054	3.28
347.264	2.89
347.474	1.92
347.684	0.97
347.894	0.07
348.104	0.43
348.314	1.04
348.524	0.79
348.734	1.61
348.944	-0.03
349.154	0.84
349.364	2.21
349.574	3.19
349.784	3.71
349.994	2.98
350.204	4.5
350.413	3.14
350.623	2.61
350.833	4.01
351.043	3.45
351.253	5.62
351.463	6.01
351.672	4.83
351.882	3.03
352.092	3.31
352.302	4.66
352.511	4.3
352.721	5.36
352.931	5.89
353.141	5.16
353.35	5.04
353.56	5.09
353.77	5.05
353.979	5.63
354.189	6.75
354.399	7.18
354.608	6.98
354.818	7.12
355.027	8.38
355.237	8.33
355.447	9.79
355.656	9.15
355.866	7.91
356.075	6.61
356.285	6.84
356.494	6.1
356.704	6.04
356.913	5.68
357.123	5.52
357.332	3.48
357.542	4.23
357.751	3.79
357.96	5.24
358.17	6.15
358.379	5.41
358.589	5.98
358.798	6.61
359.007	6.85
359.217	7.85
359.426	7.01
359.635	8.77
359.845	8.12
360.054	7.93
360.263	7.86
360.472	6.64
360.682	7.47
360.891	6.53
361.1	4.62
361.309	4.04
361.519	2.48
361.728	3.12
361.937	1.79
362.146	2.3
362.355	3.18
362.564	3.08
362.774	3.25
362.983	4.63
363.192	5.16
363.401	8.09
363.61	9.39
363.819	12.1
364.028	11.3
364.237	11.35
364.446	12.09
364.655	10.94
364.864	10.08
365.073	11.25
365.282	9.34
365.491	8.98
365.7	7.6
365.909	7.61
366.118	5.09
366.327	7.63
366.536	8.01
366.745	4.95
366.954	4.81
367.162	7.01
367.371	5.93
367.58	8
367.789	8.91
367.998	8.87
368.207	7.15
368.415	7.17
368.624	4.59
368.833	3.87
369.042	5.07
369.25	5.1
369.459	3.53
369.668	4.49
369.877	2.14
370.085	-0.08
370.294	0.42
370.503	1.43
370.711	1.79
370.92	2.28
371.129	3.96
371.337	3.68
371.546	4.31
371.754	5.23
371.963	3.66
372.171	5.39
372.38	6.93
372.589	7.28
372.797	6.64
373.006	6.64
373.214	5.4
373.423	5.71
373.631	6.47
373.84	4.48
374.048	4.65
374.256	6.14
374.465	4.55
374.673	4.1
374.882	3.29
375.09	1.59
375.298	1.72
375.507	2.28
375.715	0.49
375.923	2.33
376.132	2.65
376.34	2.02
376.548	1.99
376.757	3.91
376.965	4.84
377.173	5.58
377.381	7.11
377.59	8.35
377.798	8.81
378.006	8.73
378.214	7.83
378.423	8.59
378.631	9.01
378.839	8.26
379.047	7.6
379.255	7.5
379.463	7.24
379.671	8.63
379.879	8.58
380.088	8.25
380.296	8.38
380.504	7.63
380.712	8.33
380.92	6.84
381.128	6.22
381.336	4.64
381.544	3.69
381.752	2.51
381.96	1.04
382.168	0.13
382.376	0.92
382.584	0.51
382.791	0.96
382.999	-0.13
383.207	1.75
383.415	1.98
383.623	2.24
383.831	3.61
384.039	5.83
384.247	6.57
384.454	5.5
384.662	5.32
384.87	5.91
385.078	6.81
385.285	6.91
385.493	6.42
385.701	7.52
385.909	8.36
386.116	7.37
386.324	6.58
386.532	5.89
386.739	7.13
386.947	7.63
387.155	7.39
387.362	6.97
387.57	6.05
387.778	5.1
387.985	3.46
388.193	4.07
388.4	3.84
388.608	4.06
388.816	3.91
389.023	3.85
389.231	2.81
389.438	3.68
389.646	3.43
389.853	4.15
390.061	4.8
390.268	5.95
390.475	6.22
390.683	6
390.89	5.13
391.098	5.18
391.305	4.38
391.512	4.68
391.72	5.14
391.927	3.6
392.135	4.51
392.342	4.58
392.549	4.16
392.756	2.39
392.964	3.12
393.171	2.22
393.378	2.24
393.586	3.51
393.793	3.28
394	2.02
394.207	2.75
394.414	3.99
394.622	3.96
394.829	3.54
395.036	4.74
395.243	3.79
395.45	4.4
395.657	4.84
395.864	3.91
396.072	4.09
396.279	4.91
396.486	7.5
396.693	5.61
396.9	5.76
397.107	6.11
397.314	6.89
397.521	7.01
397.728	6.73
397.935	6.59
398.142	7.43
398.349	7.92
398.556	7.28
398.763	5.6
398.97	6.35
399.177	6.04
399.383	6.42
399.59	5.3
399.797	5.47
400.004	6.18
400.211	5.77
400.418	5.59
400.625	5.25
400.831	5.3
401.038	5.96
401.245	6.66
401.452	7.07
401.658	6.6
401.865	7.86
402.072	8.23
402.279	7.35
402.485	8.02
402.692	7.55
402.899	7.89
403.105	7.64
403.312	7.55
403.519	5.75
403.725	5.87
403.932	6.2
404.138	5.22
404.345	4.5
404.552	5.62
404.758	4.99
404.965	6.05
405.171	6.23
405.378	6.31
405.584	6.22
405.791	7.53
405.997	7.02
406.204	7.41
406.41	7.07
406.617	8.24
406.823	7.91
407.029	8.63
407.236	7.83
407.442	7.21
407.649	7.72
407.855	6.88
408.061	6.23
408.268	5.99
408.474	5.3
408.68	6.12
408.887	6.28
409.093	6.34
409.299	6.07
409.505	5.78
409.712	6.56
409.918	6.31
410.124	7.49
410.33	7.5
410.537	8.14
410.743	9.11
410.949	9.66
411.155	8.83
411.361	9.17
411.567	10.1
411.773	10.09
411.98	8.85
412.186	8.6
412.392	7.58
412.598	7.83
412.804	7.68
413.01	7.03
413.216	6.22
413.422	6.53
413.628	6.47
413.834	5.38
414.04	5.2
414.246	4.85
414.452	5.66
414.658	5.81
414.864	5.75
415.07	5.2
415.275	5.28
415.481	5.73
415.687	5.69
415.893	5.56
416.099	5.5
416.305	5.3
416.511	5.8
416.716	5.79
416.922	6
417.128	6.41
417.334	6.36
417.539	6.64
417.745	5.85
417.951	5.9
418.157	6.36
418.362	6.52
418.568	6.64
418.774	6.46
418.979	6.45
419.185	6.34
419.391	5.71
419.596	6.24
419.802	6.38
420.008	7.05
420.213	2.46
420.419	2.37
420.624	2.53
420.83	2.44
421.035	3.01
421.241	2.77
421.446	2.46
421.652	2.76
421.857	2.84
422.063	2.3
422.268	2.58
422.474	7.33
422.679	7.39
422.885	7.45
423.09	7.81
423.295	7.18
423.501	6.82
423.706	6.9
423.911	7.18
424.117	6.73
424.322	6.26
424.527	5.78
424.733	5.96
424.938	5.22
425.143	4.87
425.349	4.89
425.554	5.16
425.759	6.09
425.964	6.26
426.169	6.14
426.375	6.08
426.58	6.3
426.785	6.51
426.99	6.2
427.195	6.5
427.4	6.57
427.605	6.91
427.811	7.65
428.016	7.07
428.221	7.37
428.426	7.53
428.631	7.98
428.836	8.82
429.041	8.66
429.246	9.58
429.451	10.21
429.656	10.18
429.861	10.34
430.066	9.81
430.271	9.18
430.476	9.57
430.681	8.99
430.886	8.63
431.09	8.27
431.295	9.19
431.5	8.52
431.705	8.51
431.91	8.96
432.115	8.44
432.32	8.5
432.524	8.76
432.729	8.7
432.934	8.59
433.139	8.98
433.343	9.14
433.548	8.17
433.753	8.52
433.958	9
434.162	8.99
434.367	8.99
434.572	9.51
434.776	9.65
434.981	9.15
435.186	9.4
435.39	9.39
435.595	10.17
435.799	10.68
436.004	9.68
436.209	8.23
436.413	8.35
436.618	8.28
436.822	7.35
437.027	7.81
437.231	8.07
437.436	8.77
437.64	8.6
437.845	7.92
438.049	7.51
438.253	8.03
438.458	8.71
438.662	8.6
438.867	8.14
439.071	8.68
439.275	8.17
439.48	7.68
439.684	7.15
439.888	7.16
440.093	7.11
440.297	7.02
440.501	6.79
440.706	6.42
440.91	6.22
441.114	6.85
441.318	6.76
441.523	7.05
441.727	7.81
441.931	7.5
442.135	7.32
442.339	7.53
442.543	7.87
442.748	7.81
442.952	8.17
443.156	8.07
443.36	8.11
443.564	7.93
443.768	7.9
443.972	8.28
444.176	7.95
444.38	8.17
444.584	7.9
444.788	7.87
444.992	8.2
445.196	7.75
445.4	7.69
445.604	7.52
445.808	7.67
446.012	7.62
446.216	6.93
446.42	7.27
446.624	7.39
446.828	7.88
447.032	7.26
447.235	6.96
447.439	7.35
447.643	7.52
447.847	7.58
448.051	7.11
448.254	7.21
448.458	7.57
448.662	7.75
448.866	7.34
449.069	6.85
449.273	7.93
449.477	7.71
449.681	7.78
449.884	7.8
450.088	7.53
450.292	8.07
450.495	7.97
450.699	7.67
450.902	6.99
451.106	6.89
451.31	7.37
451.513	7.41
451.717	7.39
451.92	7.31
452.124	7.14
452.327	7.45
452.531	7.43
452.734	7.26
452.938	7.26
453.141	8.16
453.345	8.95
453.548	8.76
453.752	8.1
453.955	8.52
454.158	8.93
454.362	8.42
454.565	7.92
454.769	7.34
454.972	6.85
455.175	6.6
455.379	6.02
455.582	5.4
455.785	5.34
455.988	4.7
456.192	4.69
456.395	3.56
456.598	3.91
456.801	4.38
457.005	5.22
457.208	5.96
457.411	6.49
457.614	6.38
457.817	6.47
458.021	6.61
458.224	7.34
458.427	7.01
458.63	8.05
458.833	8.6
459.036	8.53
459.239	8.32
459.442	8.54
459.645	8.44
459.848	8.79
460.051	9.04
460.254	8.85
460.457	8.16
460.66	7.94
460.863	7.24
461.066	6.75
461.269	7.08
461.472	6.7
461.675	6.87
461.878	7.13
462.081	7.28
462.284	7.18
462.486	7.24
462.689	7.24
462.892	9.08
463.095	9.39
463.298	10.06
463.5	9.89
463.703	10.13
463.906	9.82
464.109	9.63
464.311	9.65
464.514	8.88
464.717	9.04
464.92	9.67
465.122	8.98
465.325	8.83
465.528	8.66
465.73	8.33
465.933	8.34
466.135	7.89
466.338	8.09
466.541	8.45
466.743	8.94
466.946	8.31
467.148	8.38
467.351	8.51
