Data from JASIL_2906_Reflection_2.txt Node
Date: Sat Nov 07 20:20:29 EST 2015
User: Geneva
Spectrometer: USB4E03002
Autoset integration time: false
Trigger mode: 4
Integration Time (sec): 1.000000E-1
Scans to average: 10
Electric dark correction enabled: true
Nonlinearity correction enabled: false
Boxcar width: 5
Stray light correction enabled: false
XAxis mode: Wavelengths
Stop averaging: false
Number of Pixels in Spectrum: 3648
>>>>>Begin Spectral Data<<<<<
177.575	182.51
177.794	184.97
178.014	109.73
178.233	89.88
178.452	30.78
178.672	27.76
178.891	-1301.16
179.11	242.33
179.33	163.97
179.549	158.85
179.768	146.84
179.987	114.88
180.207	105.29
180.426	64.36
180.645	73.33
180.864	62.26
181.084	77.17
181.303	86.34
181.522	94.75
181.741	98.22
181.96	85.53
182.179	93.44
182.398	109.03
182.618	106.33
182.837	130.5
183.056	108.88
183.275	109.85
183.494	109
183.713	96.69
183.932	99.11
184.151	96.07
184.37	106.04
184.589	101.44
184.808	90.05
185.027	90.18
185.246	84.78
185.465	91.13
185.684	86.04
185.903	81.26
186.122	84.38
186.341	86.69
186.56	89.55
186.779	95.14
186.998	95.55
187.216	99.67
187.435	90.99
187.654	88.08
187.873	93.83
188.092	98.84
188.311	93.5
188.53	96.76
188.748	84.9
188.967	79.14
189.186	82.99
189.405	83.39
189.623	84.84
189.842	100.72
190.061	107.54
190.28	98.98
190.498	95.47
190.717	103.52
190.936	105.55
191.154	101.94
191.373	110.51
191.592	101.51
191.81	104.99
192.029	94.89
192.248	84.62
192.466	74.6
192.685	76.03
192.904	73.35
193.122	69.44
193.341	63.96
193.559	63.34
193.778	61.69
193.996	59.5
194.215	54.23
194.433	63.53
194.652	65.34
194.87	67.09
195.089	71
195.307	76.35
195.526	77.06
195.744	77.24
195.963	85.08
196.181	80.61
196.399	87.26
196.618	91.34
196.836	87.93
197.055	90.56
197.273	91.84
197.491	94.72
197.71	95.41
197.928	89.34
198.146	95.11
198.365	86.21
198.583	79.42
198.801	70.84
199.019	65.13
199.238	60.94
199.456	49.23
199.674	53.5
199.892	43.22
200.111	50.52
200.329	56.32
200.547	40.71
200.765	55.11
200.983	70.1
201.202	85.21
201.42	87.68
201.638	89.02
201.856	85.94
202.074	77.63
202.292	79.12
202.51	72.2
202.728	84.05
202.946	89.38
203.165	88.24
203.383	82.65
203.601	74.51
203.819	81.98
204.037	85.56
204.255	84.16
204.473	77.86
204.691	81.41
204.909	77.88
205.127	72.21
205.345	71.54
205.562	78.79
205.78	78.73
205.998	80.13
206.216	71.22
206.434	65.36
206.652	72.56
206.87	76.17
207.088	70.76
207.306	70.47
207.523	67.9
207.741	74.35
207.959	66.7
208.177	63.45
208.395	60.94
208.612	55.6
208.83	63.66
209.048	63.63
209.266	64.49
209.483	69.46
209.701	70.4
209.919	72.73
210.136	61.59
210.354	66.54
210.572	71.96
210.79	75.32
211.007	82.93
211.225	73.7
211.442	69.27
211.66	69.36
211.878	63.31
212.095	113.52
212.313	106.92
212.53	109.05
212.748	106.31
212.966	101.84
213.183	97.43
213.401	90.04
213.618	92.87
213.836	98.94
214.053	101.09
214.271	103.54
214.488	54.94
214.705	54.84
214.923	55.64
215.14	51.49
215.358	49.1
215.575	45.92
215.793	50.2
216.01	51.23
216.227	48.36
216.445	54.2
216.662	53.13
216.879	54.23
217.097	55.94
217.314	51.28
217.531	53.29
217.749	57.36
217.966	61.78
218.183	59.39
218.4	49.03
218.618	50.69
218.835	43.22
219.052	39.01
219.269	38.79
219.487	37.73
219.704	43.1
219.921	40.78
220.138	36.64
220.355	34.04
220.572	33.08
220.79	42.26
221.007	41.14
221.224	37.25
221.441	38.57
221.658	41.5
221.875	39.51
222.092	34.41
222.309	32.86
222.526	29.4
222.743	30.5
222.96	29.96
223.177	27.27
223.394	28.72
223.611	35.07
223.828	34.08
224.045	30.49
224.262	30.71
224.479	32.13
224.696	34.13
224.913	35.38
225.13	32.98
225.347	32.18
225.564	31.12
225.781	28.28
225.997	24.78
226.214	24.49
226.431	22.49
226.648	21.28
226.865	20.82
227.082	19.37
227.298	18.58
227.515	18.65
227.732	18.43
227.949	18.5
228.165	18.63
228.382	18.19
228.599	18.31
228.816	18.75
229.032	19
229.249	19.1
229.466	19.27
229.682	19.6
229.899	19.92
230.116	19.79
230.332	19.25
230.549	19.74
230.765	21.06
230.982	20.03
231.199	20.52
231.415	19.92
231.632	20.05
231.848	20.54
232.065	20.17
232.281	20.05
232.498	20.26
232.714	21.36
232.931	21.09
233.147	20.58
233.364	21.32
233.58	20.59
233.797	21.5
234.013	21.24
234.23	20.24
234.446	20.38
234.662	19.62
234.879	19.82
235.095	18.93
235.312	19.36
235.528	20.32
235.744	20.88
235.961	21.54
236.177	21.12
236.393	20.78
236.61	21.73
236.826	21.07
237.042	20.89
237.258	20.93
237.475	21.35
237.691	20.64
237.907	18.93
238.123	18.14
238.339	18.12
238.556	17.98
238.772	17.97
238.988	16.57
239.204	16.43
239.42	16.79
239.636	16.52
239.853	15.88
240.069	15.37
240.285	15.47
240.501	14.98
240.717	14.45
240.933	14.01
241.149	13.51
241.365	13.96
241.581	14.22
241.797	14.01
242.013	14.07
242.229	14.15
242.445	14.45
242.661	14.53
242.877	14.93
243.093	14.99
243.309	15.35
243.525	15.57
243.741	15.57
243.957	15.01
244.173	14.59
244.388	13.94
244.604	12.88
244.82	12.14
245.036	11.71
245.252	11.38
245.468	11.55
245.683	11.52
245.899	11.36
246.115	11.27
246.331	11.15
246.547	11.07
246.762	11.22
246.978	11.65
247.194	11.66
247.409	11.62
247.625	11.66
247.841	11.42
248.057	11.47
248.272	11.39
248.488	11.28
248.703	11.19
248.919	11.67
249.135	11.48
249.35	11.13
249.566	11.19
249.782	11.4
249.997	11.16
250.213	11.1
250.428	10.46
250.644	11.33
250.859	11.3
251.075	11.47
251.29	10.81
251.506	10.75
251.721	10.6
251.937	10.89
252.152	10.72
252.368	10.9
252.583	11.19
252.798	11.94
253.014	11.72
253.229	11.68
253.445	11.91
253.66	12.66
253.875	12.88
254.091	13
254.306	12.77
254.521	12.85
254.737	12.58
254.952	11.82
255.167	11.04
255.383	10.65
255.598	10.74
255.813	10.12
256.028	9.92
256.244	9.62
256.459	9.66
256.674	9.15
256.889	8.6
257.104	8.6
257.32	8.88
257.535	8.9
257.75	8.47
257.965	8.56
258.18	8.9
258.395	8.66
258.61	8.63
258.826	8.44
259.041	8.49
259.256	8.65
259.471	8.69
259.686	8.59
259.901	8.62
260.116	8.91
260.331	8.79
260.546	8.59
260.761	8.74
260.976	8.82
261.191	8.99
261.406	9.03
261.621	9.02
261.836	8.93
262.05	8.76
262.265	8.65
262.48	8.2
262.695	8.24
262.91	8.53
263.125	8.58
263.34	8.64
263.555	8.96
263.769	9.19
263.984	9.24
264.199	9.19
264.414	9.37
264.629	9.37
264.843	9.57
265.058	9.77
265.273	9.44
265.488	9.16
265.702	9.02
265.917	8.89
266.132	8.71
266.346	8.86
266.561	8.66
266.776	8.8
266.99	8.66
267.205	8.73
267.42	8.53
267.634	8.47
267.849	8.55
268.063	8.65
268.278	8.74
268.492	8.75
268.707	8.4
268.922	8.48
269.136	8.5
269.351	8.5
269.565	8.53
269.78	8.59
269.994	8.54
270.209	8.51
270.423	8.39
270.637	8.23
270.852	8.34
271.066	8.58
271.281	8.68
271.495	8.48
271.709	8.59
271.924	8.35
272.138	8.46
272.353	8.57
272.567	8.62
272.781	8.35
272.996	8.4
273.21	8.33
273.424	8.13
273.638	8.09
273.853	8.4
274.067	8.27
274.281	8.56
274.495	8.32
274.71	8.26
274.924	8.09
275.138	8.43
275.352	8.36
275.566	8.44
275.781	8.65
275.995	8.69
276.209	8.73
276.423	8.67
276.637	8.53
276.851	8.23
277.065	8.13
277.279	8.12
277.493	8.09
277.707	8.06
277.921	8.07
278.135	7.51
278.349	7.48
278.563	7.11
278.777	7.33
278.991	7.54
279.205	7.69
279.419	7.78
279.633	8.04
279.847	7.98
280.061	8.06
280.275	7.7
280.489	7.95
280.703	7.94
280.917	8.15
281.131	7.9
281.344	7.83
281.558	7.78
281.772	7.79
281.986	7.41
282.2	7.32
282.414	7.1
282.627	7.31
282.841	7.4
283.055	7.43
283.269	7.25
283.482	7.28
283.696	7.09
283.91	7.05
284.123	7.07
284.337	7.3
284.551	7.3
284.764	7.52
284.978	7.47
285.192	7.39
285.405	7.15
285.619	7.23
285.833	7.27
286.046	7.1
286.26	7.23
286.473	7.05
286.687	6.95
286.9	7.12
287.114	6.95
287.327	6.96
287.541	6.95
287.754	7.2
287.968	6.98
288.181	7.05
288.395	7.27
288.608	7.3
288.822	7.29
289.035	7.15
289.248	7.15
289.462	7.12
289.675	6.78
289.889	6.77
290.102	6.62
290.315	6.87
290.529	6.76
290.742	6.73
290.955	6.72
291.169	6.8
291.382	6.91
291.595	6.8
291.808	6.69
292.022	6.78
292.235	6.97
292.448	7.15
292.661	6.92
292.875	6.89
293.088	6.89
293.301	6.78
293.514	6.67
293.727	6.63
293.94	6.57
294.153	6.66
294.367	6.82
294.58	6.5
294.793	6.44
295.006	6.51
295.219	6.58
295.432	6.59
295.645	6.7
295.858	6.66
296.071	6.68
296.284	6.65
296.497	6.67
296.71	6.72
296.923	6.83
297.136	6.71
297.349	6.83
297.562	6.96
297.775	6.95
297.988	6.89
298.201	7.04
298.414	7.15
298.626	7.14
298.839	7.19
299.052	7.28
299.265	7.29
299.478	7.24
299.691	7.16
299.903	6.96
300.116	6.93
300.329	6.9
300.542	6.79
300.755	6.75
300.967	6.96
301.18	6.79
301.393	6.68
301.605	6.61
301.818	6.8
302.031	6.72
302.243	6.8
302.456	6.93
302.669	6.96
302.881	7.24
303.094	7.1
303.307	6.73
303.519	6.82
303.732	6.82
303.944	6.83
304.157	6.74
304.37	6.86
304.582	6.78
304.795	6.65
305.007	6.71
305.22	6.61
305.432	6.62
305.645	6.91
305.857	6.94
306.069	6.76
306.282	6.85
306.494	6.96
306.707	6.95
306.919	6.93
307.132	6.77
307.344	6.62
307.556	6.68
307.769	6.75
307.981	6.68
308.193	6.63
308.406	6.76
308.618	6.75
308.83	6.58
309.043	6.44
309.255	6.38
309.467	6.46
309.679	6.54
309.892	6.46
310.104	6.49
310.316	6.55
310.528	6.56
310.74	6.55
310.953	6.48
311.165	6.63
311.377	6.51
311.589	6.49
311.801	6.79
312.013	6.83
312.225	6.86
312.437	7.08
312.649	7.21
312.862	7.27
313.074	7.17
313.286	7.33
313.498	7.47
313.71	7.86
313.922	8.24
314.134	7.97
314.346	8.03
314.558	8.24
314.77	8.27
314.982	8.41
315.193	8.33
315.405	8.64
315.617	8.54
315.829	8.45
316.041	8.47
316.253	8.32
316.465	8.41
316.677	8.44
316.888	8.09
317.1	7.77
317.312	7.42
317.524	7.64
317.736	7.75
317.947	7.96
318.159	7.89
318.371	7.54
318.583	7.54
318.794	7.4
319.006	7.32
319.218	7.4
319.43	7.49
319.641	7.65
319.853	7.59
320.064	7.66
320.276	7.51
320.488	7.73
320.699	7.95
320.911	8
321.123	8.45
321.334	8.55
321.546	8.58
321.757	8.63
321.969	8.5
322.18	8.46
322.392	8.3
322.603	8.27
322.815	8.18
323.026	7.99
323.238	7.82
323.449	7.58
323.661	7.54
323.872	7.58
324.083	7.74
324.295	7.82
324.506	7.84
324.718	7.85
324.929	7.89
325.14	8.03
325.352	8.31
325.563	8.5
325.774	8.42
325.986	8.55
326.197	8.59
326.408	8.55
326.62	8.54
326.831	8.59
327.042	8.6
327.253	8.57
327.464	8.64
327.676	8.86
327.887	8.84
328.098	9.05
328.309	8.99
328.52	9.23
328.732	9.06
328.943	9.2
329.154	9.12
329.365	9.39
329.576	9.68
329.787	9.43
329.998	9.36
330.209	9.38
330.42	9.28
330.631	9.49
330.842	9.38
331.053	9.61
331.264	9.61
331.475	9.78
331.686	9.5
331.897	9.5
332.108	9.54
332.319	9.27
332.53	9.27
332.741	9.29
332.952	9.5
333.163	9.42
333.374	9.41
333.585	9.45
333.795	9.51
334.006	9.62
334.217	9.47
334.428	9.49
334.639	9.68
334.849	9.5
335.06	9.57
335.271	9.17
335.482	9.24
335.692	9.3
335.903	9.32
336.114	9.32
336.325	9.24
336.535	9.42
336.746	9.58
336.957	9.63
337.167	9.8
337.378	9.85
337.589	9.98
337.799	9.93
338.01	9.84
338.22	9.77
338.431	9.62
338.642	9.63
338.852	9.43
339.063	9.07
339.273	8.95
339.484	8.91
339.694	8.81
339.905	8.72
340.115	8.73
340.326	8.75
340.536	8.49
340.746	8.58
340.957	8.55
341.167	8.65
341.378	8.98
341.588	9.01
341.799	9.02
342.009	9.1
342.219	9.14
342.43	9.24
342.64	9.14
342.85	9.27
343.061	9.12
343.271	9.21
343.481	9.11
343.691	8.89
343.902	8.73
344.112	8.69
344.322	8.67
344.532	8.79
344.743	8.63
344.953	8.6
345.163	8.46
345.373	8.53
345.583	8.41
345.793	8.48
346.004	8.64
346.214	8.83
346.424	8.9
346.634	8.89
346.844	8.77
347.054	8.73
347.264	8.83
347.474	9
347.684	9.08
347.894	9.14
348.104	9.14
348.314	9.08
348.524	8.86
348.734	8.85
348.944	8.88
349.154	8.89
349.364	8.88
349.574	8.78
349.784	8.76
349.994	8.82
350.204	8.77
350.413	8.78
350.623	8.67
350.833	8.74
351.043	8.53
351.253	8.41
351.463	8.23
351.672	8.25
351.882	8.28
352.092	8.43
352.302	8.32
352.511	8.47
352.721	8.36
352.931	8.39
353.141	8.4
353.35	8.52
353.56	8.35
353.77	8.44
353.979	8.46
354.189	8.43
354.399	8.2
354.608	7.99
354.818	7.8
355.027	7.87
355.237	7.88
355.447	7.75
355.656	7.71
355.866	7.85
356.075	7.78
356.285	7.78
356.494	7.84
356.704	7.85
356.913	7.95
357.123	7.88
357.332	7.71
357.542	7.68
357.751	7.76
357.96	7.7
358.17	7.6
358.379	7.58
358.589	7.65
358.798	7.56
359.007	7.68
359.217	7.79
359.426	7.85
359.635	7.97
359.845	7.93
360.054	7.83
360.263	7.89
360.472	7.92
360.682	7.91
360.891	7.75
361.1	7.68
361.309	7.49
361.519	7.37
361.728	7.33
361.937	7.32
362.146	7.34
362.355	7.4
362.564	7.3
362.774	7.33
362.983	7.25
363.192	7.39
363.401	7.51
363.61	7.52
363.819	7.47
364.028	7.49
364.237	7.39
364.446	7.25
364.655	7.3
364.864	7.42
365.073	7.39
365.282	7.47
365.491	7.32
365.7	7.25
365.909	7.3
366.118	7.32
366.327	7.24
366.536	7.32
366.745	7.4
366.954	7.42
367.162	7.39
367.371	7.34
367.58	7.22
367.789	7.31
367.998	7.31
368.207	7.36
368.415	7.46
368.624	7.57
368.833	7.41
369.042	7.48
369.25	7.38
369.459	7.46
369.668	7.5
369.877	7.53
370.085	7.41
370.294	7.3
370.503	7.31
370.711	7.22
370.92	7.25
371.129	7.32
371.337	7.19
371.546	7.09
371.754	7.07
371.963	7.07
372.171	7.06
372.38	7.1
372.589	7.17
372.797	7.13
373.006	7.14
373.214	7.05
373.423	7.06
373.631	7.13
373.84	7.13
374.048	7.09
374.256	6.91
374.465	6.93
374.673	6.91
374.882	6.93
375.09	6.95
375.298	6.95
375.507	6.78
375.715	6.83
375.923	6.74
376.132	6.78
376.34	6.72
376.548	6.83
376.757	6.85
376.965	6.9
377.173	6.9
377.381	6.95
377.59	6.97
377.798	7.07
378.006	6.89
378.214	6.87
378.423	6.86
378.631	6.82
378.839	6.79
379.047	6.69
379.255	6.58
379.463	6.48
379.671	6.34
379.879	6.28
380.088	6.34
380.296	6.41
380.504	6.45
380.712	6.47
380.92	6.42
381.128	6.36
381.336	6.29
381.544	6.25
381.752	6.27
381.96	6.29
382.168	6.24
382.376	6.16
382.584	6.16
382.791	6.18
382.999	6.29
383.207	6.31
383.415	6.42
383.623	6.55
383.831	6.57
384.039	6.51
384.247	6.36
384.454	6.33
384.662	6.24
384.87	6.19
385.078	6.14
385.285	5.81
385.493	5.76
385.701	5.67
385.909	5.6
386.116	5.68
386.324	5.68
386.532	5.8
386.739	5.78
386.947	5.91
387.155	5.96
387.362	5.92
387.57	6.09
387.778	6.01
387.985	5.97
388.193	6.05
388.4	6.01
388.608	6.08
388.816	6.07
389.023	6.08
389.231	6.04
389.438	5.93
389.646	5.85
389.853	5.86
390.061	5.9
390.268	5.96
390.475	5.85
390.683	5.86
390.89	5.79
391.098	5.72
391.305	5.78
391.512	5.68
391.72	5.68
391.927	5.81
392.135	5.75
392.342	5.73
392.549	5.68
392.756	5.71
392.964	5.65
393.171	5.66
393.378	5.76
393.586	5.65
393.793	5.71
394	5.74
394.207	5.65
394.414	5.65
394.622	5.73
394.829	5.69
395.036	5.67
395.243	5.6
395.45	5.49
395.657	5.45
395.864	5.44
396.072	5.37
396.279	5.38
396.486	5.33
396.693	5.33
396.9	5.24
397.107	5.19
397.314	5.22
397.521	5.19
397.728	5.25
397.935	5.25
398.142	5.18
398.349	5.16
398.556	5.13
398.763	5.11
398.97	5.11
399.177	5.13
399.383	5.18
399.59	5.11
399.797	5.12
400.004	5.02
400.211	5.04
400.418	5.13
400.625	5.13
400.831	5.07
401.038	5.13
401.245	5.16
401.452	5.12
401.658	5.06
401.865	4.99
402.072	5.02
402.279	5.1
402.485	5.01
402.692	4.93
402.899	4.9
403.105	4.92
403.312	4.98
403.519	4.96
403.725	4.97
403.932	5.08
404.138	5.06
404.345	5.01
404.552	5.01
404.758	5.04
404.965	5.06
405.171	5.11
405.378	5.09
405.584	5.06
405.791	4.93
405.997	4.95
406.204	4.87
406.41	4.96
406.617	5.01
406.823	4.99
407.029	4.98
407.236	4.98
407.442	5.02
407.649	5
407.855	4.87
408.061	4.99
408.268	4.99
408.474	4.93
408.68	4.87
408.887	4.93
409.093	4.93
409.299	4.94
409.505	4.94
409.712	4.84
409.918	4.88
410.124	4.91
410.33	4.89
410.537	4.78
410.743	4.8
410.949	4.78
411.155	4.73
411.361	4.7
411.567	4.69
411.773	4.67
411.98	4.65
412.186	4.71
412.392	4.81
412.598	4.8
412.804	4.84
413.01	4.84
413.216	4.88
413.422	4.85
413.628	4.91
413.834	4.77
414.04	4.82
414.246	4.83
414.452	4.76
414.658	4.69
414.864	4.64
415.07	4.6
415.275	4.58
415.481	4.55
415.687	4.5
415.893	4.42
416.099	4.46
416.305	4.32
416.511	4.33
416.716	4.31
416.922	4.22
417.128	4.22
417.334	4.27
417.539	4.27
417.745	4.19
417.951	4.18
418.157	4.19
418.362	4.17
418.568	4.19
418.774	4.17
418.979	4.17
419.185	4.2
419.391	4.2
419.596	4.14
419.802	4.13
420.008	4.15
420.213	4.22
420.419	4.22
420.624	4.2
420.83	4.21
421.035	4.19
421.241	4.17
421.446	4.16
421.652	4.13
421.857	4.13
422.063	4.1
422.268	4.11
422.474	4.03
422.679	4.01
422.885	4.01
423.09	3.97
423.295	3.97
423.501	3.95
423.706	3.93
423.911	3.9
424.117	3.9
424.322	3.93
424.527	3.92
424.733	3.91
424.938	3.89
425.143	3.9
425.349	3.91
425.554	3.94
425.759	3.91
425.964	3.93
426.169	4
426.375	3.98
426.58	4.02
426.785	4.02
426.99	4.1
427.195	4.15
427.4	4.19
427.605	4.28
427.811	4.3
428.016	4.41
428.221	4.45
428.426	4.44
428.631	4.48
428.836	4.41
429.041	4.44
429.246	4.37
429.451	4.35
429.656	4.4
429.861	4.33
430.066	4.35
430.271	4.26
430.476	4.21
430.681	4.22
430.886	4.2
431.09	4.28
431.295	4.25
431.5	4.23
431.705	4.16
431.91	4.08
432.115	4.08
432.32	4
432.524	4.01
432.729	4
432.934	3.97
433.139	3.97
433.343	3.92
433.548	3.96
433.753	4
433.958	4.06
434.162	4.09
434.367	4.08
434.572	4.1
434.776	4.1
434.981	4.12
435.186	4.14
435.39	4.14
435.595	4.13
435.799	4.02
436.004	3.98
436.209	3.89
436.413	3.84
436.618	3.84
436.822	3.84
437.027	3.81
437.231	3.76
437.436	3.68
437.64	3.6
437.845	3.64
438.049	3.71
438.253	3.66
438.458	3.68
438.662	3.71
438.867	3.68
439.071	3.69
439.275	3.72
439.48	3.76
439.684	3.76
439.888	3.81
440.093	3.74
440.297	3.7
440.501	3.78
440.706	3.8
440.91	3.81
441.114	3.88
441.318	3.86
441.523	3.87
441.727	3.85
441.931	3.89
442.135	3.91
442.339	3.94
442.543	3.96
442.748	3.88
442.952	3.88
443.156	3.88
443.36	3.83
443.564	3.86
443.768	3.79
443.972	3.74
444.176	3.69
444.38	3.66
444.584	3.66
444.788	3.62
444.992	3.62
445.196	3.61
445.4	3.54
445.604	3.52
445.808	3.52
446.012	3.55
446.216	3.56
446.42	3.59
446.624	3.56
446.828	3.52
447.032	3.56
447.235	3.58
447.439	3.57
447.643	3.63
447.847	3.69
448.051	3.67
448.254	3.67
448.458	3.68
448.662	3.69
448.866	3.71
449.069	3.72
449.273	3.75
449.477	3.78
449.681	3.8
449.884	3.77
450.088	3.74
450.292	3.74
450.495	3.69
450.699	3.7
450.902	3.71
451.106	3.73
451.31	3.8
451.513	3.74
451.717	3.74
451.92	3.76
452.124	3.78
452.327	3.76
452.531	3.74
452.734	3.78
452.938	3.75
453.141	3.76
453.345	3.78
453.548	3.74
453.752	3.77
453.955	3.76
454.158	3.75
454.362	3.75
454.565	3.73
454.769	3.76
454.972	3.81
455.175	3.82
455.379	3.79
455.582	3.77
455.785	3.74
455.988	3.69
456.192	3.65
456.395	3.63
456.598	3.61
456.801	3.63
457.005	3.54
457.208	3.52
457.411	3.52
457.614	3.5
457.817	3.45
458.021	3.46
458.224	3.49
458.427	3.49
458.63	3.52
458.833	3.5
459.036	3.46
459.239	3.49
459.442	3.45
459.645	3.45
459.848	3.48
460.051	3.49
460.254	3.52
460.457	3.52
460.66	3.56
460.863	3.55
461.066	3.55
461.269	3.59
461.472	3.67
461.675	3.68
461.878	3.7
462.081	3.7
462.284	3.73
462.486	3.72
462.689	3.74
462.892	3.72
463.095	3.73
463.298	3.79
463.5	3.81
463.703	3.73
463.906	3.79
464.109	3.79
464.311	3.8
464.514	3.83
464.717	3.85
464.92	3.83
465.122	3.84
465.325	3.85
465.528	3.82
465.73	3.79
465.933	3.79
466.135	3.67
466.338	3.66
466.541	3.63
466.743	3.58
466.946	3.57
467.148	3.59
467.351	3.57
467.553	3.57
467.756	3.57
467.958	3.57
468.161	3.57
468.363	3.64
468.566	3.62
468.768	3.6
468.971	3.64
469.173	3.63
469.375	3.57
469.578	3.47
469.78	3.47
469.983	3.45
470.185	3.44
470.387	3.44
470.59	3.5
