Data from JASIL_2968_Reflection_2.txt Node
Date: Sat Nov 07 21:36:51 EST 2015
User: Geneva
Spectrometer: USB4E03002
Autoset integration time: false
Trigger mode: 4
Integration Time (sec): 1.000000E-1
Scans to average: 10
Electric dark correction enabled: true
Nonlinearity correction enabled: false
Boxcar width: 5
Stray light correction enabled: false
XAxis mode: Wavelengths
Stop averaging: false
Number of Pixels in Spectrum: 3648
>>>>>Begin Spectral Data<<<<<
177.575	89.1
177.794	-17.4
178.014	31.95
178.233	36.62
178.452	31.01
178.672	102.33
178.891	47.23
179.11	16.12
179.33	29.64
179.549	23.24
179.768	177.7
179.987	81.71
180.207	55.05
180.426	105.87
180.645	54.56
180.864	50.96
181.084	85.73
181.303	70.2
181.522	86.23
181.741	93.15
181.96	82.94
182.179	79.77
182.398	89.77
182.618	105.07
182.837	101.13
183.056	133.86
183.275	114.35
183.494	117.38
183.713	116.07
183.932	127.79
184.151	136.93
184.37	172.78
184.589	146.88
184.808	137.56
185.027	90.64
185.246	85.04
185.465	82.41
185.684	84.49
185.903	78.73
186.122	78.52
186.341	77.55
186.56	66.03
186.779	54.08
186.998	56.96
187.216	59.47
187.435	72.33
187.654	86.1
187.873	102.7
188.092	81.02
188.311	67.02
188.53	65.03
188.748	63.95
188.967	43
189.186	66.45
189.405	59.4
189.623	27.11
189.842	52.15
190.061	42.48
190.28	24.03
190.498	46.97
190.717	57.42
190.936	57.32
191.154	45.08
191.373	90.42
191.592	45.18
191.81	-197.17
192.029	-249.34
192.248	192.59
192.466	128.25
192.685	85.88
192.904	75.89
193.122	76.76
193.341	26.55
193.559	78.88
193.778	70.92
193.996	63.66
194.215	52.41
194.433	45.89
194.652	51.3
194.87	40.83
195.089	38.11
195.307	44.11
195.526	45.99
195.744	54
195.963	33.62
196.181	34.58
196.399	28.79
196.618	32.58
196.836	56.07
197.055	62.48
197.273	69.62
197.491	88.42
197.71	73.24
197.928	84.54
198.146	90.7
198.365	92.75
198.583	65.89
198.801	55.18
199.019	36.37
199.238	10.74
199.456	1.75
199.674	-13.15
199.892	-28.07
200.111	-54.15
200.329	-31.35
200.547	-45.1
200.765	-34.49
200.983	-47.31
201.202	-17.97
201.42	11.51
201.638	16.2
201.856	36.44
202.074	44.1
202.292	46.76
202.51	64.02
202.728	45.57
202.946	51.52
203.165	61.17
203.383	57.11
203.601	64.04
203.819	53.65
204.037	50.08
204.255	37.31
204.473	37.37
204.691	36.92
204.909	6.64
205.127	29.23
205.345	44.99
205.562	41.71
205.78	46.82
205.998	56.11
206.216	59.65
206.434	76.32
206.652	78.31
206.87	71.92
207.088	54.61
207.306	57.11
207.523	54.37
207.741	41.61
207.959	37.72
208.177	37.29
208.395	32.73
208.612	30.71
208.83	20.94
209.048	11.93
209.266	-6.16
209.483	-0.21
209.701	-28.28
209.919	-19.32
210.136	0.74
210.354	22.91
210.572	31.5
210.79	29.64
211.007	26.69
211.225	15.51
211.442	13.9
211.66	18.6
211.878	21.97
212.095	59.12
212.313	58.68
212.53	59.55
212.748	60.59
212.966	58.11
213.183	59.7
213.401	57.67
213.618	67.02
213.836	68.92
214.053	65.01
214.271	67.07
214.488	33.21
214.705	28.54
214.923	20.97
215.14	30.55
215.358	31.31
215.575	34.76
215.793	58.11
216.01	56.03
216.227	55.62
216.445	57.56
216.662	41.26
216.879	21.82
217.097	20.73
217.314	31.44
217.531	21.04
217.749	23.75
217.966	31.57
218.183	21.75
218.4	7.89
218.618	8.71
218.835	19.98
219.052	28.45
219.269	31.82
219.487	37.98
219.704	37.24
219.921	34.21
220.138	34.04
220.355	25.82
220.572	26.39
220.79	30.2
221.007	35.61
221.224	31.85
221.441	26.58
221.658	27.68
221.875	24.52
222.092	19.32
222.309	22.25
222.526	18.52
222.743	19.25
222.96	14.14
223.177	13.37
223.394	9.47
223.611	9.22
223.828	8.36
224.045	10.01
224.262	8.52
224.479	10.27
224.696	11.33
224.913	10.78
225.13	11.67
225.347	13.13
225.564	12.92
225.781	11.44
225.997	11.19
226.214	10.77
226.431	10.36
226.648	10.58
226.865	10.34
227.082	9.32
227.298	8.91
227.515	8.96
227.732	8.4
227.949	8.21
228.165	8.9
228.382	8.48
228.599	8.87
228.816	8.57
229.032	8.33
229.249	8.53
229.466	8.5
229.682	9.25
229.899	8.97
230.116	9.33
230.332	10.7
230.549	11.27
230.765	12.65
230.982	12.88
231.199	13.77
231.415	13.89
231.632	13.27
231.848	13.71
232.065	15.22
232.281	15.39
232.498	15.7
232.714	14.78
232.931	13.15
233.147	13.47
233.364	13.76
233.58	13.25
233.797	13.19
234.013	13.71
234.23	13.48
234.446	12.74
234.662	12.95
234.879	13.79
235.095	13.51
235.312	15.73
235.528	15.47
235.744	15.26
235.961	15.83
236.177	15.37
236.393	15.72
236.61	15.93
236.826	14.57
237.042	14.17
237.258	13.41
237.475	13.58
237.691	12.53
237.907	11.7
238.123	10.92
238.339	10
238.556	10.53
238.772	10.76
238.988	10.19
239.204	10.75
239.42	10.86
239.636	10.96
239.853	11.29
240.069	10.72
240.285	10.95
240.501	10.63
240.717	10.8
240.933	10.98
241.149	10.46
241.365	11.08
241.581	10.99
241.797	10.79
242.013	10.9
242.229	10.96
242.445	10.97
242.661	10.77
242.877	11.35
243.093	11.35
243.309	11.55
243.525	11.46
243.741	11.01
243.957	11.15
244.173	11.6
244.388	10.9
244.604	10.48
244.82	10.83
245.036	10.7
245.252	10.59
245.468	10.57
245.683	10.37
245.899	10.51
246.115	10.26
246.331	10.11
246.547	9.94
246.762	10.04
246.978	10.1
247.194	9.88
247.409	9.96
247.625	9.7
247.841	9.48
248.057	9.34
248.272	9.17
248.488	9.62
248.703	9.42
248.919	9.43
249.135	9.21
249.35	8.96
249.566	8.92
249.782	8.27
249.997	8.83
250.213	8.88
250.428	9.05
250.644	9.09
250.859	8.74
251.075	8.97
251.29	8.87
251.506	8.85
251.721	8.95
251.937	8.96
252.152	9.36
252.368	9.16
252.583	9.56
252.798	9.19
253.014	9.14
253.229	9.3
253.445	9.25
253.66	9.26
253.875	8.73
254.091	8.29
254.306	8.12
254.521	7.94
254.737	7.83
254.952	7.17
255.167	7.74
255.383	7.56
255.598	7.4
255.813	6.93
256.028	6.84
256.244	7.46
256.459	7.36
256.674	7.82
256.889	7.88
257.104	8.09
257.32	8.06
257.535	7.81
257.75	7.79
257.965	7.7
258.18	7.75
258.395	7.69
258.61	7.83
258.826	7.95
259.041	7.75
259.256	7.61
259.471	7.39
259.686	7.38
259.901	7.43
260.116	7.6
260.331	7.67
260.546	7.82
260.761	7.74
260.976	7.79
261.191	7.55
261.406	7.43
261.621	7.62
261.836	7.46
262.05	7.27
262.265	6.85
262.48	6.39
262.695	6.08
262.91	5.8
263.125	5.76
263.34	5.46
263.555	5.81
263.769	5.49
263.984	5.68
264.199	6.08
264.414	6.39
264.629	6.52
264.843	6.52
265.058	6.54
265.273	6.89
265.488	7.12
265.702	6.81
265.917	6.92
266.132	7.55
266.346	7.3
266.561	7.24
266.776	7.27
266.99	7.58
267.205	7.6
267.42	7.68
267.634	7.57
267.849	7.68
268.063	7.49
268.278	7.25
268.492	7.06
268.707	6.88
268.922	7
269.136	6.74
269.351	6.89
269.565	6.94
269.78	6.7
269.994	6.41
270.209	6.25
270.423	6.89
270.637	6.94
270.852	6.89
271.066	6.95
271.281	7.05
271.495	7.37
271.709	7.2
271.924	7.21
272.138	7.2
272.353	7.2
272.567	7.21
272.781	6.86
272.996	6.83
273.21	6.67
273.424	6.73
273.638	6.61
273.853	6.37
274.067	6.05
274.281	6.05
274.495	6.11
274.71	6.14
274.924	5.99
275.138	6.02
275.352	5.82
275.566	5.88
275.781	6.08
275.995	6.1
276.209	6.21
276.423	6.25
276.637	6.15
276.851	6.26
277.065	6.35
277.279	6.65
277.493	6.99
277.707	6.98
277.921	7.3
278.135	7.31
278.349	7.09
278.563	6.93
278.777	6.99
278.991	7.08
279.205	7.23
279.419	7.34
279.633	7.23
279.847	6.93
280.061	7.12
280.275	7.12
280.489	7.01
280.703	6.85
280.917	6.82
281.131	7.02
281.344	6.89
281.558	6.55
281.772	6.31
281.986	6.4
282.2	6.38
282.414	6.39
282.627	6.33
282.841	6.4
283.055	6.48
283.269	6.38
283.482	6.16
283.696	6.17
283.91	6.5
284.123	6.6
284.337	6.4
284.551	6.32
284.764	6.17
284.978	6.15
285.192	6.1
285.405	6.22
285.619	6.43
285.833	6.28
286.046	6.15
286.26	5.96
286.473	5.8
286.687	5.92
286.9	6.06
287.114	5.98
287.327	6.27
287.541	6.15
287.754	6.01
287.968	5.54
288.181	5.88
288.395	6.19
288.608	6.09
288.822	6.14
289.035	6.32
289.248	6.42
289.462	6.88
289.675	6.64
289.889	6.74
290.102	6.84
290.315	7.23
290.529	7.35
290.742	7.31
290.955	7.6
291.169	7.85
291.382	7.63
291.595	7.42
291.808	7.26
292.022	7.48
292.235	7.49
292.448	7.71
292.661	7.54
292.875	7.27
293.088	7.14
293.301	7.08
293.514	6.9
293.727	6.95
293.94	7.11
294.153	6.88
294.367	6.7
294.58	6.52
294.793	6.26
295.006	6.34
295.219	6.55
295.432	6.63
295.645	6.76
295.858	6.66
296.071	6.71
296.284	6.58
296.497	6.74
296.71	6.7
296.923	6.89
297.136	7
297.349	7.21
297.562	7
297.775	7.06
297.988	6.96
298.201	7.15
298.414	7.17
298.626	7.37
298.839	7.31
299.052	7.4
299.265	7.23
299.478	7.2
299.691	6.92
299.903	7.1
300.116	6.99
300.329	6.95
300.542	6.91
300.755	6.85
300.967	6.89
301.18	6.98
301.393	6.99
301.605	7.02
301.818	7.01
302.031	7.14
302.243	7.05
302.456	7.35
302.669	7.32
302.881	7.54
303.094	7.48
303.307	7.62
303.519	7.59
303.732	7.7
303.944	8.03
304.157	8
304.37	8.11
304.582	8.3
304.795	8.03
305.007	8.15
305.22	8.03
305.432	8.08
305.645	7.8
305.857	7.95
306.069	7.99
306.282	7.65
306.494	7.82
306.707	7.65
306.919	7.52
307.132	7.44
307.344	7.51
307.556	7.63
307.769	7.55
307.981	7.55
308.193	7.36
308.406	7.21
308.618	7.28
308.83	7.18
309.043	7.26
309.255	7.42
309.467	7.58
309.679	7.63
309.892	7.6
310.104	7.59
310.316	7.55
310.528	7.62
310.74	7.85
310.953	8.05
311.165	8.1
311.377	7.98
311.589	7.95
311.801	7.82
312.013	7.68
312.225	7.79
312.437	8.01
312.649	8.11
312.862	8.15
313.074	7.83
313.286	7.53
313.498	7.39
313.71	7.65
313.922	7.54
314.134	7.69
314.346	7.79
314.558	7.44
314.77	7.3
314.982	7.15
315.193	7.14
315.405	6.91
315.617	6.88
315.829	7.17
316.041	7.15
316.253	7.03
316.465	6.99
316.677	6.94
316.888	7.24
317.1	7.41
317.312	7.86
317.524	7.94
317.736	8.37
317.947	8.76
318.159	8.7
318.371	8.72
318.583	8.76
318.794	8.87
319.006	8.99
319.218	8.95
319.43	8.76
319.641	8.44
319.853	8.46
320.064	8.31
320.276	8.34
320.488	8.11
320.699	8.24
320.911	8.55
321.123	8.63
321.334	8.62
321.546	8.64
321.757	8.79
321.969	8.87
322.18	8.78
322.392	8.56
322.603	8.3
322.815	8.41
323.026	8.38
323.238	8.02
323.449	8.06
323.661	7.96
323.872	8.06
324.083	8.05
324.295	8
324.506	7.91
324.718	8.09
324.929	8.36
325.14	8.63
325.352	8.56
325.563	8.88
325.774	8.83
325.986	8.83
326.197	8.76
326.408	8.81
326.62	8.88
326.831	9.18
327.042	9.3
327.253	9.23
327.464	8.94
327.676	8.86
327.887	8.89
328.098	8.86
328.309	9.05
328.52	9.08
328.732	9.44
328.943	9.73
329.154	9.83
329.365	9.8
329.576	9.95
329.787	10.06
329.998	10.3
330.209	10.38
330.42	10.56
330.631	10.58
330.842	10.58
331.053	10.34
331.264	10.21
331.475	10.22
331.686	10.36
331.897	10.29
332.108	10.35
332.319	10.14
332.53	10.13
332.741	10.01
332.952	9.99
333.163	10.19
333.374	10.27
333.585	10.26
333.795	9.99
334.006	10.06
334.217	10.08
334.428	10.13
334.639	10.3
334.849	10.29
335.06	10.42
335.271	10.33
335.482	10.3
335.692	10.3
335.903	10.18
336.114	10.28
336.325	10.18
336.535	10.28
336.746	10.02
336.957	10.08
337.167	10.07
337.378	10.01
337.589	9.99
337.799	9.95
338.01	9.99
338.22	10.22
338.431	10.18
338.642	10.29
338.852	10.02
339.063	10.26
339.273	10.05
339.484	10.09
339.694	9.99
339.905	10.08
340.115	9.95
340.326	9.67
340.536	9.69
340.746	9.75
340.957	9.64
341.167	9.61
341.378	9.5
341.588	9.87
341.799	9.7
342.009	9.68
342.219	9.69
342.43	9.88
342.64	9.77
342.85	9.49
343.061	9.46
343.271	9.41
343.481	9.63
343.691	9.71
343.902	9.34
344.112	9.42
344.322	9.44
344.532	9.49
344.743	9.46
344.953	9.52
345.163	9.64
345.373	9.62
345.583	9.68
345.793	9.52
346.004	9.36
346.214	9.39
346.424	9.48
346.634	9.54
346.844	9.69
347.054	9.58
347.264	9.89
347.474	9.82
347.684	9.73
347.894	9.76
348.104	9.77
348.314	9.83
348.524	9.97
348.734	9.84
348.944	9.72
349.154	9.61
349.364	9.64
349.574	9.52
349.784	9.54
349.994	9.76
350.204	9.63
350.413	9.53
350.623	9.55
350.833	9.55
351.043	9.58
351.253	9.64
351.463	9.45
351.672	9.38
351.882	9.29
352.092	9.24
352.302	9.14
352.511	9.07
352.721	9.06
352.931	9.22
353.141	9.02
353.35	8.91
353.56	8.94
353.77	9.23
353.979	9.45
354.189	9.38
354.399	9.57
354.608	9.57
354.818	9.66
355.027	9.65
355.237	9.5
355.447	9.62
355.656	9.58
355.866	9.55
356.075	9.35
356.285	9.11
356.494	9.15
356.704	8.97
356.913	8.86
357.123	8.73
357.332	8.85
357.542	8.91
357.751	8.86
357.96	8.92
358.17	8.86
358.379	8.78
358.589	8.81
358.798	8.91
359.007	8.87
359.217	8.76
359.426	8.81
359.635	8.71
359.845	8.64
360.054	8.56
360.263	8.5
360.472	8.43
360.682	8.37
360.891	8.49
361.1	8.41
361.309	8.45
361.519	8.6
361.728	8.57
361.937	8.67
362.146	8.6
362.355	8.64
362.564	8.69
362.774	8.72
362.983	8.75
363.192	8.61
363.401	8.54
363.61	8.54
363.819	8.47
364.028	8.46
364.237	8.35
364.446	8.49
364.655	8.48
364.864	8.45
365.073	8.52
365.282	8.58
365.491	8.48
365.7	8.58
365.909	8.48
366.118	8.49
366.327	8.59
366.536	8.55
366.745	8.45
366.954	8.44
367.162	8.37
367.371	8.3
367.58	8.28
367.789	8.23
367.998	8.15
368.207	8.16
368.415	8.22
368.624	8.05
368.833	8.02
369.042	8.16
369.25	8.22
369.459	8.24
369.668	8.19
369.877	8.14
370.085	8.27
370.294	8.26
370.503	8.29
370.711	8.12
370.92	8.13
371.129	8.1
371.337	7.99
371.546	7.81
371.754	7.87
371.963	7.97
372.171	7.9
372.38	7.73
372.589	7.83
372.797	7.77
373.006	7.83
373.214	7.77
373.423	7.79
373.631	7.62
373.84	7.74
374.048	7.65
374.256	7.58
374.465	7.56
374.673	7.54
374.882	7.29
375.09	7.28
375.298	7.25
375.507	7.26
375.715	7.16
375.923	7.1
376.132	7.07
376.34	7
376.548	6.97
376.757	6.99
376.965	7.08
377.173	7.25
377.381	7.2
377.59	7.17
377.798	7.22
378.006	7.27
378.214	7.33
378.423	7.24
378.631	7.26
378.839	7.17
379.047	7.21
379.255	7.17
379.463	7.06
379.671	6.93
379.879	6.83
380.088	6.78
380.296	6.8
380.504	6.9
380.712	7
380.92	7.13
381.128	7.15
381.336	7.16
381.544	7.17
381.752	7.15
381.96	7.26
382.168	7.32
382.376	7.33
382.584	7.33
382.791	7.32
382.999	7.23
383.207	7.1
383.415	7.09
383.623	7.04
383.831	6.93
384.039	6.96
384.247	6.94
384.454	6.93
384.662	6.99
384.87	6.98
385.078	6.9
385.285	6.97
385.493	7
385.701	7.03
385.909	7.04
386.116	7.1
386.324	7.16
386.532	7.13
386.739	7.06
386.947	6.91
387.155	6.87
387.362	6.88
387.57	6.85
387.778	6.79
387.985	6.78
388.193	6.71
388.4	6.77
388.608	6.55
388.816	6.59
389.023	6.69
389.231	6.68
389.438	6.64
389.646	6.57
389.853	6.49
390.061	6.42
390.268	6.47
390.475	6.45
390.683	6.44
390.89	6.42
391.098	6.39
391.305	6.34
391.512	6.35
391.72	6.42
391.927	6.35
392.135	6.35
392.342	6.33
392.549	6.25
392.756	6.26
392.964	6.17
393.171	6.26
393.378	6.26
393.586	6.21
393.793	6.2
394	6.06
394.207	6.16
394.414	6.2
394.622	6.29
394.829	6.28
395.036	6.18
395.243	6.23
395.45	6.22
395.657	6.2
395.864	6.19
396.072	6.27
396.279	6.32
396.486	6.28
396.693	6.24
396.9	6.23
397.107	6.17
397.314	6.2
397.521	6.11
397.728	6.02
397.935	5.96
398.142	5.94
398.349	5.83
398.556	5.87
398.763	5.86
398.97	5.83
399.177	5.78
399.383	5.84
399.59	5.87
399.797	5.94
400.004	5.95
400.211	6
400.418	5.94
400.625	5.94
400.831	5.88
401.038	5.83
401.245	5.79
401.452	5.65
401.658	5.64
401.865	5.72
402.072	5.69
402.279	5.73
402.485	5.75
402.692	5.79
402.899	5.76
403.105	5.85
403.312	5.86
403.519	5.84
403.725	5.93
403.932	5.93
404.138	5.84
404.345	5.76
404.552	5.71
404.758	5.71
404.965	5.67
405.171	5.68
405.378	5.57
405.584	5.59
405.791	5.6
405.997	5.55
406.204	5.54
406.41	5.5
406.617	5.5
406.823	5.52
407.029	5.49
407.236	5.48
407.442	5.5
407.649	5.61
407.855	5.65
408.061	5.64
408.268	5.64
408.474	5.65
408.68	5.63
408.887	5.6
409.093	5.56
409.299	5.62
409.505	5.65
409.712	5.59
409.918	5.48
410.124	5.39
410.33	5.43
410.537	5.45
410.743	5.38
410.949	5.44
411.155	5.54
411.361	5.54
411.567	5.46
411.773	5.43
411.98	5.42
412.186	5.44
412.392	5.42
412.598	5.44
412.804	5.45
413.01	5.45
413.216	5.4
413.422	5.44
413.628	5.44
413.834	5.4
414.04	5.43
414.246	5.42
414.452	5.4
414.658	5.44
414.864	5.42
415.07	5.35
415.275	5.39
415.481	5.35
415.687	5.16
415.893	5.13
416.099	5.16
416.305	5.17
416.511	5.19
416.716	5.16
416.922	5.14
417.128	5.14
417.334	5.17
417.539	5.09
417.745	5.09
417.951	5.11
418.157	5.12
418.362	5.13
418.568	5.14
418.774	5.07
418.979	5.06
419.185	5.03
419.391	5.03
419.596	4.98
419.802	5
420.008	4.96
420.213	5.33
420.419	5.3
420.624	5.28
420.83	5.22
421.035	5.24
421.241	5.22
421.446	5.25
421.652	5.2
421.857	5.2
422.063	5.2
422.268	5.18
422.474	4.87
422.679	4.88
422.885	4.89
423.09	4.91
423.295	4.89
423.501	4.9
423.706	4.83
423.911	4.9
424.117	4.92
424.322	4.91
424.527	4.94
424.733	4.88
424.938	4.87
425.143	4.86
425.349	4.81
425.554	4.84
425.759	4.85
425.964	4.9
426.169	4.83
426.375	4.84
426.58	4.82
426.785	4.82
426.99	4.83
427.195	4.84
427.4	4.82
427.605	4.9
427.811	4.87
428.016	4.86
428.221	4.96
428.426	4.97
428.631	4.95
428.836	4.98
429.041	4.93
429.246	4.99
429.451	5.01
429.656	5
429.861	4.98
430.066	5.05
430.271	5.02
430.476	4.91
430.681	4.83
430.886	4.84
431.09	4.87
431.295	4.88
431.5	4.85
431.705	4.82
431.91	4.82
432.115	4.85
432.32	4.81
432.524	4.8
432.729	4.78
432.934	4.84
433.139	4.83
433.343	4.88
433.548	4.91
433.753	4.88
433.958	4.88
434.162	4.85
434.367	4.84
434.572	4.81
434.776	4.82
434.981	4.87
435.186	4.81
435.39	4.77
435.595	4.73
435.799	4.71
436.004	4.74
436.209	4.72
436.413	4.73
436.618	4.72
436.822	4.7
437.027	4.67
437.231	4.62
437.436	4.62
437.64	4.62
437.845	4.54
438.049	4.54
438.253	4.48
438.458	4.51
438.662	4.5
438.867	4.48
439.071	4.53
439.275	4.57
439.48	4.58
439.684	4.59
439.888	4.59
440.093	4.59
440.297	4.55
440.501	4.58
440.706	4.58
440.91	4.63
441.114	4.63
441.318	4.61
441.523	4.62
441.727	4.64
441.931	4.71
442.135	4.75
442.339	4.77
442.543	4.83
442.748	4.82
442.952	4.83
443.156	4.77
443.36	4.76
443.564	4.72
443.768	4.68
443.972	4.62
444.176	4.56
444.38	4.53
444.584	4.54
444.788	4.53
444.992	4.51
445.196	4.46
445.4	4.5
445.604	4.5
445.808	4.47
446.012	4.43
446.216	4.47
446.42	4.42
446.624	4.42
446.828	4.39
447.032	4.38
447.235	4.41
447.439	4.43
447.643	4.43
447.847	4.46
448.051	4.49
448.254	4.53
448.458	4.51
448.662	4.57
448.866	4.55
449.069	4.62
449.273	4.66
449.477	4.67
449.681	4.66
449.884	4.72
450.088	4.65
450.292	4.66
450.495	4.69
450.699	4.73
450.902	4.71
451.106	4.73
451.31	4.67
451.513	4.67
451.717	4.59
451.92	4.58
452.124	4.46
452.327	4.51
452.531	4.54
452.734	4.49
452.938	4.49
453.141	4.5
453.345	4.5
453.548	4.51
453.752	4.5
453.955	4.54
454.158	4.58
454.362	4.6
454.565	4.59
454.769	4.52
454.972	4.54
455.175	4.48
455.379	4.48
455.582	4.43
455.785	4.44
455.988	4.44
456.192	4.43
456.395	4.37
456.598	4.39
456.801	4.35
457.005	4.42
457.208	4.43
457.411	4.45
457.614	4.46
457.817	4.46
458.021	4.43
458.224	4.41
458.427	4.42
458.63	4.42
458.833	4.41
459.036	4.44
459.239	4.38
459.442	4.37
459.645	4.39
459.848	4.4
460.051	4.39
460.254	4.41
460.457	4.39
460.66	4.38
460.863	4.42
461.066	4.44
461.269	4.42
461.472	4.51
461.675	4.52
461.878	4.54
462.081	4.52
462.284	4.57
462.486	4.63
462.689	4.64
462.892	4.66
463.095	4.66
463.298	4.69
463.5	4.68
463.703	4.64
463.906	4.66
464.109	4.64
464.311	4.66
464.514	4.67
464.717	4.63
464.92	4.67
465.122	4.68
465.325	4.71
465.528	4.66
465.73	4.69
465.933	4.69
466.135	4.67
466.338	4.65
466.541	4.64
466.743	4.63
466.946	4.66
467.148	4.67
467.351	4.62
467.553	4.58
467.756	4.63
467.958	4.65
468.161	4.65
468.363	4.64
468.566	4.63
468.768	4.59
468.971	4.6
469.173	4.59
469.375	4.55
469.578	4.68
469.78	4.62
469.983	4.61
470.185	4.58
470.387	4.59
470.59	4.56
470.792	4.57
470.994	4.61
