Data from JASIL_2926_Reflection_1.txt Node
Date: Sat Nov 07 20:39:44 EST 2015
User: Geneva
Spectrometer: USB4E03002
Autoset integration time: false
Trigger mode: 4
Integration Time (sec): 1.000000E-1
Scans to average: 10
Electric dark correction enabled: true
Nonlinearity correction enabled: false
Boxcar width: 5
Stray light correction enabled: false
XAxis mode: Wavelengths
Stop averaging: false
Number of Pixels in Spectrum: 3648
>>>>>Begin Spectral Data<<<<<
177.575	-681.25
177.794	-340
178.014	-533.33
178.233	-102.3
178.452	-100.66
178.672	-3.7
178.891	106.45
179.11	0
179.33	1912
179.549	-1766.67
179.768	738.24
179.987	30.56
180.207	34.78
180.426	45.54
180.645	36.93
180.864	28.79
181.084	41.54
181.303	39.96
181.522	33.33
181.741	51.41
181.96	40.25
182.179	43.25
182.398	34.92
182.618	23.57
182.837	10.9
183.056	-4.38
183.275	7.01
183.494	-8.29
183.713	7.41
183.932	10.12
184.151	-1.08
184.37	4.52
184.589	-13.18
184.808	-4.75
185.027	6
185.246	8.37
185.465	29.44
185.684	26.82
185.903	42.44
186.122	52.59
186.341	59.27
186.56	58.73
186.779	72.97
186.998	88.06
187.216	82.24
187.435	79.53
187.654	68.39
187.873	62.08
188.092	46.42
188.311	9.97
188.53	8.2
188.748	7.98
188.967	-2.74
189.186	6.86
189.405	-7.15
189.623	-38.69
189.842	-6.94
190.061	4.16
190.28	-16.46
190.498	-5.1
190.717	-5.08
190.936	-16.02
191.154	-35.13
191.373	-48.12
191.592	-51.27
191.81	-37.18
192.029	-26.82
192.248	-47.01
192.466	-12.98
192.685	-3.5
192.904	9.01
193.122	7.21
193.341	13.47
193.559	19.3
193.778	24.56
193.996	19.83
194.215	16.6
194.433	13.63
194.652	21.14
194.87	12.77
195.089	24.41
195.307	22.22
195.526	34.18
195.744	35.97
195.963	33.11
196.181	35.45
196.399	15.71
196.618	11.74
196.836	31.4
197.055	14.5
197.273	7.88
197.491	2.83
197.71	10.84
197.928	-10.12
198.146	-0
198.365	-4.39
198.583	-11.81
198.801	15.11
199.019	24.46
199.238	26.78
199.456	19.97
199.674	22.73
199.892	27.88
200.111	9.93
200.329	29.08
200.547	5.8
200.765	19.92
200.983	22.53
201.202	33.02
201.42	30.98
201.638	5.91
201.856	22.87
202.074	25.23
202.292	10.64
202.51	18.44
202.728	2.01
202.946	-3.95
203.165	-7.52
203.383	-8.71
203.601	-17.04
203.819	-26.78
204.037	-4.86
204.255	6.55
204.473	9.28
204.691	7.14
204.909	-4.52
205.127	7.04
205.345	29.48
205.562	23.95
205.78	24.79
205.998	24.86
206.216	23.26
206.434	11.59
206.652	3.8
206.87	14.12
207.088	16.27
207.306	13.86
207.523	16.21
207.741	-0.94
207.959	6.2
208.177	-1.87
208.395	-22.98
208.612	-50.77
208.83	-18.2
209.048	-6.87
209.266	-52.31
209.483	-70.79
209.701	-48.7
209.919	-58.63
210.136	-61.46
210.354	-26.31
210.572	-9.34
210.79	-4.12
211.007	10.61
211.225	4.99
211.442	-0.67
211.66	11.62
211.878	17.2
212.095	72.66
212.313	80.02
212.53	75.95
212.748	73.35
212.966	75.35
213.183	74.06
213.401	75.23
213.618	79.76
213.836	83.59
214.053	83.21
214.271	87.08
214.488	24.77
214.705	14.43
214.923	19.29
215.14	18.12
215.358	14.2
215.575	23.2
215.793	22.89
216.01	22.13
216.227	15.48
216.445	11.9
216.662	7.46
216.879	13.83
217.097	12.61
217.314	6.14
217.531	-1.15
217.749	-6.99
217.966	-12.28
218.183	-17.35
218.4	-22.36
218.618	-23.16
218.835	-12.82
219.052	-8.1
219.269	-13.66
219.487	-7.15
219.704	-5.26
219.921	-2.05
220.138	7.66
220.355	9.94
220.572	14.51
220.79	10.84
221.007	16.48
221.224	16.72
221.441	13.59
221.658	11.91
221.875	11.84
222.092	11.72
222.309	12.61
222.526	5.22
222.743	4.03
222.96	-2
223.177	0.29
223.394	-3.09
223.611	-4.53
223.828	-2.53
224.045	-1.23
224.262	-3.25
224.479	-0.93
224.696	0.29
224.913	5.16
225.13	6.63
225.347	8.36
225.564	6.48
225.781	6.16
225.997	5.95
226.214	5.25
226.431	5.88
226.648	5.65
226.865	5.61
227.082	5.72
227.298	4.74
227.515	4.2
227.732	3.74
227.949	4.28
228.165	4.46
228.382	4.21
228.599	3.96
228.816	3.9
229.032	4.03
229.249	3.91
229.466	3.11
229.682	3.42
229.899	3.93
230.116	4.85
230.332	5.89
230.549	6.46
230.765	8.16
230.982	8.57
231.199	8.37
231.415	8.52
231.632	8.23
231.848	9.31
232.065	8.99
232.281	8.47
232.498	8.44
232.714	8.13
232.931	6.74
233.147	6.07
233.364	6.03
233.58	6.72
233.797	6.33
234.013	6.51
234.23	5.89
234.446	6.23
234.662	6.82
234.879	6.49
235.095	5.64
235.312	6.41
235.528	6.83
235.744	6.95
235.961	7.31
236.177	7.57
236.393	6.36
236.61	6.71
236.826	5.96
237.042	6.15
237.258	6.35
237.475	7.62
237.691	7.47
237.907	6.12
238.123	5.7
238.339	4.4
238.556	4.27
238.772	4.91
238.988	5.26
239.204	5.6
239.42	5.52
239.636	5.5
239.853	4.53
240.069	4.64
240.285	4.68
240.501	4.78
240.717	4.83
240.933	5.12
241.149	5.67
241.365	6.03
241.581	5.84
241.797	5.83
242.013	5.68
242.229	6.26
242.445	6.7
242.661	6.63
242.877	6.67
243.093	7.16
243.309	7.22
243.525	6.67
243.741	5.94
243.957	6.41
244.173	6.75
244.388	6.54
244.604	5.82
244.82	5.44
245.036	5.24
245.252	5.6
245.468	5.41
245.683	5.35
245.899	5.66
246.115	5.79
246.331	5.83
246.547	5.52
246.762	5.56
246.978	5.7
247.194	5.56
247.409	5.78
247.625	5.59
247.841	5.46
248.057	5.42
248.272	5.14
248.488	4.86
248.703	4.51
248.919	4.59
249.135	4.43
249.35	4.24
249.566	4.62
249.782	4.36
249.997	4.74
250.213	5.3
250.428	5.69
250.644	5.52
250.859	5.38
251.075	5.71
251.29	5.5
251.506	5.47
251.721	5.51
251.937	5.39
252.152	5.42
252.368	5.07
252.583	4.74
252.798	4.39
253.014	4.29
253.229	4.57
253.445	3.55
253.66	3.75
253.875	3.25
254.091	2.18
254.306	2.08
254.521	1.67
254.737	1.69
254.952	1.66
255.167	1.45
255.383	2.1
255.598	2.47
255.813	2.63
256.028	2.33
256.244	2.78
256.459	3.51
256.674	3.36
256.889	3.8
257.104	3.96
257.32	4.07
257.535	4.23
257.75	4.16
257.965	4.15
258.18	4.29
258.395	4.34
258.61	4.39
258.826	4.34
259.041	4.3
259.256	4.27
259.471	4.32
259.686	4.28
259.901	4.29
260.116	4.32
260.331	4.18
260.546	4.24
260.761	4.24
260.976	4.16
261.191	4.07
261.406	3.96
261.621	4.15
261.836	3.68
262.05	3.56
262.265	3.43
262.48	3.33
262.695	3.41
262.91	3.51
263.125	3.31
263.34	3.67
263.555	4.11
263.769	4.17
263.984	4.19
264.199	4.4
264.414	4.56
264.629	4.37
264.843	4.23
265.058	4.13
265.273	4.07
265.488	4.31
265.702	4.11
265.917	4.22
266.132	4.35
266.346	4.14
266.561	4.27
266.776	4.14
266.99	4.54
267.205	4.43
267.42	4.5
267.634	4.45
267.849	4.47
268.063	4.47
268.278	4.04
268.492	3.95
268.707	3.91
268.922	3.86
269.136	3.77
269.351	3.49
269.565	3.66
269.78	3.48
269.994	3.21
270.209	3.17
270.423	3.58
270.637	3.75
270.852	3.88
271.066	3.84
271.281	4
271.495	4.14
271.709	4.05
271.924	4.06
272.138	4.13
272.353	4.31
272.567	4.21
272.781	3.74
272.996	3.74
273.21	3.45
273.424	3.56
273.638	3.38
273.853	3.39
274.067	3.46
274.281	3.45
274.495	3.47
274.71	3.4
274.924	3.3
275.138	3.54
275.352	3.29
275.566	3.54
275.781	3.61
275.995	3.75
276.209	3.61
276.423	3.53
276.637	3.46
276.851	3.43
277.065	3.41
277.279	3.56
277.493	3.72
277.707	3.94
277.921	4.01
278.135	3.94
278.349	3.66
278.563	3.5
278.777	3.27
278.991	3.26
279.205	3.7
279.419	4.03
279.633	3.95
279.847	3.7
280.061	3.6
280.275	3.46
280.489	3.3
280.703	3.16
280.917	3.35
281.131	3.67
281.344	3.62
281.558	3.17
281.772	2.89
281.986	2.98
282.2	3.05
282.414	3.17
282.627	3.29
282.841	3.4
283.055	3.5
283.269	3.43
283.482	3.1
283.696	3.12
283.91	3.44
284.123	3.37
284.337	3.18
284.551	3.07
284.764	2.97
284.978	3.01
285.192	2.93
285.405	3.16
285.619	3.2
285.833	3.35
286.046	3.28
286.26	3.15
286.473	3.13
286.687	3.15
286.9	3.21
287.114	3.09
287.327	3.1
287.541	3.12
287.754	2.82
287.968	2.78
288.181	2.8
288.395	2.79
288.608	2.72
288.822	2.86
289.035	3.12
289.248	3.03
289.462	3.3
289.675	3.31
289.889	3.3
290.102	3.3
290.315	3.22
290.529	3.21
290.742	3.25
290.955	3.28
291.169	3.23
291.382	2.97
291.595	2.99
291.808	2.72
292.022	2.69
292.235	2.55
292.448	2.78
292.661	2.89
292.875	3.05
293.088	3.08
293.301	3.17
293.514	3.07
293.727	2.91
293.94	2.94
294.153	2.91
294.367	2.84
294.58	2.85
294.793	2.67
295.006	2.74
295.219	2.79
295.432	2.84
295.645	2.78
295.858	2.72
296.071	2.86
296.284	2.8
296.497	2.97
296.71	3.01
296.923	2.98
297.136	3.03
297.349	3.02
297.562	2.82
297.775	2.86
297.988	2.78
298.201	2.89
298.414	2.91
298.626	2.95
298.839	2.72
299.052	2.77
299.265	2.64
299.478	2.64
299.691	2.31
299.903	2.48
300.116	2.32
300.329	2.26
300.542	2.33
300.755	2.2
300.967	2.32
301.18	2.47
301.393	2.19
301.605	2.3
301.818	2.13
302.031	2.37
302.243	2.23
302.456	2.51
302.669	2.49
302.881	2.51
303.094	2.61
303.307	2.74
303.519	2.72
303.732	2.82
303.944	2.92
304.157	3.02
304.37	3.06
304.582	3.1
304.795	2.92
305.007	3.02
305.22	2.9
305.432	3.01
305.645	2.81
305.857	2.98
306.069	3.05
306.282	2.85
306.494	2.9
306.707	2.89
306.919	3
307.132	2.83
307.344	2.71
307.556	2.85
307.769	2.68
307.981	2.69
308.193	2.7
308.406	2.54
308.618	2.88
308.83	2.89
309.043	2.92
309.255	2.88
309.467	2.95
309.679	3.16
309.892	3.17
310.104	3.21
310.316	3.2
310.528	3.14
310.74	3.54
310.953	3.53
311.165	3.53
311.377	3.41
311.589	3.36
311.801	3.37
312.013	3.35
312.225	3.38
312.437	3.72
312.649	3.77
312.862	3.71
313.074	3.5
313.286	3.33
313.498	3.28
313.71	3.61
313.922	3.62
314.134	3.66
314.346	3.71
314.558	3.74
314.77	3.46
314.982	3.37
315.193	3.41
315.405	3.15
315.617	3.12
315.829	3.29
316.041	3.06
316.253	2.95
316.465	2.9
316.677	2.75
316.888	2.62
317.1	2.82
317.312	3.05
317.524	3.12
317.736	3.26
317.947	3.37
318.159	3.4
318.371	3.55
318.583	3.86
318.794	4.09
319.006	4.21
319.218	4.14
319.43	3.88
319.641	3.77
319.853	3.76
320.064	3.72
320.276	3.83
320.488	3.68
320.699	3.74
320.911	3.77
321.123	4.06
321.334	4.04
321.546	4.12
321.757	4.29
321.969	4.31
322.18	4.4
322.392	4.49
322.603	4.3
322.815	4.31
323.026	4.31
323.238	4.19
323.449	4.14
323.661	4.21
323.872	4.25
324.083	4.23
324.295	4.33
324.506	4.18
324.718	4.3
324.929	4.56
325.14	4.74
325.352	4.84
325.563	5.13
325.774	4.93
325.986	4.98
326.197	4.94
326.408	5.07
326.62	5.13
326.831	5.38
327.042	5.36
327.253	5.36
327.464	5.31
327.676	5.1
327.887	5.01
328.098	5.17
328.309	5.25
328.52	5.64
328.732	5.88
328.943	5.89
329.154	6.1
329.365	6.21
329.576	6.44
329.787	6.44
329.998	6.81
330.209	6.8
330.42	6.79
330.631	6.9
330.842	6.86
331.053	6.84
331.264	6.96
331.475	6.91
331.686	7.13
331.897	7.07
332.108	7.14
332.319	6.94
332.53	7.03
332.741	7
332.952	6.86
333.163	7.06
333.374	7.13
333.585	7.15
333.795	7.17
334.006	7.12
334.217	7.21
334.428	7.48
334.639	7.58
334.849	7.74
335.06	7.89
335.271	7.88
335.482	7.69
335.692	7.65
335.903	7.51
336.114	7.44
336.325	7.45
336.535	7.5
336.746	7.44
336.957	7.56
337.167	7.43
337.378	7.29
337.589	7.33
337.799	7.46
338.01	7.54
338.22	7.81
338.431	7.97
338.642	8.07
338.852	7.83
339.063	7.72
339.273	7.73
339.484	7.83
339.694	8.04
339.905	8.1
340.115	8.06
340.326	7.9
340.536	7.91
340.746	7.89
340.957	7.61
341.167	7.67
341.378	7.77
341.588	7.82
341.799	7.74
342.009	7.67
342.219	7.68
342.43	7.74
342.64	7.68
342.85	7.46
343.061	7.38
343.271	7.57
343.481	7.69
343.691	7.66
343.902	7.45
344.112	7.39
344.322	7.43
344.532	7.48
344.743	7.38
344.953	7.39
345.163	7.49
345.373	7.54
345.583	7.48
345.793	7.32
346.004	7.25
346.214	7.38
346.424	7.46
346.634	7.53
346.844	7.55
347.054	7.68
347.264	7.91
347.474	7.89
347.684	7.65
347.894	7.83
348.104	7.86
348.314	7.9
348.524	7.85
348.734	7.81
348.944	7.7
349.154	7.74
349.364	7.54
349.574	7.27
349.784	7.23
349.994	7.27
350.204	7.01
350.413	6.9
350.623	6.95
350.833	6.8
351.043	6.67
351.253	6.8
351.463	6.77
351.672	6.7
351.882	6.82
352.092	6.72
352.302	6.79
352.511	6.83
352.721	6.87
352.931	6.86
353.141	6.9
353.35	6.98
353.56	6.8
353.77	6.77
353.979	7.01
354.189	6.94
354.399	7.13
354.608	7.08
354.818	7.2
355.027	7.29
355.237	7.23
355.447	7.19
355.656	7.24
355.866	7.25
356.075	7.13
356.285	7.01
356.494	7
356.704	6.91
356.913	6.98
357.123	6.8
357.332	6.79
357.542	6.94
357.751	7.03
357.96	6.92
358.17	6.93
358.379	7.1
358.589	7.08
358.798	7.2
359.007	7.22
359.217	7.16
359.426	7.26
359.635	7.23
359.845	7.07
360.054	6.99
360.263	7
360.472	6.99
360.682	6.96
360.891	7.01
361.1	7.01
361.309	6.97
361.519	6.98
361.728	7.01
361.937	6.99
362.146	6.99
362.355	7.07
362.564	7.13
362.774	7.07
362.983	6.96
363.192	6.78
363.401	6.73
363.61	6.72
363.819	6.72
364.028	6.67
364.237	6.68
364.446	6.71
364.655	6.6
364.864	6.58
365.073	6.67
365.282	6.74
365.491	6.81
365.7	6.78
365.909	6.81
366.118	6.84
366.327	6.81
366.536	6.81
366.745	6.74
366.954	6.77
367.162	6.74
367.371	6.61
367.58	6.61
367.789	6.52
367.998	6.56
368.207	6.57
368.415	6.57
368.624	6.57
368.833	6.55
369.042	6.58
369.25	6.58
369.459	6.59
369.668	6.56
369.877	6.53
370.085	6.68
370.294	6.53
370.503	6.55
370.711	6.46
370.92	6.27
371.129	6.29
371.337	6.25
371.546	6.17
371.754	6.11
371.963	6.3
372.171	6.22
372.38	6.09
372.589	6.28
372.797	6.28
373.006	6.29
373.214	6.44
373.423	6.45
373.631	6.51
373.84	6.64
374.048	6.64
374.256	6.46
374.465	6.46
374.673	6.51
374.882	6.26
375.09	6.18
375.298	6.16
375.507	6.14
375.715	6.17
375.923	6.13
376.132	6.13
376.34	6.1
376.548	6.17
376.757	6.26
376.965	6.28
377.173	6.48
377.381	6.46
377.59	6.48
377.798	6.59
378.006	6.62
378.214	6.64
378.423	6.68
378.631	6.76
378.839	6.73
379.047	6.68
379.255	6.54
379.463	6.5
379.671	6.48
379.879	6.46
380.088	6.33
380.296	6.21
380.504	6.2
380.712	6.12
380.92	6.21
381.128	6.17
381.336	6.17
381.544	6.27
381.752	6.15
381.96	6.19
382.168	6.14
382.376	6.15
382.584	6.15
382.791	6.18
382.999	6.12
383.207	6
383.415	6.03
383.623	6.17
383.831	6.19
384.039	6.21
384.247	6.21
384.454	6.25
384.662	6.35
384.87	6.37
385.078	6.25
385.285	6.35
385.493	6.36
385.701	6.38
385.909	6.23
386.116	6.22
386.324	6.29
386.532	6.24
386.739	6.17
386.947	6.07
387.155	5.97
387.362	6.11
387.57	6.07
387.778	6.08
387.985	6.12
388.193	6.13
388.4	6.18
388.608	6.04
388.816	6.06
389.023	6.08
389.231	6.03
389.438	6.1
389.646	5.94
389.853	5.9
390.061	5.82
390.268	5.83
390.475	5.82
390.683	5.72
390.89	5.75
391.098	5.77
391.305	5.81
391.512	5.83
391.72	5.77
391.927	5.8
392.135	5.79
392.342	5.82
392.549	5.69
392.756	5.7
392.964	5.63
393.171	5.67
393.378	5.71
393.586	5.72
393.793	5.81
394	5.84
394.207	5.89
394.414	5.98
394.622	6.01
394.829	6.04
395.036	6.02
395.243	6.09
395.45	6.08
395.657	5.98
395.864	5.92
396.072	5.93
396.279	5.95
396.486	5.87
396.693	5.86
396.9	5.81
397.107	5.78
397.314	5.82
397.521	5.87
397.728	5.85
397.935	5.86
398.142	5.89
398.349	5.8
398.556	5.9
398.763	5.93
398.97	5.85
399.177	5.87
399.383	5.95
399.59	5.92
399.797	5.9
400.004	5.86
400.211	5.83
400.418	5.81
400.625	5.81
400.831	5.72
401.038	5.78
401.245	5.69
401.452	5.63
401.658	5.54
401.865	5.6
402.072	5.61
402.279	5.63
402.485	5.69
402.692	5.7
402.899	5.67
403.105	5.71
403.312	5.65
403.519	5.7
403.725	5.82
403.932	5.89
404.138	5.81
404.345	5.7
404.552	5.7
404.758	5.63
404.965	5.56
405.171	5.54
405.378	5.42
405.584	5.44
405.791	5.44
405.997	5.3
406.204	5.19
406.41	5.15
406.617	5.22
406.823	5.25
407.029	5.32
407.236	5.37
407.442	5.33
407.649	5.5
407.855	5.52
408.061	5.51
408.268	5.51
408.474	5.55
408.68	5.63
408.887	5.58
409.093	5.59
409.299	5.51
409.505	5.49
409.712	5.55
409.918	5.41
410.124	5.39
410.33	5.37
410.537	5.42
410.743	5.43
410.949	5.43
411.155	5.44
411.361	5.45
411.567	5.45
411.773	5.33
411.98	5.32
412.186	5.29
412.392	5.2
412.598	5.3
412.804	5.28
413.01	5.24
413.216	5.14
413.422	5.15
413.628	5.15
413.834	5.14
414.04	5.25
414.246	5.28
414.452	5.27
414.658	5.28
414.864	5.25
415.07	5.25
415.275	5.28
415.481	5.26
415.687	5.24
415.893	5.2
416.099	5.24
416.305	5.25
416.511	5.27
416.716	5.29
416.922	5.32
417.128	5.31
417.334	5.29
417.539	5.27
417.745	5.33
417.951	5.31
418.157	5.35
418.362	5.32
418.568	5.27
418.774	5.26
418.979	5.26
419.185	5.2
419.391	5.2
419.596	5.2
419.802	5.19
420.008	5.13
420.213	5.5
420.419	5.47
420.624	5.45
420.83	5.44
421.035	5.43
421.241	5.44
421.446	5.5
421.652	5.47
421.857	5.46
422.063	5.44
422.268	5.43
422.474	5.09
422.679	5.09
422.885	5.02
423.09	5.03
423.295	5.01
423.501	5.01
423.706	4.97
423.911	4.97
424.117	4.96
424.322	4.98
424.527	5.02
424.733	5
424.938	5.01
425.143	5.13
425.349	5.12
425.554	5.16
425.759	5.16
425.964	5.13
426.169	5.15
426.375	5.15
426.58	5.11
426.785	5.1
426.99	5.15
427.195	5.08
427.4	5.09
427.605	5.08
427.811	5.07
428.016	5.08
428.221	5.16
428.426	5.12
428.631	5.1
428.836	5.14
429.041	5.1
429.246	5.09
429.451	5.11
429.656	5.07
429.861	5.06
430.066	5.09
430.271	5.06
430.476	5.01
430.681	5.02
430.886	5.06
431.09	5.07
431.295	5.05
431.5	5.02
431.705	5.02
431.91	5.01
432.115	5.05
432.32	4.99
432.524	5
432.729	4.97
432.934	4.99
433.139	5.02
433.343	5.04
433.548	5.08
433.753	5.15
433.958	5.17
434.162	5.18
434.367	5.14
434.572	5.12
434.776	5.15
434.981	5.18
435.186	5.14
435.39	5.16
435.595	5.14
435.799	5.13
436.004	5.05
436.209	5.03
436.413	5.01
436.618	5.03
436.822	5.06
437.027	4.99
437.231	4.98
437.436	4.99
437.64	4.94
437.845	4.95
438.049	4.91
438.253	4.86
438.458	4.86
438.662	4.89
438.867	4.86
439.071	4.87
439.275	4.89
439.48	4.9
439.684	4.88
439.888	4.87
440.093	4.83
440.297	4.84
440.501	4.85
440.706	4.88
440.91	4.89
441.114	4.89
441.318	4.88
441.523	4.91
441.727	4.94
441.931	5.01
442.135	5
442.339	4.99
442.543	5
442.748	4.98
442.952	4.94
443.156	4.88
443.36	4.92
443.564	4.9
443.768	4.88
443.972	4.87
444.176	4.82
444.38	4.82
444.584	4.84
444.788	4.87
444.992	4.91
445.196	4.93
445.4	4.97
445.604	4.91
445.808	4.89
446.012	4.89
446.216	4.87
446.42	4.84
446.624	4.87
446.828	4.86
447.032	4.85
447.235	4.84
447.439	4.83
447.643	4.84
447.847	4.87
448.051	4.88
448.254	4.89
448.458	4.88
448.662	4.92
448.866	4.86
449.069	4.9
449.273	4.93
449.477	4.96
449.681	4.95
449.884	4.95
450.088	4.91
450.292	4.92
450.495	4.95
450.699	4.99
450.902	5.01
451.106	5.03
451.31	4.99
451.513	4.93
451.717	4.88
451.92	4.87
452.124	4.79
452.327	4.83
452.531	4.84
452.734	4.82
452.938	4.79
453.141	4.78
453.345	4.79
453.548	4.83
453.752	4.83
453.955	4.86
454.158	4.86
454.362	4.9
454.565	4.9
454.769	4.85
454.972	4.83
455.175	4.78
455.379	4.73
455.582	4.71
455.785	4.7
455.988	4.74
456.192	4.69
456.395	4.65
456.598	4.65
456.801	4.64
457.005	4.68
457.208	4.69
457.411	4.74
457.614	4.74
457.817	4.74
458.021	4.72
458.224	4.72
458.427	4.76
458.63	4.79
458.833	4.8
459.036	4.81
459.239	4.78
459.442	4.75
459.645	4.77
459.848	4.79
460.051	4.8
460.254	4.79
460.457	4.77
460.66	4.75
460.863	4.72
461.066	4.72
461.269	4.74
461.472	4.74
461.675	4.78
461.878	4.81
462.081	4.79
462.284	4.8
462.486	4.84
462.689	4.84
462.892	4.86
463.095	4.91
463.298	4.87
463.5	4.9
463.703	4.98
463.906	4.97
464.109	4.93
464.311	4.97
464.514	4.93
464.717	4.92
464.92	4.93
465.122	4.98
465.325	4.97
465.528	4.97
465.73	4.91
465.933	4.85
466.135	4.87
466.338	4.88
466.541	4.85
466.743	4.89
466.946	4.92
467.148	4.92
467.351	4.86
467.553	4.85
467.756	4.94
467.958	4.99
468.161	5.04
468.363	4.98
468.566	4.94
468.768	4.91
468.971	4.91
469.173	4.85
469.375	4.84
469.578	4.91
469.78	4.88
469.983	4.83
470.185	4.75
470.387	4.75
470.59	4.73
470.792	4.75
470.994	4.79
471.196	4.75
471.399	4.77
471.601	4.79
471.803	4.77
472.005	4.78
472.208	4.82
472.41	4.87
472.612	4.86
472.814	4.89
473.016	4.89
473.218	4.91
