Data from 2937860_Reflection_2.txt Node
Date: Wed Jul 15 15:27:37 EDT 2015
User: robert
Spectrometer: USB4E03001
Autoset integration time: false
Trigger mode: 4
Integration Time (sec): 1.000000E-1
Scans to average: 10
Electric dark correction enabled: true
Nonlinearity correction enabled: false
Boxcar width: 5
Stray light correction enabled: false
XAxis mode: Wavelengths
Stop averaging: false
Number of Pixels in Spectrum: 3648
>>>>>Begin Spectral Data<<<<<
177.566	4.14
177.785	31.92
178.005	81.12
178.225	63.56
178.445	54.94
178.665	-66.76
178.885	-5362.22
179.105	429.44
179.324	188.14
179.544	46.52
179.764	54.11
179.984	48.48
180.204	56.83
180.423	86.33
180.643	44.53
180.863	58.34
181.083	49.11
181.302	83.33
181.522	23.9
181.742	23.79
181.961	-22.47
182.181	-21.15
182.401	-112.07
182.621	-33.27
182.84	-39.01
183.06	1.72
183.279	49.65
183.499	52.45
183.719	77.72
183.938	165.15
184.158	143.83
184.377	128.88
184.597	57.57
184.816	51.36
185.036	24.03
185.256	36.81
185.475	-32.37
185.695	-175.56
185.914	-731.62
186.134	-467.31
186.353	-357.21
186.572	-276.86
186.792	-166.6
187.011	-83.46
187.231	-27.8
187.45	9.99
187.67	2.35
187.889	22.89
188.108	10.38
188.328	65.52
188.547	75.09
188.766	66.45
188.986	79.93
189.205	55.91
189.424	49.2
189.644	1.27
189.863	-135.89
190.082	-780.46
190.302	2742.79
190.521	-192.79
190.74	-194.33
190.959	-308.92
191.178	-184.7
191.398	-292.85
191.617	-281.19
191.836	-208.92
192.055	-141
192.274	-96.83
192.494	-34.71
192.713	-2.03
192.932	20.99
193.151	8.12
193.37	31.38
193.589	-1886.36
193.808	22.38
194.027	-123.66
194.246	66.4
194.465	75.23
194.685	-6.02
194.904	23
195.123	29.45
195.342	-8.33
195.561	-48.54
195.78	-35.41
195.999	-17.53
196.218	-26.17
196.436	-25.09
196.655	-45.57
196.874	-64.56
197.093	-30.99
197.312	-42.96
197.531	-93.23
197.75	-85.37
197.969	-22.56
198.188	-26.91
198.407	18.97
198.625	-3.89
198.844	-47.42
199.063	-95.57
199.282	-66.32
199.501	-67.86
199.719	-249.52
199.938	-100.05
200.157	-52.27
200.376	-25.07
200.594	-33.62
200.813	-104.36
201.032	-33.55
201.251	-45.35
201.469	-50.34
201.688	-66.4
201.907	-109.68
202.125	-61.01
202.344	-89.54
202.563	-179.32
202.781	-970.17
203	-533.69
203.218	-516.89
203.437	38455
203.656	3558.09
203.874	-689.54
204.093	-549.63
204.311	-172.18
204.53	-437.3
204.748	-108.78
204.967	-94.82
205.185	-59.51
205.404	-88.07
205.622	-57.65
205.841	-46.09
206.059	1.17
206.278	-0.41
206.496	2.97
206.715	36.54
206.933	75.15
207.151	64.27
207.37	51.66
207.588	60.77
207.806	59.38
208.025	49.13
208.243	16.11
208.461	25.53
208.68	52.91
208.898	50.21
209.116	50.41
209.335	27.15
209.553	56.25
209.771	72.53
209.989	87.3
210.208	77.68
210.426	82.79
210.644	133.55
210.862	112.53
211.081	115.39
211.299	73.41
211.517	49.58
211.735	69.93
211.953	50.53
212.171	43.38
212.39	35.33
212.608	24.73
212.826	18.66
213.044	13.24
213.262	8.16
213.48	3.31
213.698	9.32
213.916	6.4
214.134	-35.56
214.352	-21.09
214.57	-6.74
214.788	13.17
215.006	45.84
215.224	53.97
215.442	54.31
215.66	46.09
215.878	43.34
216.096	29.11
216.314	49.01
216.532	54.31
216.75	39.35
216.968	14.96
217.185	6.98
217.403	-33.36
217.621	-33.15
217.839	-101.66
218.057	-84.68
218.275	-41.37
218.492	-22.93
218.71	-121.01
218.928	-249.22
219.146	-164.46
219.363	-99.12
219.581	-46.56
219.799	-11.81
220.017	-32.53
220.234	-17.53
220.452	-25.38
220.67	-42.89
220.887	-48.47
221.105	-33.16
221.323	-41.22
221.54	-43.62
221.758	-60.87
221.976	-89.9
222.193	-64.09
222.411	-25.84
222.629	-20.18
222.846	-15.44
223.064	-7.07
223.281	-8.8
223.499	2.3
223.716	18.4
223.934	23.39
224.151	30.25
224.369	35.24
224.586	26.18
224.804	27.9
225.021	32.83
225.239	25.02
225.456	18.7
225.674	25.06
225.891	21.69
226.108	13.63
226.326	4.98
226.543	7.57
226.76	4.41
226.978	0.24
227.195	3.78
227.413	6.3
227.63	12.85
227.847	14.29
228.064	14.46
228.282	10.61
228.499	10.96
228.716	11.58
228.934	9.99
229.151	14.11
229.368	16.1
229.585	14.71
229.802	13.34
230.02	12.23
230.237	10.79
230.454	8.53
230.671	8.88
230.888	11.25
231.105	12.77
231.323	10.3
231.54	3.53
231.757	-0.18
231.974	-5.37
232.191	-4.48
232.408	-9.82
232.625	-5.87
232.842	-3.68
233.059	-2.48
233.276	-4.78
233.493	-3.37
233.71	0.01
233.927	2.57
234.144	1.35
234.361	4.74
234.578	7.6
234.795	10.12
235.012	8.96
235.229	8.61
235.446	10.19
235.663	11.21
235.879	14.13
236.096	16.97
236.313	15.23
236.53	18.4
236.747	18.38
236.964	14.92
237.181	16.19
237.397	20.46
237.614	25.86
237.831	25.68
238.048	22.44
238.264	17.82
238.481	16.71
238.698	23.34
238.915	20.96
239.131	18.06
239.348	21.7
239.565	22.24
239.781	21.26
239.998	19.08
240.215	15.47
240.431	18.3
240.648	19.9
240.865	20.54
241.081	15.33
241.298	16.91
241.514	17.26
241.731	17.78
241.947	16.73
242.164	16.17
242.38	14.49
242.597	15.96
242.814	13.78
243.03	13.13
243.246	12.56
243.463	14.26
243.679	13.54
243.896	13.71
244.112	12.24
244.329	11.25
244.545	9.79
244.762	9.08
244.978	8.06
245.194	9.26
245.411	10.3
245.627	7.91
245.843	9
246.06	10.71
246.276	12.2
246.492	11.97
246.709	13.25
246.925	13.25
247.141	13.7
247.357	13.39
247.574	14.12
247.79	13.96
248.006	14.98
248.222	14.38
248.439	12.81
248.655	12.24
248.871	12.75
249.087	11.98
249.303	11.27
249.519	10.77
249.736	10.41
249.952	9.63
250.168	9.48
250.384	10.85
250.6	9
250.816	12.51
251.032	12.85
251.248	12.43
251.464	13.21
251.68	14.01
251.896	13.66
252.112	12.86
252.328	12.49
252.544	11.64
252.76	10.69
252.976	12.03
253.192	11.86
253.408	10.64
253.624	8.22
253.84	8.28
254.056	8.2
254.272	7.37
254.487	9.76
254.703	7.37
254.919	6.87
255.135	6.92
255.351	7.03
255.567	5.53
255.782	4.91
255.998	7.37
256.214	5.48
256.43	7.01
256.646	10.23
256.861	8.37
257.077	10.56
257.293	11.65
257.508	9.88
257.724	8.84
257.94	8.91
258.155	10.23
258.371	10.6
258.587	12.09
258.802	11.71
259.018	9.61
259.234	10.17
259.449	10.54
259.665	9.7
259.88	9.83
260.096	10.64
260.312	10.62
260.527	10.36
260.743	10.06
260.958	9.14
261.174	8.67
261.389	9.75
261.605	9.26
261.82	8.08
262.036	8.43
262.251	8.14
262.466	6.26
262.682	6.73
262.897	5.79
263.113	5.96
263.328	5.49
263.543	7.35
263.759	5.36
263.974	4.57
264.189	4.1
264.405	3.62
264.62	4.53
264.835	4.75
265.051	2.67
265.266	4.38
265.481	5.11
265.696	7.34
265.912	5.09
266.127	6.92
266.342	8.09
266.557	10.04
266.773	10.1
266.988	10.12
267.203	10.59
267.418	11.4
267.633	10.82
267.848	9.41
268.064	7.81
268.279	7.5
268.494	6.68
268.709	5.75
268.924	5.46
269.139	6.62
269.354	7.4
269.569	7.58
269.784	7.84
269.999	7.84
270.214	9.41
270.429	10.88
270.644	11.84
270.859	11.47
271.074	12
271.289	11.43
271.504	10.35
271.719	9
271.934	8.23
272.149	7.56
272.363	7.01
272.578	6.18
272.793	4.65
273.008	4.86
273.223	4.91
273.438	4.59
273.653	5.07
273.867	5.82
274.082	6.39
274.297	6.16
274.512	5.41
274.726	5.34
274.941	3.98
275.156	6.06
275.371	7.58
275.585	7.8
275.8	8.69
276.015	8.88
276.229	8.2
276.444	7.86
276.659	9.66
276.873	11.51
277.088	11.9
277.302	11.94
277.517	10.67
277.732	8.83
277.946	9.08
278.161	8.79
278.375	9.33
278.59	9.77
278.804	9.2
279.019	9.77
279.233	10.66
279.448	10.7
279.662	12.34
279.877	11.5
280.091	11.96
280.306	12.08
280.52	9.99
280.735	9.13
280.949	8.05
281.163	8.35
281.378	8.15
281.592	6.52
281.806	6.11
282.021	6.74
282.235	6.51
282.449	6.62
282.664	5.75
282.878	7.64
283.092	8.05
283.307	8.75
283.521	8.23
283.735	7.97
283.949	7.52
284.164	7.99
284.378	7.14
284.592	7.87
284.806	6.55
285.02	8.18
285.234	7.26
285.449	7.03
285.663	6.56
285.877	8.17
286.091	7.91
286.305	8.34
286.519	8.28
286.733	9.11
286.947	9.33
287.161	9.79
287.375	9.51
287.589	9.83
287.803	9.79
288.017	10.63
288.231	9.26
288.445	9.08
288.659	8.87
288.873	9.25
289.087	7.96
289.301	8.98
289.515	8.93
289.729	8.29
289.943	7.28
290.157	7.99
290.371	7.72
290.584	8.29
290.798	8.46
291.012	7.88
291.226	7.35
291.44	8.33
291.654	7.21
291.867	7.12
292.081	7
292.295	7.38
292.509	6.59
292.722	6.06
292.936	6.95
293.15	6.24
293.364	8.31
293.577	8.32
293.791	7.68
294.005	9.27
294.218	9.28
294.432	10.15
294.645	11.68
294.859	11.03
295.073	11.87
295.286	11.39
295.5	11.51
295.713	11.17
295.927	10.99
296.14	11.33
296.354	9.82
296.568	10.57
296.781	10.83
296.994	11.15
297.208	11.82
297.421	11.32
297.635	10.77
297.848	12.37
298.062	11.26
298.275	11.89
298.489	11.53
298.702	12.7
298.915	12.72
299.129	12.54
299.342	13.13
299.555	13.18
299.769	13.83
299.982	14.87
300.195	14.47
300.409	15.92
300.622	15.88
300.835	17.05
301.048	16.75
301.262	16.36
301.475	16.52
301.688	15.86
301.901	16.09
302.115	16.86
302.328	15.99
302.541	14.76
302.754	14.01
302.967	14.47
303.18	13.23
303.393	11.54
303.607	10.84
303.82	9.76
304.033	10.62
304.246	8.52
304.459	6.56
304.672	7.53
304.885	7.76
305.098	6.99
305.311	7.14
305.524	7.87
305.737	9.04
305.95	8.7
306.163	9.55
306.376	9.59
306.589	10.29
306.802	10.55
307.015	11.31
307.228	11.37
307.44	12.08
307.653	9.75
307.866	9.45
308.079	8.72
308.292	8.77
308.505	8.71
308.718	6.77
308.93	8.49
309.143	8.71
309.356	8.09
309.569	8.68
309.781	8.25
309.994	10.72
310.207	11.79
310.42	13.05
310.632	14.05
310.845	14.45
311.058	14.82
311.27	14.79
311.483	15.17
311.696	15.04
311.908	14.19
312.121	15.02
312.333	13.16
312.546	11.22
312.759	10.45
312.971	8.99
313.184	7.84
313.396	8.61
313.609	8.27
313.821	7.9
314.034	8.08
314.246	8.95
314.459	9.56
314.671	10.79
314.884	12.43
315.096	12.64
315.309	14.15
315.521	14.34
315.733	13.56
315.946	13.65
316.158	15.41
316.371	15.34
316.583	14.16
316.795	12.9
317.008	12.81
317.22	12.34
317.432	11.76
317.644	10.43
317.857	11.78
318.069	11.46
318.281	10.6
318.494	9.07
318.706	9.82
318.918	10.66
319.13	10.95
319.342	10.54
319.555	11.7
319.767	11.5
319.979	13.08
320.191	11.51
320.403	10.78
320.615	11.18
320.827	10.41
321.039	10.48
321.252	10.02
321.464	10.29
321.676	11.9
321.888	11.2
322.1	12.35
322.312	10.4
322.524	11.64
322.736	13.19
322.948	13.5
323.16	12.77
323.372	12.2
323.584	12.41
323.796	11.91
324.007	10.05
324.219	8.98
324.431	8.93
324.643	9.96
324.855	9.41
325.067	9.19
325.279	9.27
325.491	9.61
325.702	9.69
325.914	10.62
326.126	12.42
326.338	13.47
326.55	13.29
326.761	12.7
326.973	12.6
327.185	13.76
327.396	12.89
327.608	11.71
327.82	11.96
328.032	11.29
328.243	10.71
328.455	6.77
328.666	6.07
328.878	6.03
329.09	6.51
329.301	7.17
329.513	6.32
329.725	7.98
329.936	9.36
330.148	10.42
330.359	10.46
330.571	10.34
330.782	12.87
330.994	13.27
331.205	14.77
331.417	14.41
331.628	13.44
331.84	11.87
332.051	10.92
332.262	10.89
332.474	11.21
332.685	9.81
332.897	9.49
333.108	11.47
333.319	10.01
333.531	10.29
333.742	11.62
333.953	11.67
334.165	12.92
334.376	12.3
334.587	11.78
334.799	10.82
335.01	12.56
335.221	11.7
335.432	10.79
335.644	10.71
335.855	8.97
336.066	7.67
336.277	8.12
336.488	7.29
336.7	8.11
336.911	8.91
337.122	9.65
337.333	8.98
337.544	9.67
337.755	8.71
337.966	9.57
338.177	9.9
338.388	10.28
338.599	10.82
338.811	11.46
339.022	10.51
339.233	10.09
339.444	9.28
339.655	9.26
339.866	9.65
340.076	9.92
340.287	10.31
340.498	10.46
340.709	10.35
340.92	9.63
341.131	10.81
341.342	11.71
341.553	9.86
341.764	10.51
341.975	10.77
342.185	10.93
342.396	10.61
342.607	9.96
342.818	10.78
343.029	11.14
343.239	10.87
343.45	9.15
343.661	8.88
343.872	10.49
344.082	9.39
344.293	8.61
344.504	7.91
344.714	8.45
344.925	9.64
345.136	9.49
345.346	9.21
345.557	9.42
345.768	10.16
345.978	10.23
346.189	10.46
346.399	11.6
346.61	12.02
346.821	12.78
347.031	12.85
347.242	12.08
347.452	11.34
347.663	10.72
347.873	11.89
348.084	11.12
348.294	11.25
348.504	11.71
348.715	11.24
348.925	11.03
349.136	11.14
349.346	10.95
349.557	10.38
349.767	10.38
349.977	12.09
350.188	12.06
350.398	12.06
350.608	12.54
350.819	11.2
351.029	11.93
351.239	13.09
351.449	12.72
351.66	13.67
351.87	14.45
352.08	15.69
352.29	14.11
352.501	13.35
352.711	13.4
352.921	12.61
353.131	12.86
353.341	12.2
353.552	11.73
353.762	11.43
353.972	10.71
354.182	10.05
354.392	8.67
354.602	9.3
354.812	9.15
355.022	9.81
355.232	10.04
355.442	9.98
355.652	9.98
355.862	9.56
356.072	8.98
356.282	9.04
356.492	8.78
356.702	9.34
356.912	8.88
357.122	9.01
357.332	8.24
357.542	8.59
357.752	9.52
357.962	9.24
358.171	9.61
358.381	10.79
358.591	10.76
358.801	11.69
359.011	12.06
359.221	11.65
359.43	11.09
359.64	11.08
359.85	10.53
360.06	9.68
360.269	10.52
360.479	10.02
360.689	9.97
360.899	9.87
361.108	9.23
361.318	9.46
361.528	10.03
361.737	10.33
361.947	10.64
362.156	11.14
362.366	10.84
362.576	10.17
362.785	10.34
362.995	9.63
363.204	9.92
363.414	10.55
363.623	10.42
363.833	10.04
364.042	9.77
364.252	9.41
364.461	8.49
364.671	8.51
364.88	8.51
365.09	8.07
365.299	8.16
365.509	8.15
365.718	8.24
365.927	7.42
366.137	7.58
366.346	7.01
366.555	7.44
366.765	7.42
366.974	7.64
367.183	8.07
367.393	8.47
367.602	8.26
367.811	8.1
368.021	7.94
368.23	8.2
368.439	8.1
368.648	8.13
368.857	7.76
369.067	8.24
369.276	8.04
369.485	6.29
369.694	6.03
369.903	6.09
370.112	5.48
370.321	4.91
370.531	5.41
370.74	5.54
370.949	5.68
371.158	5.85
371.367	5.13
371.576	5.7
371.785	7.06
371.994	6.89
372.203	7.44
372.412	7.62
372.621	7.75
372.83	7.4
373.039	7.83
373.248	8.2
373.457	8.16
373.666	8.04
373.874	7.74
374.083	7.43
374.292	8.01
374.501	7.75
374.71	7.25
374.919	7.48
375.128	7.34
375.336	6.72
375.545	6.29
375.754	5.85
375.963	6.08
376.171	6.01
376.38	6.04
376.589	5.88
376.798	5.43
377.006	5.73
377.215	5.33
377.424	5.22
377.632	4.85
377.841	5.5
378.05	5.79
378.258	5.96
378.467	5.79
378.675	5.88
378.884	6.53
379.093	7.12
379.301	7.21
379.51	7.35
379.718	7.43
379.927	8.09
380.135	7.83
380.344	7.79
380.552	7.53
380.761	7.37
380.969	6.89
381.177	5.84
381.386	5.43
381.594	4.9
381.803	4.93
382.011	5.19
382.219	4.92
382.428	4.69
382.636	4.41
382.845	4.45
383.053	4.6
383.261	5.24
383.469	5.53
383.678	5.99
383.886	6.3
384.094	6.27
384.302	5.8
384.511	5.64
384.719	6.02
384.927	6.1
385.135	6.76
385.343	7.01
385.552	6.75
385.76	6.42
385.968	5.78
386.176	5.69
386.384	5.67
386.592	6.29
386.8	6.73
387.008	6.4
387.216	6.75
387.424	6.53
387.633	6.12
387.841	6.37
388.049	6.59
388.257	6.5
388.465	6.16
388.672	5.89
388.88	5.25
389.088	4.59
389.296	4.76
389.504	4.33
389.712	4.05
389.92	4.01
390.128	3.7
390.336	3.66
390.544	4.37
390.751	4.56
390.959	4.93
391.167	5.58
391.375	5.71
391.583	5.4
391.79	5.74
391.998	5.66
392.206	5.79
392.414	5.68
392.621	5.52
392.829	5.2
393.037	5.53
393.244	5.29
393.452	4.68
393.66	5.11
393.867	5.08
394.075	4.79
394.283	4.95
394.49	4.85
394.698	4.87
394.905	5.15
395.113	5.15
395.32	4.94
395.528	5.14
395.735	5.46
395.943	5.33
396.15	5.66
396.358	5.82
396.565	5.79
396.773	5.91
396.98	6.25
397.188	6.39
397.395	6.19
397.602	6.25
397.81	5.82
398.017	6.02
398.225	5.77
398.432	5.57
398.639	5.44
398.847	5.23
399.054	5.26
399.261	4.93
399.468	4.54
399.676	4.64
399.883	4.91
400.09	4.81
400.297	4.27
400.505	4.07
400.712	4
400.919	4.02
401.126	4.18
401.333	4.09
401.54	4.24
401.748	4.54
401.955	4.56
402.162	4.29
402.369	4.21
402.576	4.44
402.783	4.68
402.99	4.62
403.197	4.7
403.404	4.48
403.611	4.69
403.818	4.58
404.025	4.18
404.232	4.37
404.439	4.09
404.646	4.51
404.853	4.49
405.06	4.54
405.267	4.87
405.474	4.89
405.681	5.13
405.887	5.02
406.094	5.02
406.301	5.18
406.508	4.93
406.715	5.17
406.922	5.05
407.128	4.81
407.335	4.68
407.542	4.32
407.749	4.04
407.955	3.92
408.162	3.91
408.369	4.22
408.575	4.42
408.782	4.42
408.989	4.11
409.195	4.09
409.402	4.43
409.609	4.54
409.815	4.57
410.022	4.49
410.228	4.66
410.435	4.67
410.642	4.57
410.848	4.47
411.055	4.48
411.261	4.82
411.468	4.91
411.674	4.91
411.881	4.73
412.087	4.95
412.294	5.05
412.5	4.85
412.706	5.06
412.913	5
413.119	4.86
413.326	5.11
413.532	5.22
413.738	5.37
413.945	5.16
414.151	5.4
414.357	5.49
414.564	5.69
414.77	5.74
414.976	5.59
415.182	5.47
415.389	5.44
415.595	5.34
415.801	5.1
416.007	4.94
416.214	4.96
416.42	4.7
416.626	4.41
416.832	4.3
417.038	4.41
417.244	4.21
417.45	4.36
417.657	4.42
417.863	4.27
418.069	4.36
418.275	4.42
418.481	4.52
418.687	4.61
418.893	4.74
419.099	4.79
419.305	4.69
419.511	4.82
419.717	4.77
419.923	4.63
420.129	4.61
420.335	4.45
420.541	4.32
420.746	4.33
420.952	4.29
421.158	4.13
421.364	4.14
421.57	4.1
421.776	4.14
421.982	3.93
422.187	3.96
422.393	3.94
422.599	4.07
422.805	3.96
423.01	3.97
423.216	4.02
423.422	4.11
423.628	4.08
423.833	3.98
424.039	3.93
424.245	4.07
424.45	4.14
424.656	4.09
424.862	4.05
425.067	4.34
425.273	4.2
425.478	4.24
425.684	4.29
425.889	4.26
426.095	4.42
426.301	4.38
426.506	4.33
426.712	4.35
426.917	4.63
427.123	4.66
427.328	4.58
427.533	4.7
427.739	4.56
427.944	4.69
428.15	4.79
428.355	4.88
428.561	4.87
428.766	4.84
428.971	4.96
429.177	4.88
429.382	4.83
429.587	4.54
429.793	4.51
429.998	4.45
430.203	4.18
430.408	4.02
430.614	3.86
430.819	3.84
431.024	3.88
431.229	3.48
431.434	3.35
431.64	3.21
431.845	3.44
432.05	3.41
432.255	3.6
432.46	3.56
432.665	3.35
432.87	3.38
433.076	3.45
433.281	3.38
433.486	3.66
433.691	3.87
433.896	4.03
434.101	3.99
434.306	4.05
434.511	4
434.716	3.99
434.921	4.25
435.126	4.13
435.331	4.13
435.535	4.2
435.74	4.05
435.945	3.9
436.15	3.93
436.355	3.73
436.56	3.61
436.765	3.48
436.97	3.58
437.174	3.59
437.379	3.67
437.584	3.55
437.789	3.54
437.993	3.68
438.198	3.5
438.403	3.32
438.608	3.3
438.812	3.38
439.017	3.31
439.222	3.31
439.426	3.28
439.631	3.46
439.836	3.58
440.04	3.61
440.245	3.44
440.45	3.57
440.654	3.62
440.859	3.79
441.063	3.76
441.268	3.77
441.472	3.71
441.677	3.57
441.881	3.37
442.086	3.2
442.29	3.03
442.495	3.2
442.699	3.1
442.904	3.06
443.108	3.04
443.312	3.15
443.517	3.28
443.721	3.38
443.925	3.57
444.13	3.51
444.334	3.72
444.538	3.83
444.743	3.72
444.947	3.76
445.151	3.81
445.356	3.65
445.56	3.48
445.764	3.5
445.968	3.54
446.173	3.41
446.377	3.6
446.581	3.46
446.785	3.6
446.989	3.66
447.193	3.65
447.398	3.62
447.602	3.7
447.806	3.75
448.01	3.67
448.214	3.63
448.418	3.76
448.622	3.66
448.826	3.78
449.03	3.64
449.234	3.57
449.438	3.56
449.642	3.6
449.846	3.66
450.05	3.73
450.254	3.61
450.458	3.64
450.662	3.72
450.866	3.63
451.069	3.42
451.273	3.33
451.477	3.22
451.681	3.18
451.885	3.23
452.089	3.07
452.292	2.9
452.496	3.19
452.7	3.12
452.904	3.05
453.107	3.11
453.311	3.32
453.515	3.38
453.719	3.51
453.922	3.59
454.126	3.59
454.33	3.68
454.533	3.83
454.737	3.6
454.94	3.77
455.144	3.7
455.348	3.62
455.551	3.58
455.755	3.48
455.958	3.5
456.162	3.36
456.365	3.31
456.569	3.39
456.772	3.43
456.976	3.48
457.179	3.33
457.383	3.41
457.586	3.44
457.79	3.39
457.993	3.64
458.196	3.57
458.4	3.7
458.603	3.56
458.807	3.58
459.01	3.49
459.213	3.51
459.417	3.46
459.62	3.48
459.823	3.53
460.026	3.55
460.23	3.45
460.433	3.46
460.636	3.43
460.839	3.51
461.042	3.45
461.246	3.62
461.449	3.55
461.652	3.41
461.855	3.36
462.058	3.35
462.261	3.46
462.464	3.49
462.668	3.37
462.871	3.5
463.074	3.65
463.277	3.41
463.48	3.12
463.683	3.09
463.886	3.11
464.089	3.18
464.292	3.03
464.495	2.82
464.698	2.78
464.901	3.06
465.104	2.89
465.306	2.8
465.509	3.05
465.712	3.24
465.915	3.53
466.118	3.65
