Data from 2937821_Reflection_2.txt Node
Date: Wed Jul 15 17:18:13 EDT 2015
User: robert
Spectrometer: USB4E03001
Autoset integration time: false
Trigger mode: 4
Integration Time (sec): 1.000000E-1
Scans to average: 10
Electric dark correction enabled: true
Nonlinearity correction enabled: false
Boxcar width: 5
Stray light correction enabled: false
XAxis mode: Wavelengths
Stop averaging: false
Number of Pixels in Spectrum: 3648
>>>>>Begin Spectral Data<<<<<
177.566	31.34
177.785	41.86
178.005	17.72
178.225	42.36
178.445	106.76
178.665	-9.26
178.885	284.83
179.105	79.59
179.324	129.61
179.544	71.18
179.764	54.52
179.984	40.23
180.204	64.13
180.423	112.43
180.643	85.22
180.863	105.39
181.083	560.08
181.302	193.95
181.522	281.1
181.742	240.33
181.961	289.39
182.181	825.4
182.401	727.22
182.621	412.78
182.84	215.83
183.06	251.36
183.279	289.07
183.499	298.17
183.719	377.54
183.938	631.84
184.158	375.41
184.377	295.16
184.597	116.24
184.816	21.79
185.036	279.14
185.256	94.33
185.475	78.69
185.695	79.78
185.914	92.36
186.134	85.24
186.353	68.73
186.572	35.91
186.792	-3.97
187.011	-51.38
187.231	-93.47
187.45	-1070.04
187.67	2471.03
187.889	268.71
188.108	243.11
188.328	190.3
188.547	102.83
188.766	110.36
188.986	132.94
189.205	105.43
189.424	82.14
189.644	94.32
189.863	140.35
190.082	188.37
190.302	-3116.44
190.521	140.4
190.74	187.36
190.959	384.39
191.178	-57.19
191.398	-202.25
191.617	-393.54
191.836	-90.84
192.055	13.64
192.274	-135.11
192.494	84.09
192.713	94.8
192.932	-20.96
193.151	0.48
193.37	-251.91
193.589	-2739.29
193.808	2514.75
194.027	219.46
194.246	208.99
194.465	2155.26
194.685	656.22
194.904	2629.43
195.123	-1474.69
195.342	-1133.41
195.561	860.2
195.78	-139.08
195.999	-318.37
196.218	-1781.48
196.436	10488.64
196.655	5145.83
196.874	148.82
197.093	453.69
197.312	363.09
197.531	112.68
197.75	59.33
197.969	94.03
198.188	160.09
198.407	129.04
198.625	79.94
198.844	93.49
199.063	96.16
199.282	267.77
199.501	269.1
199.719	149.77
199.938	436.7
200.157	224.66
200.376	490.74
200.594	88.59
200.813	99.74
201.032	184.07
201.251	1636.21
201.469	-89.87
201.688	88.82
201.907	110.43
202.125	-1.22
202.344	-1.16
202.563	-49.68
202.781	-52.91
203	-24.12
203.218	-122.9
203.437	-27.08
203.656	9.06
203.874	3.33
204.093	3.05
204.311	-19.47
204.53	-184.37
204.748	-104.6
204.967	-162.86
205.185	197.1
205.404	-270.24
205.622	15.23
205.841	7.39
206.059	-564.65
206.278	90.29
206.496	60.19
206.715	-245.22
206.933	516.44
207.151	-48.59
207.37	573.12
207.588	209.42
207.806	575.88
208.025	495.95
208.243	-67.18
208.461	-11.63
208.68	-401.23
208.898	232.1
209.116	2414.29
209.335	564.59
209.553	168.16
209.771	287.97
209.989	-45.75
210.208	209.98
210.426	10.54
210.644	409.59
210.862	608.35
211.081	85.58
211.299	61.35
211.517	68.91
211.735	21.99
211.953	-406.25
212.171	219.25
212.39	79.21
212.608	267.94
212.826	365.81
213.044	-170.79
213.262	-129.89
213.48	-23.05
213.698	-26.04
213.916	-193.05
214.134	-146.78
214.352	-49.91
214.57	5.56
214.788	-10.3
215.006	-63.55
215.224	-63.5
215.442	-20.65
215.66	29.16
215.878	2.76
216.096	4.86
216.314	1.25
216.532	42.41
216.75	19.31
216.968	-28.06
217.185	-83.34
217.403	-34.82
217.621	38.06
217.839	-209.64
218.057	-315.08
218.275	1529.41
218.492	232.97
218.71	166.32
218.928	594.78
219.146	-1863.1
219.363	-182.15
219.581	-144.03
219.799	-87.89
220.017	-180.42
220.234	-187.88
220.452	-517.99
220.67	-76.31
220.887	-36.85
221.105	-74.8
221.323	-213.73
221.54	2436.42
221.758	143.9
221.976	168.8
222.193	55.01
222.411	32.36
222.629	-35.14
222.846	-508.52
223.064	-147.98
223.281	-165.58
223.499	45.37
223.716	33.99
223.934	44.12
224.151	25.06
224.369	34.94
224.586	30.17
224.804	27.55
225.021	24.07
225.239	36.86
225.456	21.66
225.674	26.51
225.891	21.53
226.108	36.41
226.326	25.93
226.543	52.41
226.76	39.89
226.978	27.05
227.195	12.04
227.413	16.38
227.63	14.94
227.847	18.64
228.064	25.11
228.282	23.37
228.499	23.07
228.716	25.24
228.934	20.86
229.151	18.55
229.368	22.73
229.585	30.18
229.802	34.31
230.02	36.14
230.237	34.66
230.454	27.32
230.671	28.2
230.888	26.33
231.105	28.46
231.323	29.45
231.54	32.03
231.757	28.27
231.974	19.54
232.191	5.72
232.408	6.31
232.625	8.52
232.842	10.64
233.059	9.05
233.276	12.66
233.493	10.34
233.71	9.45
233.927	5.23
234.144	6.85
234.361	8.56
234.578	21.93
234.795	17.05
235.012	12.89
235.229	22.14
235.446	19.93
235.663	13.88
235.879	13.12
236.096	16.99
236.313	24.8
236.53	28.86
236.747	32.78
236.964	24.36
237.181	32.88
237.397	27.22
237.614	23.24
237.831	15.26
238.048	23.8
238.264	24.97
238.481	25.29
238.698	17.91
238.915	16.41
239.131	12.06
239.348	15.5
239.565	6.8
239.781	13.97
239.998	16.8
240.215	24.83
240.431	17.72
240.648	14.48
240.865	11.24
241.081	14.02
241.298	12.84
241.514	16.17
241.731	16.48
241.947	17.62
242.164	16.99
242.38	16.52
242.597	15.96
242.814	15.62
243.03	16.28
243.246	16.14
243.463	16.15
243.679	19.28
243.896	21.08
244.112	22.44
244.329	22.8
244.545	22.78
244.762	22.92
244.978	21.63
245.194	23.46
245.411	21.99
245.627	22.66
245.843	21.34
246.06	18.75
246.276	17.32
246.492	16.54
246.709	16.86
246.925	16.32
247.141	17.3
247.357	17.45
247.574	17.57
247.79	18.46
248.006	17.52
248.222	17.56
248.439	18.06
248.655	17.23
248.871	17.26
249.087	16.46
249.303	17.33
249.519	18.51
249.736	19.12
249.952	18.93
250.168	18.69
250.384	18.19
250.6	16.47
250.816	15.05
251.032	16.81
251.248	15.68
251.464	16.65
251.68	17.89
251.896	15.55
252.112	14.81
252.328	14.13
252.544	13.55
252.76	15.4
252.976	18.47
253.192	16.53
253.408	15.93
253.624	16.88
253.84	17.17
254.056	15.09
254.272	13.49
254.487	14.3
254.703	12.53
254.919	13.28
255.135	15.23
255.351	11.64
255.567	13.88
255.782	13.48
255.998	14.89
256.214	14.69
256.43	15.41
256.646	15.24
256.861	13.97
257.077	17.28
257.293	15.43
257.508	14.98
257.724	15.55
257.94	15.96
258.155	13.72
258.371	13.27
258.587	12.17
258.802	11.62
259.018	11.42
259.234	11.48
259.449	10.22
259.665	10.67
259.88	9.84
260.096	10.43
260.312	10.2
260.527	10.77
260.743	11.2
260.958	10.84
261.174	10.73
261.389	10.63
261.605	11.25
261.82	10.4
262.036	11.17
262.251	12.07
262.466	11.4
262.682	11.53
262.897	10.87
263.113	8.24
263.328	10.23
263.543	11.08
263.759	11.41
263.974	9.31
264.189	12.02
264.405	11.83
264.62	11.33
264.835	11.81
265.051	12.15
265.266	12.09
265.481	13.36
265.696	10.01
265.912	9.5
266.127	9.78
266.342	11.06
266.557	11.29
266.773	10.8
266.988	8.31
267.203	7.37
267.418	8.07
267.633	8.36
267.848	9.15
268.064	9.79
268.279	10.5
268.494	9.9
268.709	11.13
268.924	12
269.139	13.71
269.354	15.49
269.569	15.22
269.784	13.54
269.999	16.39
270.214	16.12
270.429	17.04
270.644	16.79
270.859	16.43
271.074	14.27
271.289	12.69
271.504	10.47
271.719	12.14
271.934	11.97
272.149	11.78
272.363	10.4
272.578	10.11
272.793	9.26
273.008	9.1
273.223	9.73
273.438	10.22
273.653	11.45
273.867	9.28
274.082	7.84
274.297	6.99
274.512	8.18
274.726	8.32
274.941	8.53
275.156	9.59
275.371	10.11
275.585	9.84
275.8	10.53
276.015	9.35
276.229	13.77
276.444	13.66
276.659	14.71
276.873	12.03
277.088	10.73
277.302	11.29
277.517	9.27
277.732	6.75
277.946	5.09
278.161	3.14
278.375	4.1
278.59	3.01
278.804	2.88
279.019	3.07
279.233	3.97
279.448	3.78
279.662	3.16
279.877	6.03
280.091	9.28
280.306	10.99
280.52	12.13
280.735	12.83
280.949	11.84
281.163	11.38
281.378	11.65
281.592	11.82
281.806	11.63
282.021	12.24
282.235	11.41
282.449	10.63
282.664	9.87
282.878	10.34
283.092	9.85
283.307	9.89
283.521	11.12
283.735	11.52
283.949	11.96
284.164	12.28
284.378	10.98
284.592	11.67
284.806	11.52
285.02	13.59
285.234	12.77
285.449	11.34
285.663	11.56
285.877	11.5
286.091	11.35
286.305	11.98
286.519	12.64
286.733	12.74
286.947	11.66
287.161	10.65
287.375	9.7
287.589	9.43
287.803	10.52
288.017	10.7
288.231	11.21
288.445	11.04
288.659	12.01
288.873	11.5
289.087	10.51
289.301	11.21
289.515	12.34
289.729	11.42
289.943	11.57
290.157	12.86
290.371	12.99
290.584	11.87
290.798	13.61
291.012	13.86
291.226	13.39
291.44	14.63
291.654	15.32
291.867	15.46
292.081	16.51
292.295	18.49
292.509	17.71
292.722	18.5
292.936	17.22
293.15	16.79
293.364	15.16
293.577	16.29
293.791	17.54
294.005	17.1
294.218	16.68
294.432	14.84
294.645	13.64
294.859	13.13
295.073	12.89
295.286	14.27
295.5	13.4
295.713	14.34
295.927	14.67
296.14	13.45
296.354	13.75
296.568	14.28
296.781	15.32
296.994	15.48
297.208	16.78
297.421	17.06
297.635	16.83
297.848	17.28
298.062	17.34
298.275	17.08
298.489	16.65
298.702	16.71
298.915	15.94
299.129	15.62
299.342	16.37
299.555	15.32
299.769	14.56
299.982	14.87
300.195	15.23
300.409	15.47
300.622	16.73
300.835	16.58
301.048	17.18
301.262	18.07
301.475	18.42
301.688	17.45
301.901	17.39
302.115	16.61
302.328	15.9
302.541	15.39
302.754	14.23
302.967	11.97
303.18	14.4
303.393	13.63
303.607	13.98
303.82	13.69
304.033	13.82
304.246	13.67
304.459	14.57
304.672	15.11
304.885	13.66
305.098	14.74
305.311	15.71
305.524	14.3
305.737	13.63
305.95	13.81
306.163	15.33
306.376	14.31
306.589	14.42
306.802	14.02
307.015	15.71
307.228	15.44
307.44	14.26
307.653	15.39
307.866	17.67
308.079	18.66
308.292	18.89
308.505	19.04
308.718	20.01
308.93	19.37
309.143	19.28
309.356	18.77
309.569	18.98
309.781	19.41
309.994	19.25
310.207	17.43
310.42	16.88
310.632	15.96
310.845	14.2
311.058	14.02
311.27	13.29
311.483	13.86
311.696	13.01
311.908	13.91
312.121	13.24
312.333	11.64
312.546	11.88
312.759	11.24
312.971	10.31
313.184	11.15
313.396	10.91
313.609	11.39
313.821	10.21
314.034	10.86
314.246	10.73
314.459	10.24
314.671	11.96
314.884	10.1
315.096	10.31
315.309	11.21
315.521	10.96
315.733	10.55
315.946	10.58
316.158	11.86
316.371	11.29
316.583	11.54
316.795	11.51
317.008	10.81
317.22	11.33
317.432	11.82
317.644	11.83
317.857	11.4
318.069	11.31
318.281	12.23
318.494	10.36
318.706	11.4
318.918	12.66
319.13	13.59
319.342	13.07
319.555	13.63
319.767	14.64
319.979	13.56
320.191	13.27
320.403	12.12
320.615	13.32
320.827	14.46
321.039	13.12
321.252	12.2
321.464	12.01
321.676	12.16
321.888	11.65
322.1	10.1
322.312	10.44
322.524	11.84
322.736	13.93
322.948	11.83
323.16	12.81
323.372	13.69
323.584	12.9
323.796	12.19
324.007	13
324.219	13.34
324.431	14.16
324.643	14.12
324.855	13.5
325.067	13.95
325.279	15.02
325.491	15.01
325.702	14.38
325.914	15.54
326.126	16.56
326.338	16.23
326.55	17.35
326.761	17.37
326.973	19.16
327.185	19.63
327.396	19.61
327.608	19.01
327.82	17.5
328.032	17.51
328.243	15.43
328.455	14.23
328.666	14.57
328.878	14.73
329.09	14.16
329.301	13.66
329.513	11.98
329.725	9.32
329.936	10.75
330.148	11.31
330.359	10.81
330.571	12.18
330.782	13.65
330.994	13.16
331.205	12.82
331.417	13.93
331.628	13.54
331.84	13.52
332.051	16.57
332.262	15.63
332.474	16.82
332.685	18.22
332.897	17.29
333.108	17.75
333.319	18.41
333.531	17.35
333.742	16.73
333.953	15.7
334.165	17.41
334.376	16.58
334.587	16.74
334.799	16.51
335.01	15.33
335.221	15.66
335.432	13.73
335.644	13.4
335.855	14.26
336.066	14.5
336.277	15.64
336.488	16.48
336.7	16.34
336.911	16.77
337.122	17.5
337.333	18.11
337.544	18.74
337.755	20.17
337.966	19.18
338.177	19.59
338.388	19.61
338.599	19.2
338.811	17.13
339.022	17.83
339.233	16.69
339.444	15.65
339.655	17.15
339.866	17.22
340.076	17.18
340.287	17.98
340.498	16.64
340.709	15.57
340.92	16.48
341.131	16.74
341.342	17.06
341.553	18.43
341.764	18.48
341.975	16.33
342.185	16
342.396	15.92
342.607	16.06
342.818	17.32
343.029	18.65
343.239	17.81
343.45	18.43
343.661	17.87
343.872	18.26
344.082	17.44
344.293	17.96
344.504	17.7
344.714	16.09
344.925	17.09
345.136	17.53
345.346	16.63
345.557	15.67
345.768	14.55
345.978	14
346.189	13.92
346.399	13.47
346.61	13.66
346.821	13.72
347.031	15
347.242	13.89
347.452	13.04
347.663	14.63
347.873	16.49
348.084	17.58
348.294	18.31
348.504	16.67
348.715	17.41
348.925	16.99
349.136	17
349.346	17.72
349.557	18.08
349.767	16.79
349.977	15.94
350.188	14.68
350.398	14.46
350.608	12.84
350.819	13.68
351.029	13.66
351.239	14.59
351.449	14.46
351.66	12.42
351.87	12.18
352.08	11.56
352.29	10.6
352.501	10.75
352.711	11.56
352.921	11.38
353.131	10.82
353.341	11.48
353.552	10.5
353.762	11.22
353.972	11.61
354.182	11.16
354.392	12.86
354.602	12.54
354.812	13.14
355.022	13.29
355.232	13.32
355.442	13.72
355.652	13.28
355.862	13.71
356.072	12.44
356.282	13.75
356.492	14.4
356.702	14.52
356.912	15.58
357.122	15.3
357.332	15.1
357.542	16.42
357.752	16.82
357.962	17.46
358.171	16.98
358.381	17.4
358.591	17.6
358.801	16.3
359.011	15.7
359.221	15.36
359.43	15.32
359.64	15.56
359.85	14.3
360.06	14.25
360.269	13.44
360.479	13.47
360.689	13.48
360.899	13.02
361.108	13.76
361.318	13.76
361.528	14.64
361.737	14.37
361.947	13.52
362.156	14.51
362.366	13.85
362.576	14.22
362.785	14.32
362.995	14.06
363.204	13.79
363.414	13.39
363.623	13.75
363.833	12.99
364.042	13.38
364.252	14.09
364.461	12.81
364.671	12.57
364.88	12.16
365.09	12.01
365.299	12.22
365.509	11.67
365.718	11.7
365.927	10.94
366.137	10.53
366.346	9.56
366.555	9.26
366.765	9.84
366.974	10.45
367.183	11.34
367.393	10.68
367.602	11.08
367.811	11.52
368.021	11.81
368.23	11.93
368.439	11.37
368.648	12.38
368.857	12.46
369.067	11.88
369.276	12.09
369.485	10.39
369.694	10.48
369.903	10.43
370.112	10.17
370.321	9.99
370.531	9.9
370.74	10.57
370.949	10.82
371.158	10.47
371.367	11.12
371.576	11.24
371.785	11.02
371.994	11.75
372.203	12.1
372.412	12.92
372.621	12.55
372.83	12.84
373.039	12.49
373.248	11.61
373.457	11.88
373.666	12.03
373.874	11.37
374.083	12.09
374.292	12.32
374.501	11.54
374.71	11.01
374.919	11.13
375.128	11.14
375.336	11.6
375.545	11.92
375.754	11.63
375.963	11.35
376.171	11.96
376.38	12.25
376.589	12.35
376.798	12.44
377.006	12.18
377.215	12.54
377.424	12.42
377.632	12.51
377.841	12.27
378.05	12.74
378.258	12.73
378.467	12.57
378.675	12.53
378.884	11.9
379.093	12.2
379.301	12.37
379.51	12.13
379.718	12.54
379.927	12.17
380.135	12.25
380.344	11.78
380.552	11.84
380.761	11.3
380.969	10.8
381.177	10.65
381.386	10.42
381.594	9.83
381.803	9.99
382.011	9.77
382.219	9.6
382.428	9.53
382.636	9.41
382.845	9.11
383.053	8.88
383.261	9.45
383.469	9.81
383.678	9.99
383.886	9.91
384.094	9.19
384.302	8.8
384.511	8.66
384.719	8.64
384.927	8.67
385.135	8.36
385.343	8.29
385.552	7.84
385.76	8
385.968	7.54
386.176	7.92
386.384	8.47
386.592	8.74
386.8	9.37
387.008	9.2
387.216	9.64
387.424	9.26
387.633	9.57
387.841	9.29
388.049	8.54
388.257	8.47
388.465	8.61
388.672	8.76
388.88	8.61
389.088	7.59
389.296	7.68
389.504	7.16
389.712	7.46
389.92	7.41
390.128	7.42
390.336	7.47
390.544	7.27
390.751	6.92
390.959	6.55
391.167	6.54
391.375	6.67
391.583	6.46
391.79	6.59
391.998	6.88
392.206	6.52
392.414	6.37
392.621	6.53
392.829	6.52
393.037	7.2
393.244	7.29
393.452	7.21
393.66	7.18
393.867	6.94
394.075	6.84
394.283	6.59
394.49	6.78
394.698	7.07
394.905	7.15
395.113	7.23
395.32	6.43
395.528	6.47
395.735	6.36
395.943	6.59
396.15	6.78
396.358	6.55
396.565	6.45
396.773	6.36
396.98	6.09
397.188	5.91
397.395	5.74
397.602	6.11
397.81	6.35
398.017	6.36
398.225	6.32
398.432	6.57
398.639	6.68
398.847	7.08
399.054	6.99
399.261	7.04
399.468	6.75
399.676	6.91
399.883	6.71
400.09	6.21
400.297	6.41
400.505	6.18
400.712	6.26
400.919	6.2
401.126	5.81
401.333	5.88
401.54	6
401.748	6.04
401.955	5.97
402.162	5.91
402.369	6.19
402.576	6.02
402.783	6.18
402.99	5.97
403.197	6.17
403.404	6.07
403.611	6.13
403.818	6.28
404.025	6.46
404.232	6.65
404.439	6.56
404.646	6.23
404.853	6.2
405.06	6.44
405.267	6.42
405.474	6.34
405.681	6.49
405.887	6.57
406.094	6.53
406.301	6.52
406.508	6.25
406.715	6.54
406.922	6.71
407.128	6.82
407.335	6.63
407.542	6.49
407.749	6.66
407.955	7.04
408.162	7.03
408.369	6.98
408.575	7.19
408.782	7.47
408.989	7.2
409.195	7.14
409.402	6.88
409.609	6.9
409.815	6.73
410.022	6.63
410.228	6.61
410.435	6.38
410.642	6.34
410.848	6.36
411.055	6.34
411.261	6.43
411.468	6.6
411.674	6.68
411.881	6.36
412.087	6.65
412.294	6.57
412.5	6.01
412.706	5.97
412.913	5.69
413.119	5.42
413.326	5.66
413.532	5.67
413.738	5.52
413.945	5.47
414.151	5.43
414.357	5.6
414.564	5.58
414.77	5.94
414.976	6.16
415.182	6.49
415.389	6.25
415.595	5.88
415.801	5.68
416.007	5.5
416.214	5.4
416.42	5.85
416.626	5.91
416.832	6.01
417.038	5.82
417.244	5.61
417.45	5.52
417.657	5.64
417.863	5.68
418.069	5.75
418.275	5.96
418.481	6.16
418.687	6
418.893	5.83
419.099	5.63
419.305	5.71
419.511	5.76
419.717	5.81
419.923	5.8
420.129	5.82
420.335	5.94
420.541	5.84
420.746	5.81
420.952	5.8
421.158	5.89
421.364	6.08
421.57	5.92
421.776	6.1
421.982	6.1
422.187	6.21
422.393	6.18
422.599	6.18
422.805	6.26
423.01	6.16
423.216	6.16
423.422	6.03
423.628	5.97
423.833	6.15
424.039	5.93
424.245	5.76
424.45	5.67
424.656	5.67
424.862	5.64
425.067	5.64
425.273	5.67
425.478	5.6
425.684	5.72
425.889	5.76
426.095	5.67
426.301	5.82
426.506	5.86
426.712	5.87
426.917	5.96
427.123	5.88
427.328	5.82
427.533	5.92
427.739	5.91
427.944	5.75
428.15	5.67
428.355	5.54
428.561	5.42
428.766	5.3
428.971	5.53
429.177	5.46
429.382	5.53
429.587	5.56
429.793	5.51
429.998	5.66
430.203	5.76
430.408	5.74
430.614	5.88
430.819	5.66
431.024	6.01
431.229	6.02
431.434	5.8
431.64	5.94
431.845	5.97
432.05	5.86
432.255	5.87
432.46	5.67
432.665	5.59
432.87	5.7
433.076	5.95
433.281	5.86
433.486	5.89
433.691	6.16
433.896	6.1
434.101	6.11
434.306	6.12
434.511	5.95
434.716	6.23
434.921	6.26
435.126	6.03
435.331	6.03
435.535	6.04
435.74	5.62
435.945	5.36
436.15	5.09
436.355	5.09
436.56	5.11
436.765	5.2
436.97	5.08
437.174	5.23
437.379	5.33
437.584	5.27
437.789	5.38
437.993	5.67
438.198	5.72
438.403	5.93
438.608	5.77
438.812	5.73
439.017	5.79
439.222	5.9
439.426	5.89
439.631	5.81
439.836	5.91
440.04	5.78
440.245	5.84
440.45	5.98
440.654	5.97
440.859	6.1
441.063	6.26
441.268	6.23
441.472	6.14
441.677	6.15
441.881	6.26
442.086	6.04
442.29	6.26
442.495	6.19
442.699	6.02
442.904	5.77
443.108	5.81
443.312	5.56
443.517	5.64
443.721	5.62
443.925	5.42
444.13	5.46
444.334	5.62
444.538	5.31
444.743	5.22
444.947	5.26
445.151	5.41
445.356	5.44
445.56	5.45
445.764	5.36
445.968	5.36
446.173	5.33
446.377	5.21
446.581	5.22
446.785	5.18
446.989	5.14
447.193	5.21
447.398	5.11
447.602	4.92
447.806	5.08
448.01	5.21
448.214	5.17
448.418	5.29
448.622	5.43
448.826	5.4
449.03	5.57
449.234	5.72
449.438	5.59
449.642	5.76
449.846	6
450.05	5.84
450.254	5.71
450.458	5.69
450.662	5.64
450.866	5.34
451.069	5.27
451.273	5.23
451.477	5
451.681	5.23
451.885	5.16
452.089	5
452.292	5.08
452.496	4.98
452.7	5.06
452.904	4.98
453.107	5.26
453.311	5.42
453.515	5.35
453.719	5.48
453.922	5.34
454.126	5.21
454.33	5.18
454.533	5.32
454.737	5.39
454.94	5.35
455.144	5.53
455.348	5.45
455.551	5.45
455.755	5.54
455.958	5.61
456.162	5.6
456.365	5.64
456.569	5.69
456.772	5.54
456.976	5.55
457.179	5.45
457.383	5.39
457.586	5.55
457.79	5.4
457.993	5.26
458.196	5.15
458.4	5.15
458.603	5.25
458.807	5.18
459.01	5.14
459.213	5.13
459.417	5.11
459.62	4.99
459.823	4.86
460.026	4.94
460.23	5.01
460.433	5.15
460.636	5.2
460.839	5.34
