Data from 2937816_Reflection_2.txt Node
Date: Wed Jul 15 17:32:11 EDT 2015
User: robert
Spectrometer: USB4E03001
Autoset integration time: false
Trigger mode: 4
Integration Time (sec): 1.000000E-1
Scans to average: 10
Electric dark correction enabled: true
Nonlinearity correction enabled: false
Boxcar width: 5
Stray light correction enabled: false
XAxis mode: Wavelengths
Stop averaging: false
Number of Pixels in Spectrum: 3648
>>>>>Begin Spectral Data<<<<<
177.566	31.61
177.785	15.9
178.005	3.6
178.225	-345.03
178.445	288.7
178.665	147.19
178.885	-17.63
179.105	-41.2
179.324	-320.36
179.544	390.58
179.764	-1111.48
179.984	77.66
180.204	123.57
180.423	98.02
180.643	80.18
180.863	60.92
181.083	55.8
181.302	46.83
181.522	68.25
181.742	56.85
181.961	81.98
182.181	91.19
182.401	130.45
182.621	119.99
182.84	98.04
183.06	142.8
183.279	144.94
183.499	125.51
183.719	118.68
183.938	76.76
184.158	79.31
184.377	49.45
184.597	16.47
184.816	21.6
185.036	36.71
185.256	59.08
185.475	64.38
185.695	74.41
185.914	92.99
186.134	81.91
186.353	67.15
186.572	59.02
186.792	80.61
187.011	57.68
187.231	56.32
187.45	33.3
187.67	29.33
187.889	18.16
188.108	38.14
188.328	41.82
188.547	51.57
188.766	47.58
188.986	53.98
189.205	30.87
189.424	73.97
189.644	134.99
189.863	127.96
190.082	173.81
190.302	288.84
190.521	300.46
190.74	266.67
190.959	173.43
191.178	1467.55
191.398	-241.8
191.617	-2696.93
191.836	-254.5
192.055	-289.19
192.274	-168.19
192.494	-85.33
192.713	-201.84
192.932	-247.46
193.151	-55.63
193.37	-110.77
193.589	-6329.63
193.808	70.22
194.027	108.71
194.246	155.38
194.465	191.06
194.685	-63.75
194.904	23.42
195.123	55.86
195.342	102
195.561	-205.87
195.78	-162.96
195.999	-33.74
196.218	68.49
196.436	101.36
196.655	91.61
196.874	108.15
197.093	116.5
197.312	94.22
197.531	86.38
197.75	82.8
197.969	100.25
198.188	99.47
198.407	115.5
198.625	124.6
198.844	98.32
199.063	68.98
199.282	22.11
199.501	-143.78
199.719	-805.26
199.938	509.22
200.157	214.5
200.376	-337.64
200.594	-324.65
200.813	-158.84
201.032	-406.3
201.251	-770.86
201.469	470.33
201.688	677.06
201.907	157.03
202.125	37.84
202.344	-177.92
202.563	18.87
202.781	72.53
203	37.81
203.218	27.76
203.437	-35.24
203.656	309.74
203.874	393.01
204.093	139.31
204.311	178.42
204.53	401.03
204.748	822.19
204.967	138.85
205.185	152.03
205.404	147.16
205.622	158.9
205.841	122.8
206.059	296.38
206.278	152.74
206.496	156.6
206.715	173.24
206.933	157.3
207.151	111.27
207.37	190.43
207.588	140.06
207.806	124.35
208.025	158.89
208.243	185.17
208.461	199.7
208.68	217.14
208.898	542.92
209.116	-9.94
209.335	99.48
209.553	-2811.69
209.771	-29.04
209.989	129.29
210.208	83.99
210.426	93.99
210.644	62.03
210.862	-19.47
211.081	-43.92
211.299	-297.87
211.517	367.27
211.735	3243.97
211.953	1008.52
212.171	5043.41
212.39	214.03
212.608	154.03
212.826	90.63
213.044	57.88
213.262	39.85
213.48	48.09
213.698	34.82
213.916	77.65
214.134	48.94
214.352	6.62
214.57	-37.52
214.788	-43.11
215.006	22.47
215.224	-313.52
215.442	718.36
215.66	-435.89
215.878	-260.35
216.096	-300.3
216.314	-762.5
216.532	278.69
216.75	-1674.72
216.968	442.68
217.185	288.63
217.403	283.05
217.621	134.84
217.839	192.54
218.057	177.9
218.275	163.31
218.492	115.34
218.71	73.6
218.928	73.51
219.146	58.26
219.363	92.76
219.581	93.29
219.799	90.51
220.017	30.56
220.234	14.39
220.452	35.17
220.67	93.31
220.887	93.56
221.105	143.4
221.323	130.54
221.54	117.77
221.758	94.78
221.976	95.24
222.193	89.26
222.411	102.4
222.629	109.92
222.846	114.92
223.064	100.66
223.281	102.1
223.499	113.53
223.716	102.56
223.934	92.8
224.151	106.3
224.369	98.05
224.586	108.34
224.804	100.23
225.021	104.4
225.239	65.22
225.456	53.29
225.674	46.33
225.891	35.97
226.108	35.57
226.326	44.69
226.543	44.16
226.76	40.25
226.978	30.65
227.195	26.19
227.413	18.54
227.63	22.75
227.847	20.36
228.064	15.7
228.282	16
228.499	15.74
228.716	8.55
228.934	8.05
229.151	8.79
229.368	12.73
229.585	13.14
229.802	12.08
230.02	10.41
230.237	10.42
230.454	8.47
230.671	7.14
230.888	4.99
231.105	2
231.323	3.97
231.54	-2.91
231.757	-12.3
231.974	-18.65
232.191	-19.4
232.408	-23.75
232.625	-25.2
232.842	-21.03
233.059	-22.49
233.276	-15.55
233.493	-5.29
233.71	-7.98
233.927	-1.8
234.144	2.2
234.361	2.55
234.578	14.78
234.795	18.7
235.012	18.33
235.229	19.02
235.446	19.47
235.663	22.72
235.879	31.45
236.096	29.47
236.313	27.55
236.53	31.32
236.747	34.74
236.964	31.72
237.181	33.3
237.397	35.91
237.614	36.49
237.831	43.69
238.048	44.25
238.264	38.87
238.481	41.86
238.698	37.98
238.915	34.96
239.131	29.01
239.348	24.04
239.565	28.03
239.781	24.04
239.998	26.46
240.215	21.08
240.431	10.78
240.648	13.08
240.865	12.47
241.081	14.3
241.298	13.47
241.514	14
241.731	17.38
241.947	15.84
242.164	18.03
242.38	14.27
242.597	14.75
242.814	18.11
243.03	18.23
243.246	19.42
243.463	19.21
243.679	20.31
243.896	20.76
244.112	18.55
244.329	17.41
244.545	18.61
244.762	19.15
244.978	18.68
245.194	17.64
245.411	13.76
245.627	12.44
245.843	12.85
246.06	13.13
246.276	12.61
246.492	12.72
246.709	13.72
246.925	10.81
247.141	11.58
247.357	10.92
247.574	10.21
247.79	10.22
248.006	9.15
248.222	9.07
248.439	7.89
248.655	6.02
248.871	5.82
249.087	4.2
249.303	4.66
249.519	3.97
249.736	3.73
249.952	4.65
250.168	5.51
250.384	6.42
250.6	5.57
250.816	6.27
251.032	8.96
251.248	7.54
251.464	9.17
251.68	8.03
251.896	8.41
252.112	6.76
252.328	5.45
252.544	4.04
252.76	3.07
252.976	3.98
253.192	4.94
253.408	4.55
253.624	8.02
253.84	5.7
254.056	8.15
254.272	8.49
254.487	10.24
254.703	11.67
254.919	13.36
255.135	14.22
255.351	12.04
255.567	8.43
255.782	9.2
255.998	4.36
256.214	5.53
256.43	3.81
256.646	2.57
256.861	6.02
257.077	5.3
257.293	4.73
257.508	4.54
257.724	7.57
257.94	10.85
258.155	9.05
258.371	8.79
258.587	8.66
258.802	10.33
259.018	10.79
259.234	10.26
259.449	10.74
259.665	10.09
259.88	10.86
260.096	10.42
260.312	8.78
260.527	9.93
260.743	10.72
260.958	11.1
261.174	9.71
261.389	9.86
261.605	9.03
261.82	9.28
262.036	10.16
262.251	10.26
262.466	9.91
262.682	11.14
262.897	10.29
263.113	8.92
263.328	7.25
263.543	8.3
263.759	6.1
263.974	6.35
264.189	3.71
264.405	2.24
264.62	2.82
264.835	3.86
265.051	3.67
265.266	8.4
265.481	10.85
265.696	12.76
265.912	12.9
266.127	13.45
266.342	13.19
266.557	13.45
266.773	14.75
266.988	13.52
267.203	10.98
267.418	11
267.633	7.09
267.848	6.13
268.064	6.93
268.279	5.99
268.494	5.95
268.709	5.98
268.924	5.65
269.139	4.88
269.354	4.64
269.569	6.95
269.784	10.01
269.999	11.47
270.214	9.64
270.429	7.74
270.644	8.37
270.859	8.76
271.074	8.71
271.289	8.8
271.504	9.42
271.719	8.08
271.934	8.38
272.149	6.39
272.363	5.74
272.578	5.1
272.793	5.74
273.008	4.16
273.223	4.21
273.438	4.43
273.653	4.52
273.867	2.76
274.082	2.65
274.297	1.13
274.512	2.11
274.726	2.77
274.941	5.19
275.156	5.95
275.371	8.8
275.585	7.52
275.8	8.6
276.015	8.67
276.229	10.32
276.444	11.84
276.659	11.8
276.873	12.97
277.088	14.88
277.302	15.22
277.517	14.49
277.732	11.8
277.946	10.7
278.161	10.57
278.375	9.83
278.59	9.07
278.804	9.48
279.019	9.7
279.233	7.38
279.448	4.82
279.662	4.68
279.877	5.89
280.091	7.22
280.306	10.97
280.52	9.63
280.735	10.24
280.949	10.54
281.163	10.58
281.378	10.59
281.592	9.97
281.806	10.04
282.021	8.6
282.235	7.22
282.449	9.81
282.664	7.81
282.878	9.09
283.092	8.91
283.307	9.55
283.521	9.9
283.735	11.6
283.949	12.34
284.164	12.06
284.378	13.05
284.592	13.04
284.806	10.72
285.02	10.25
285.234	10.07
285.449	9.27
285.663	9.26
285.877	9.28
286.091	9.35
286.305	8.62
286.519	8.73
286.733	8.47
286.947	7.81
287.161	9.1
287.375	10.1
287.589	10.03
287.803	10.06
288.017	9.98
288.231	9.1
288.445	7.92
288.659	8.18
288.873	7.69
289.087	7.39
289.301	8.71
289.515	7.83
289.729	6.34
289.943	6.1
290.157	8.28
290.371	6.96
290.584	7.42
290.798	7.78
291.012	8.03
291.226	9.22
291.44	10.39
291.654	11.67
291.867	11.17
292.081	13.04
292.295	13.28
292.509	12.33
292.722	13.45
292.936	12.51
293.15	13.09
293.364	13.33
293.577	13.35
293.791	11.73
294.005	10.48
294.218	11.66
294.432	10.8
294.645	10.65
294.859	10.86
295.073	11.39
295.286	12.78
295.5	12.6
295.713	12.56
295.927	12.49
296.14	13.08
296.354	13.27
296.568	12.71
296.781	12.94
296.994	13.53
297.208	14.15
297.421	12.22
297.635	11.51
297.848	11.08
298.062	11.51
298.275	11.33
298.489	11.56
298.702	10.02
298.915	9.52
299.129	11.25
299.342	9.03
299.555	8.6
299.769	10.71
299.982	10.72
300.195	10.21
300.409	10.93
300.622	9.93
300.835	10.1
301.048	11.74
301.262	13.09
301.475	11.74
301.688	12.07
301.901	11.16
302.115	10.75
302.328	9.77
302.541	8.89
302.754	7.39
302.967	7.27
303.18	6.37
303.393	7.18
303.607	7.53
303.82	7.23
304.033	8.7
304.246	8.47
304.459	9.88
304.672	10.12
304.885	12.13
305.098	11.81
305.311	10.87
305.524	11.48
305.737	8.57
305.95	7.45
306.163	7.28
306.376	7.12
306.589	7.69
306.802	4.25
307.015	6.87
307.228	5.48
307.44	6.36
307.653	8.66
307.866	9.57
308.079	11.78
308.292	12.85
308.505	12.33
308.718	13.04
308.93	12.45
309.143	15.16
309.356	15.08
309.569	14.82
309.781	14.47
309.994	13.16
310.207	12.52
310.42	12.99
310.632	12.96
310.845	12.96
311.058	13.07
311.27	12.61
311.483	12.05
311.696	11.61
311.908	11.61
312.121	11.07
312.333	11.26
312.546	10.56
312.759	10
312.971	9.42
313.184	10.75
313.396	9.9
313.609	9.96
313.821	10
314.034	7.93
314.246	9.44
314.459	10.52
314.671	11.95
314.884	11.31
315.096	10.51
315.309	11.02
315.521	10.46
315.733	10.66
315.946	11.9
316.158	12.6
316.371	13.86
316.583	9.75
316.795	8.36
317.008	8.25
317.22	9.55
317.432	10.05
317.644	9.35
317.857	7.15
318.069	6.94
318.281	5.92
318.494	3.96
318.706	3.42
318.918	6.72
319.13	7.41
319.342	6.8
319.555	8.78
319.767	8.7
319.979	7.75
320.191	7.66
320.403	9.26
320.615	8.24
320.827	9.86
321.039	9.54
321.252	8.63
321.464	8.01
321.676	9.34
321.888	7.68
322.1	7.31
322.312	8.46
322.524	9.65
322.736	8.92
322.948	9.42
323.16	8.9
323.372	9.07
323.584	9.12
323.796	7.97
324.007	7.8
324.219	7.32
324.431	6.62
324.643	7.11
324.855	7.53
325.067	6.57
325.279	6.44
325.491	6.31
325.702	8
325.914	9.24
326.126	10.81
326.338	10.55
326.55	10.98
326.761	13.38
326.973	12.89
327.185	12.09
327.396	12.43
327.608	12.75
327.82	13.15
328.032	11.49
328.243	10.34
328.455	10.9
328.666	11.66
328.878	11.79
329.09	11.09
329.301	11.19
329.513	11.91
329.725	12.41
329.936	13.82
330.148	14.63
330.359	16.38
330.571	16.91
330.782	16.79
330.994	15.47
331.205	14.27
331.417	13.75
331.628	13.63
331.84	12.66
332.051	12.66
332.262	13.96
332.474	12.29
332.685	9.8
332.897	10.13
333.108	10.17
333.319	10.17
333.531	11.26
333.742	10.36
333.953	10.47
334.165	12.52
334.376	11.13
334.587	9.83
334.799	10.96
335.01	12.86
335.221	13.15
335.432	11.63
335.644	12.17
335.855	12.08
336.066	12.37
336.277	11.52
336.488	10.62
336.7	11.75
336.911	11.28
337.122	11.27
337.333	11.57
337.544	12.45
337.755	13.67
337.966	12.89
338.177	11.56
338.388	12.14
338.599	13.61
338.811	13.56
339.022	12.64
339.233	11.91
339.444	10.58
339.655	9.82
339.866	8.74
340.076	8.18
340.287	9.33
340.498	11.21
340.709	10.56
340.92	10.34
341.131	10.18
341.342	11.09
341.553	12.68
341.764	13.64
341.975	12.52
342.185	11.26
342.396	11.87
342.607	10.57
342.818	9.54
343.029	9.7
343.239	8.84
343.45	9.55
343.661	9.99
343.872	8.27
344.082	7.2
344.293	8.06
344.504	9.31
344.714	8.45
344.925	8.41
345.136	7.74
345.346	8.29
345.557	8.41
345.768	7.78
345.978	6.53
346.189	6.58
346.399	7.07
346.61	7.25
346.821	5.82
347.031	5.78
347.242	7.77
347.452	9.2
347.663	8.64
347.873	8.95
348.084	9.37
348.294	10.51
348.504	10.93
348.715	12.12
348.925	10.86
349.136	11.5
349.346	10.8
349.557	9.38
349.767	9.24
349.977	8.41
350.188	7.38
350.398	7.49
350.608	7.45
350.819	8.19
351.029	7.74
351.239	9.54
351.449	10.47
351.66	12.46
351.87	12.33
352.08	12.63
352.29	12.42
352.501	13.19
352.711	12.71
352.921	11.44
353.131	10.83
353.341	10.22
353.552	9.56
353.762	8.16
353.972	7.01
354.182	6.37
354.392	6.48
354.602	6.78
354.812	6.58
355.022	6.01
355.232	5.56
355.442	5.24
355.652	6.01
355.862	5.18
356.072	5.99
356.282	6.35
356.492	6.87
356.702	6.77
356.912	7.77
357.122	8.69
357.332	9.11
357.542	10.1
357.752	10.87
357.962	9.1
358.171	9.5
358.381	10.13
358.591	9.85
358.801	9.76
359.011	9.7
359.221	9.04
359.43	8.33
359.64	8.66
359.85	8.75
360.06	8.46
360.269	9.18
360.479	9.34
360.689	8.81
360.899	8.53
361.108	9.12
361.318	9.15
361.528	9.47
361.737	9.81
361.947	9.36
362.156	9.04
362.366	9.45
362.576	10.4
362.785	10.33
362.995	10.99
363.204	12.29
363.414	12.78
363.623	13.03
363.833	13.04
364.042	12.69
364.252	13.69
364.461	13.62
364.671	13.37
364.88	12.77
365.09	13.12
365.299	12.09
365.509	10.92
365.718	9.85
365.927	9.43
366.137	9.27
366.346	9.22
366.555	8.62
366.765	8.57
366.974	8.04
367.183	8.35
367.393	8.19
367.602	8.94
367.811	9.08
368.021	8.81
368.23	8.38
368.439	7.02
368.648	6.86
368.857	5.97
369.067	6.4
369.276	6.98
369.485	6.57
369.694	5.49
369.903	4.48
370.112	4.98
370.321	5.15
370.531	5.64
370.74	7.48
370.949	7.47
371.158	8.29
371.367	7.59
371.576	8.03
371.785	8.2
371.994	8.46
372.203	8.63
372.412	8.18
372.621	7.93
372.83	6.61
373.039	6.52
373.248	7.28
373.457	7.57
373.666	7.81
373.874	7.21
374.083	6.47
374.292	7.35
374.501	8.19
374.71	8.62
374.919	9.16
375.128	9.75
375.336	9.71
375.545	9.17
375.754	8.47
375.963	8.18
376.171	7.22
376.38	7.91
376.589	8.25
376.798	6.87
377.006	6.23
377.215	6.05
377.424	6.61
377.632	6.77
377.841	6.67
378.05	6.39
378.258	6.78
378.467	7.52
378.675	7.44
378.884	6.55
379.093	7.14
379.301	7.57
379.51	7.32
379.718	7.01
379.927	6.85
380.135	6.62
380.344	7.4
380.552	7.57
380.761	7.15
380.969	6.54
381.177	6.61
381.386	6.76
381.594	6.38
381.803	6.45
382.011	6.43
382.219	6.33
382.428	6.68
382.636	6.56
382.845	6.27
383.053	6.59
383.261	6.88
383.469	7.18
383.678	7.51
383.886	7.71
384.094	7.49
384.302	7.37
384.511	6.9
384.719	6.85
384.927	6.34
385.135	6.26
385.343	6.3
385.552	6.71
385.76	6.35
385.968	5.57
386.176	5.42
386.384	5.38
386.592	5.25
386.8	5.42
387.008	4.94
387.216	4.8
387.424	4.91
387.633	4.51
387.841	3.8
388.049	3.93
388.257	4.12
388.465	4.35
388.672	4.76
388.88	4.96
389.088	4.57
389.296	4.59
389.504	5.01
389.712	5.12
389.92	5.26
390.128	5.41
390.336	5.25
390.544	5.53
390.751	5.54
390.959	5.51
391.167	5.73
391.375	5.9
391.583	6.02
391.79	5.68
391.998	5.77
392.206	5.83
392.414	5.74
392.621	5.84
392.829	5.63
393.037	5.63
393.244	5.88
393.452	5.66
393.66	5.82
393.867	5.81
394.075	5.6
394.283	5.03
394.49	4.81
394.698	5.35
394.905	5.31
395.113	5.01
395.32	4.95
395.528	4.76
395.735	4.59
395.943	4.46
396.15	4.2
396.358	4.51
396.565	4.7
396.773	4.92
396.98	4.49
397.188	4.19
397.395	4.41
397.602	4.25
397.81	4.07
398.017	4.42
398.225	4.44
398.432	4.63
398.639	4.57
398.847	4.89
399.054	4.77
399.261	4.49
399.468	4.73
399.676	4.68
399.883	4.71
400.09	4.74
400.297	4.79
400.505	4.83
400.712	5.15
400.919	5.34
401.126	5.39
401.333	5.42
401.54	5.54
401.748	5.77
401.955	6.09
402.162	6.23
402.369	6.17
402.576	5.63
402.783	5.63
402.99	5.61
403.197	5.24
403.404	4.9
403.611	5.05
403.818	5.22
404.025	4.88
404.232	4.66
404.439	4.7
404.646	4.73
404.853	5.13
405.06	5.03
405.267	5
405.474	5.19
405.681	5.34
405.887	4.97
406.094	4.96
406.301	4.92
406.508	4.82
406.715	4.93
406.922	4.83
407.128	4.37
407.335	4.21
407.542	4.16
407.749	4.28
407.955	4.28
408.162	4.35
408.369	4.28
408.575	4.56
408.782	4.7
408.989	4.18
409.195	4.37
409.402	4.51
409.609	4.58
409.815	4.42
410.022	4.31
410.228	4.47
410.435	4.67
410.642	4.77
410.848	4.6
411.055	4.48
411.261	4.53
411.468	4.54
411.674	4.91
411.881	5
412.087	4.98
412.294	4.84
412.5	4.54
412.706	4.33
412.913	4.18
413.119	4.31
413.326	4.33
413.532	4.23
413.738	4
413.945	3.56
414.151	3.51
414.357	3.62
414.564	4.09
414.77	4.43
414.976	4.35
415.182	4.17
415.389	4.24
415.595	4.29
415.801	4.54
416.007	4.42
416.214	4.44
416.42	4.36
416.626	4.31
416.832	3.9
417.038	3.56
417.244	3.86
417.45	4.12
417.657	4.18
417.863	4.19
418.069	4.13
418.275	4.39
418.481	4.51
418.687	4.64
418.893	4.59
419.099	4.72
419.305	4.93
419.511	4.74
419.717	4.59
419.923	4.55
420.129	4.69
420.335	4.94
420.541	4.84
420.746	4.75
420.952	4.75
421.158	4.81
421.364	4.92
421.57	4.85
421.776	5.01
421.982	5.13
422.187	5.19
422.393	5.07
422.599	4.96
422.805	4.93
423.01	5.02
423.216	4.94
423.422	5.04
423.628	4.95
423.833	4.99
424.039	5
424.245	5.05
424.45	4.83
424.656	4.88
424.862	4.75
425.067	4.84
425.273	4.92
425.478	4.93
425.684	4.89
425.889	4.85
426.095	4.91
426.301	4.72
426.506	4.51
426.712	4.54
426.917	4.46
427.123	4.56
427.328	4.37
427.533	4.27
427.739	4.39
427.944	4.35
428.15	4.38
428.355	4.19
428.561	4.4
428.766	4.64
428.971	4.92
429.177	4.85
429.382	4.54
429.587	4.65
429.793	4.77
429.998	4.86
430.203	4.63
430.408	4.64
430.614	4.77
430.819	4.61
431.024	4.71
431.229	4.67
431.434	4.83
431.64	5.18
431.845	5.12
432.05	4.97
432.255	4.82
432.46	4.91
432.665	5.03
432.87	4.92
433.076	4.84
433.281	4.61
433.486	4.41
433.691	4.36
433.896	4.32
434.101	4.39
434.306	4.41
434.511	4.31
434.716	4.28
434.921	4.07
435.126	4.07
435.331	4.22
435.535	4.28
435.74	4.24
435.945	4.18
436.15	3.97
436.355	3.86
436.56	3.64
436.765	3.58
436.97	4.02
437.174	4.21
437.379	4.12
437.584	4.04
437.789	3.87
437.993	3.9
438.198	4.08
438.403	4.18
438.608	4.19
438.812	4.41
439.017	4.48
439.222	4.1
439.426	4.02
439.631	3.99
439.836	4.05
440.04	4.16
440.245	4.4
440.45	4.32
440.654	4.21
440.859	4.27
441.063	4.2
441.268	4.4
441.472	4.57
441.677	4.54
441.881	4.65
442.086	4.49
442.29	4.43
442.495	4.3
442.699	4.18
442.904	4.26
443.108	4.36
443.312	4.46
443.517	4.33
443.721	4.04
443.925	4.2
444.13	4.2
444.334	4.18
444.538	4.33
444.743	4.3
444.947	4.4
445.151	4.42
445.356	4.29
445.56	4.22
445.764	4.11
445.968	4.33
446.173	4.23
446.377	4.22
446.581	4.34
446.785	4.25
446.989	4.18
447.193	4.16
447.398	4.3
447.602	4.31
447.806	4.37
448.01	4.32
448.214	4.22
448.418	4.24
448.622	4.3
448.826	4.29
449.03	4.41
449.234	4.47
449.438	4.38
449.642	4.12
449.846	4.03
450.05	3.84
450.254	3.96
450.458	3.86
450.662	3.77
450.866	3.6
451.069	3.67
451.273	3.56
451.477	3.53
451.681	3.64
451.885	3.72
452.089	3.94
452.292	4.03
452.496	4.12
452.7	4.12
452.904	4.16
453.107	4.3
453.311	4.23
453.515	4.13
453.719	4.26
453.922	4.23
454.126	4.05
454.33	4.01
454.533	4.03
454.737	3.75
454.94	3.9
455.144	3.75
455.348	3.58
455.551	3.64
455.755	3.67
455.958	3.73
456.162	3.64
456.365	3.83
456.569	3.64
456.772	3.63
456.976	3.86
457.179	3.97
457.383	4.2
457.586	4.22
457.79	4.16
457.993	4.33
458.196	4.25
458.4	4.47
458.603	4.32
458.807	4.31
459.01	4.44
459.213	4.42
459.417	4.35
459.62	4.31
459.823	4.41
460.026	4.43
460.23	4.37
460.433	4.37
460.636	4.23
460.839	4.37
461.042	4.42
461.246	4.28
461.449	4.27
461.652	4.25
461.855	4.21
462.058	4.06
462.261	4.02
462.464	3.83
462.668	3.87
462.871	3.97
463.074	3.82
463.277	4.03
463.48	3.93
463.683	3.75
463.886	3.83
464.089	3.62
464.292	3.52
464.495	3.33
464.698	3.5
464.901	3.43
465.104	3.53
465.306	3.49
465.509	3.31
465.712	3.35
465.915	3.68
466.118	3.35
