Data from 2937815_Reflection_1.txt Node
Date: Wed Jul 15 17:35:48 EDT 2015
User: robert
Spectrometer: USB4E03001
Autoset integration time: false
Trigger mode: 4
Integration Time (sec): 1.000000E-1
Scans to average: 10
Electric dark correction enabled: true
Nonlinearity correction enabled: false
Boxcar width: 5
Stray light correction enabled: false
XAxis mode: Wavelengths
Stop averaging: false
Number of Pixels in Spectrum: 3648
>>>>>Begin Spectral Data<<<<<
177.566	128.98
177.785	100.37
178.005	102.15
178.225	302.76
178.445	-1000.56
178.665	172.7
178.885	97.18
179.105	225.61
179.324	121.25
179.544	-235.62
179.764	1377.05
179.984	22.66
180.204	49.31
180.423	70.09
180.643	53.04
180.863	35.39
181.083	67.04
181.302	45.57
181.522	53.78
181.742	52.67
181.961	79.75
182.181	81.86
182.401	130.9
182.621	150.06
182.84	109.54
183.06	152.57
183.279	163.01
183.499	177.73
183.719	208.67
183.938	152.9
184.158	133.48
184.377	81.33
184.597	58.08
184.816	27.17
185.036	20.45
185.256	56.78
185.475	55.39
185.695	60.42
185.914	26.15
186.134	31.84
186.353	27.08
186.572	36.42
186.792	85.65
187.011	72.84
187.231	68.1
187.45	47.82
187.67	40.45
187.889	31.49
188.108	46.01
188.328	66.65
188.547	87.67
188.766	79.75
188.986	78.26
189.205	11.93
189.424	26.19
189.644	102.43
189.863	109.74
190.082	127.77
190.302	231.26
190.521	235.56
190.74	187.66
190.959	109.57
191.178	636.7
191.398	1.91
191.617	-633.33
191.836	-113.88
192.055	-23.84
192.274	-7.51
192.494	-21.61
192.713	-239.39
192.932	-432.09
193.151	-64.94
193.37	-120.77
193.589	-21433.33
193.808	903.56
194.027	-192.07
194.246	-193.48
194.465	-1898.3
194.685	1010.62
194.904	-425.53
195.123	-34.47
195.342	105.64
195.561	-112.3
195.78	21.3
195.999	-75.29
196.218	61.74
196.436	58.92
196.655	46.8
196.874	68.59
197.093	59.42
197.312	65.69
197.531	67.08
197.75	74.05
197.969	92.97
198.188	80.77
198.407	110.86
198.625	97.68
198.844	177.09
199.063	329.44
199.282	320.34
199.501	612.35
199.719	1889.12
199.938	-883.28
200.157	-334.81
200.376	1412.47
200.594	812.97
200.813	513.52
201.032	524.1
201.251	1074
201.469	-577
201.688	-1729.41
201.907	261.18
202.125	233.33
202.344	3311.69
202.563	-68.26
202.781	9.49
203	5.87
203.218	15.06
203.437	-47.92
203.656	287.83
203.874	263.61
204.093	69.27
204.311	35.76
204.53	315.2
204.748	453
204.967	121.68
205.185	136.4
205.404	143.04
205.622	151.97
205.841	157.88
206.059	402.91
206.278	317.05
206.496	404.97
206.715	455.3
206.933	348.92
207.151	219.4
207.37	397.47
207.588	263.06
207.806	246.88
208.025	299.62
208.243	299.09
208.461	330.01
208.68	273.57
208.898	617.92
209.116	-93.44
209.335	-31.19
209.553	1522.08
209.771	101.79
209.989	36.21
210.208	-127.85
210.426	5.65
210.644	-26.2
210.862	-180.15
211.081	-227.57
211.299	-528.61
211.517	790.83
211.735	5201.72
211.953	1543
212.171	4899.22
212.39	211.54
212.608	105.51
212.826	76.8
213.044	28.7
213.262	26.27
213.48	36
213.698	4.77
213.916	-21.64
214.134	-21.18
214.352	-65.61
214.57	-43.96
214.788	-22.71
215.006	225.72
215.224	-409.44
215.442	804.62
215.66	-670.91
215.878	-475.72
216.096	-568.46
216.314	-1969.03
216.532	472.46
216.75	-2404.83
216.968	544.26
217.185	280.87
217.403	252.8
217.621	136.58
217.839	227.61
218.057	210.19
218.275	173.84
218.492	131.6
218.71	96.05
218.928	94.29
219.146	74.48
219.363	82.44
219.581	46.92
219.799	44.12
220.017	47.01
220.234	-0.86
220.452	-37.46
220.67	5.55
220.887	-37.01
221.105	-39.68
221.323	-41.96
221.54	4.74
221.758	20.66
221.976	35.8
222.193	33.78
222.411	35.16
222.629	50.02
222.846	56.46
223.064	44.43
223.281	48.2
223.499	63.71
223.716	71.08
223.934	66.75
224.151	71.42
224.369	62.73
224.586	53.81
224.804	47.5
225.021	41.43
225.239	20.21
225.456	-2.87
225.674	23.73
225.891	19.26
226.108	4.3
226.326	17.87
226.543	23.1
226.76	17.04
226.978	22.3
227.195	22.15
227.413	24.71
227.63	24.2
227.847	25.31
228.064	18.84
228.282	19.07
228.499	21.78
228.716	13.7
228.934	10.25
229.151	14.02
229.368	12.11
229.585	12.87
229.802	9.84
230.02	9.71
230.237	9.37
230.454	10.7
230.671	10.5
230.888	13.26
231.105	15.96
231.323	19.54
231.54	19.3
231.757	21.5
231.974	19.15
232.191	25.1
232.408	28.86
232.625	39.36
232.842	39.67
233.059	38.89
233.276	33.3
233.493	30.24
233.71	32.44
233.927	25.3
234.144	17.91
234.361	19.93
234.578	20.16
234.795	16.9
235.012	15.78
235.229	11.92
235.446	12.07
235.663	12.93
235.879	16.61
236.096	16
236.313	19.57
236.53	16.9
236.747	17.12
236.964	15.58
237.181	22.4
237.397	23.8
237.614	26.9
237.831	28.25
238.048	28.45
238.264	23.67
238.481	23.44
238.698	18.42
238.915	16.34
239.131	16.26
239.348	13.37
239.565	11.33
239.781	5.3
239.998	6.42
240.215	5.71
240.431	-2.68
240.648	3.6
240.865	6.1
241.081	10.63
241.298	13.53
241.514	15.98
241.731	18.4
241.947	17.83
242.164	19.95
242.38	17.04
242.597	16.48
242.814	18.05
243.03	18.22
243.246	18.37
243.463	16.95
243.679	16.82
243.896	15.82
244.112	13.65
244.329	11.76
244.545	11.02
244.762	10.35
244.978	12.61
245.194	13.4
245.411	11.22
245.627	10.97
245.843	10.95
246.06	12.47
246.276	11.47
246.492	11.91
246.709	12.85
246.925	11.89
247.141	12.81
247.357	12.27
247.574	11.98
247.79	10.91
248.006	10.4
248.222	10.05
248.439	9.23
248.655	8.19
248.871	7.21
249.087	5.58
249.303	6.15
249.519	7.3
249.736	6.87
249.952	5.18
250.168	6.59
250.384	6.88
250.6	7.67
250.816	9.32
251.032	10.92
251.248	10.83
251.464	15.29
251.68	14.8
251.896	11.15
252.112	11.4
252.328	13.3
252.544	12.77
252.76	11.21
252.976	10.64
253.192	11.65
253.408	11.93
253.624	14.28
253.84	10.66
254.056	11.17
254.272	11.13
254.487	7.57
254.703	6.87
254.919	8.01
255.135	7.38
255.351	6.53
255.567	2.23
255.782	2.08
255.998	-1.24
256.214	0.55
256.43	0.85
256.646	3.94
256.861	7.37
257.077	6.8
257.293	7.14
257.508	7.15
257.724	9.91
257.94	9.52
258.155	9.35
258.371	9.46
258.587	9.13
258.802	9.34
259.018	9.34
259.234	9.32
259.449	10.67
259.665	10.31
259.88	11.04
260.096	11.16
260.312	11.32
260.527	11.79
260.743	12.6
260.958	12.62
261.174	11.66
261.389	11.64
261.605	12.07
261.82	10.65
262.036	11.18
262.251	11.62
262.466	11.01
262.682	12.06
262.897	10.39
263.113	8.43
263.328	7.43
263.543	9.39
263.759	8.21
263.974	7.81
264.189	7.8
264.405	6.54
264.62	6.49
264.835	6.71
265.051	5.8
265.266	10.25
265.481	11.76
265.696	15.89
265.912	15.89
266.127	15.57
266.342	13.86
266.557	14.36
266.773	14.47
266.988	13.22
267.203	11.58
267.418	12.18
267.633	8.77
267.848	8.35
268.064	8.12
268.279	6.93
268.494	7.39
268.709	6.62
268.924	6.85
269.139	8.25
269.354	9.08
269.569	10.09
269.784	9.78
269.999	11.46
270.214	11.12
270.429	7.12
270.644	7.66
270.859	7.44
271.074	9.4
271.289	9.51
271.504	8.7
271.719	6.34
271.934	6.78
272.149	6.91
272.363	6.47
272.578	5.57
272.793	6.72
273.008	6.46
273.223	5.94
273.438	5.55
273.653	5.82
273.867	4.13
274.082	5.21
274.297	3.85
274.512	4.4
274.726	4.77
274.941	5.24
275.156	5.69
275.371	6.69
275.585	7.14
275.8	6.19
276.015	5.14
276.229	8.03
276.444	9.35
276.659	10.62
276.873	11.53
277.088	13.21
277.302	12.96
277.517	13.45
277.732	11.85
277.946	11.82
278.161	14.16
278.375	14.39
278.59	13.61
278.804	12.02
279.019	11.87
279.233	9
279.448	6.22
279.662	7.82
279.877	8.75
280.091	9.99
280.306	10.2
280.52	8.79
280.735	8.98
280.949	8.7
281.163	10.31
281.378	10.44
281.592	10.95
281.806	10.69
282.021	9.57
282.235	7.83
282.449	8.35
282.664	9.88
282.878	9.51
283.092	9.64
283.307	7.7
283.521	6.95
283.735	8.38
283.949	7.88
284.164	8.97
284.378	9.82
284.592	10.99
284.806	9.77
285.02	8.14
285.234	8.12
285.449	6.66
285.663	7.99
285.877	8.75
286.091	8.05
286.305	8.08
286.519	8.05
286.733	8.58
286.947	7.51
287.161	7.4
287.375	6.59
287.589	8.17
287.803	8.85
288.017	9.41
288.231	7.88
288.445	6.93
288.659	8.34
288.873	7.92
289.087	7.89
289.301	8.01
289.515	8.89
289.729	9.39
289.943	8.47
290.157	10.1
290.371	10.47
290.584	11.26
290.798	11.01
291.012	10.38
291.226	11.05
291.44	11.03
291.654	12.16
291.867	12.03
292.081	12.96
292.295	12.88
292.509	11.87
292.722	12.24
292.936	11.6
293.15	14.82
293.364	15.92
293.577	16.44
293.791	16.44
294.005	16.19
294.218	16.65
294.432	15.76
294.645	14.84
294.859	14.74
295.073	14.31
295.286	14.97
295.5	12.41
295.713	11.36
295.927	11.78
296.14	11.9
296.354	11.92
296.568	11.09
296.781	10.71
296.994	12.08
297.208	12.41
297.421	13.16
297.635	12.81
297.848	13.87
298.062	14.87
298.275	14.53
298.489	14.03
298.702	13.15
298.915	14.07
299.129	15.94
299.342	16.08
299.555	17.43
299.769	16.73
299.982	17.21
300.195	16.14
300.409	16.24
300.622	15.01
300.835	15.64
301.048	16.5
301.262	15.27
301.475	15.01
301.688	11.95
301.901	9.71
302.115	9.39
302.328	8.2
302.541	6.89
302.754	6.79
302.967	6.94
303.18	5.62
303.393	6.96
303.607	8.6
303.82	7.89
304.033	9.48
304.246	11.06
304.459	11.7
304.672	12.11
304.885	14.18
305.098	12.88
305.311	12.39
305.524	12.4
305.737	11.2
305.95	10.48
306.163	9.59
306.376	10.69
306.589	9.91
306.802	8.71
307.015	10.56
307.228	9.87
307.44	10.75
307.653	10.47
307.866	11.85
308.079	11.54
308.292	9.51
308.505	10.86
308.718	10.39
308.93	9.28
309.143	9.14
309.356	8.34
309.569	7.82
309.781	6.99
309.994	6.99
310.207	7.27
310.42	7.58
310.632	9.63
310.845	9.79
311.058	9.62
311.27	10.59
311.483	11.51
311.696	11.97
311.908	12.12
312.121	12
312.333	12.68
312.546	11.13
312.759	11.53
312.971	11.58
313.184	10.87
313.396	9.84
313.609	8.84
313.821	8
314.034	7.97
314.246	9.58
314.459	10.19
314.671	9.71
314.884	10
315.096	9.09
315.309	9.43
315.521	9.81
315.733	11.89
315.946	12.3
316.158	13.64
316.371	12.77
316.583	10.34
316.795	9.7
317.008	11.74
317.22	13.62
317.432	14.14
317.644	13.81
317.857	13.86
318.069	13.35
318.281	14.05
318.494	12.26
318.706	12.66
318.918	14.4
319.13	14.23
319.342	11.91
319.555	12.52
319.767	11.72
319.979	12.01
320.191	9.69
320.403	10.55
320.615	8.74
320.827	9.61
321.039	8.7
321.252	7.03
321.464	8.23
321.676	11.14
321.888	8.53
322.1	9.96
322.312	8.29
322.524	9.58
322.736	8.83
322.948	9.5
323.16	8.89
323.372	9.1
323.584	8.56
323.796	7.22
324.007	5.44
324.219	6.73
324.431	5.51
324.643	7.44
324.855	6.5
325.067	5.13
325.279	5.06
325.491	4.85
325.702	5.29
325.914	7.56
326.126	8.4
326.338	8.35
326.55	7.29
326.761	7.62
326.973	5.47
327.185	7.69
327.396	8.27
327.608	8.79
327.82	9.76
328.032	10.52
328.243	8.95
328.455	8.66
328.666	7.58
328.878	8.77
329.09	8.94
329.301	9.97
329.513	9.33
329.725	9.42
329.936	9.47
330.148	8.85
330.359	9.26
330.571	10.62
330.782	11.49
330.994	11.55
331.205	11.01
331.417	11.85
331.628	11.59
331.84	11.55
332.051	12.11
332.262	12.98
332.474	11.39
332.685	9.21
332.897	7.95
333.108	7.18
333.319	7.98
333.531	7.93
333.742	6.39
333.953	5.32
334.165	6.72
334.376	6.47
334.587	5.76
334.799	7.67
335.01	8.91
335.221	9.84
335.432	7.75
335.644	8.32
335.855	9.1
336.066	9.44
336.277	10.95
336.488	9.92
336.7	10.8
336.911	11.71
337.122	11.22
337.333	11.45
337.544	11.36
337.755	12.62
337.966	12.53
338.177	10.73
338.388	10.84
338.599	10.31
338.811	9.87
339.022	8.3
339.233	6.23
339.444	6.14
339.655	6.56
339.866	6.19
340.076	6
340.287	5.92
340.498	7.84
340.709	8.1
340.92	8
341.131	8.12
341.342	7.83
341.553	10.15
341.764	10.21
341.975	8.56
342.185	8.46
342.396	9.16
342.607	9.3
342.818	9.15
343.029	9.64
343.239	9.44
343.45	10
343.661	11.01
343.872	8.72
344.082	9.06
344.293	10.12
344.504	11.44
344.714	11.82
344.925	11.72
345.136	10.34
345.346	8.86
345.557	9.17
345.768	8
345.978	7.69
346.189	8.42
346.399	7.66
346.61	7.97
346.821	6.41
347.031	5.48
347.242	4.83
347.452	5.77
347.663	6.54
347.873	6.63
348.084	7.89
348.294	8.57
348.504	8.69
348.715	10.23
348.925	8.19
349.136	9.59
349.346	9.03
349.557	9.29
349.767	9.63
349.977	9.08
350.188	8.1
350.398	7.89
350.608	6.75
350.819	6.76
351.029	7.05
351.239	8.35
351.449	8.12
351.66	8.32
351.87	8.56
352.08	7.94
352.29	8.87
352.501	9.92
352.711	9.6
352.921	10.12
353.131	9.94
353.341	9.16
353.552	9.03
353.762	7.15
353.972	7.93
354.182	8
354.392	7.77
354.602	7.1
354.812	6.67
355.022	5.33
355.232	4.9
355.442	4.26
355.652	5.36
355.862	5.32
356.072	5.87
356.282	5.99
356.492	5.77
356.702	6.73
356.912	6.58
357.122	7.77
357.332	9.73
357.542	10.1
357.752	10.44
357.962	7.46
358.171	7.33
358.381	8.65
358.591	8.41
358.801	8.57
359.011	8.51
359.221	8.84
359.43	8.32
359.64	7.7
359.85	7.5
360.06	8.52
360.269	9.31
360.479	9.71
360.689	8.26
360.899	7.9
361.108	8.09
361.318	8.2
361.528	8.32
361.737	8.87
361.947	8.07
362.156	7.97
362.366	8.1
362.576	8.62
362.785	8.05
362.995	8.62
363.204	8.94
363.414	9.46
363.623	9.06
363.833	9.47
364.042	8.05
364.252	9.06
364.461	8.79
364.671	8.62
364.88	8.88
365.09	9.96
365.299	10.09
365.509	10.36
365.718	9.72
365.927	10.02
366.137	9.78
366.346	10.12
366.555	10.48
366.765	11.72
366.974	10.44
367.183	10.69
367.393	10.26
367.602	10.37
367.811	10.09
368.021	9.08
368.23	9.12
368.439	7.36
368.648	6.8
368.857	5.82
369.067	4.37
369.276	4.66
369.485	4.94
369.694	4.9
369.903	4.67
370.112	5.34
370.321	5.47
370.531	5.76
370.74	7.11
370.949	7.48
371.158	7.32
371.367	7.01
371.576	8.06
371.785	7.34
371.994	6.78
372.203	6.31
372.412	5.43
372.621	6.18
372.83	4.64
373.039	4.58
373.248	4.14
373.457	4.48
373.666	4.87
373.874	4.27
374.083	4.6
374.292	5.19
374.501	6.17
374.71	6.63
374.919	6.45
375.128	7.19
375.336	7.43
375.545	7.96
375.754	7.52
375.963	7.47
376.171	7.13
376.38	5.85
376.589	5.86
376.798	4.79
377.006	4.3
377.215	4.58
377.424	4.33
377.632	4.44
377.841	4.63
378.05	4.42
378.258	5.06
378.467	5.06
378.675	6
378.884	6.06
379.093	6.35
379.301	6.29
379.51	5.9
379.718	6.72
379.927	6.57
380.135	6.47
380.344	7.07
380.552	6.8
380.761	6.9
380.969	6.63
381.177	6.44
381.386	6.29
381.594	6.99
381.803	7.16
382.011	6.55
382.219	6.09
382.428	5.71
382.636	5.78
382.845	5.48
383.053	5.63
383.261	5.83
383.469	6
383.678	6.1
383.886	5.51
384.094	5.02
384.302	4.77
384.511	4.62
384.719	4.78
384.927	4.62
385.135	4.62
385.343	4.23
385.552	4.32
385.76	3.84
385.968	3.9
386.176	4
386.384	4.39
386.592	4.24
386.8	4.73
387.008	4.17
387.216	4.02
387.424	3.93
387.633	3.98
387.841	3.41
388.049	3.91
388.257	3.63
388.465	3.86
388.672	4.09
388.88	4.01
389.088	3.42
389.296	3.73
389.504	4
389.712	4.24
389.92	4.33
390.128	4.58
390.336	4.16
390.544	4.47
390.751	4.31
390.959	3.73
391.167	4.01
391.375	4.54
391.583	4.69
391.79	4.35
391.998	4.36
392.206	4.28
392.414	4.15
392.621	4.08
392.829	3.93
393.037	3.86
393.244	4.29
393.452	4.2
393.66	4.09
393.867	3.98
394.075	3.85
394.283	3.6
394.49	3.42
394.698	4.09
394.905	4.37
395.113	4.08
395.32	4.27
395.528	4.01
395.735	3.97
395.943	3.95
396.15	3.75
396.358	4.05
396.565	4.14
396.773	4.38
396.98	3.83
397.188	3.36
397.395	3.6
397.602	3.26
397.81	3.37
398.017	3.83
398.225	3.78
398.432	3.8
398.639	3.78
398.847	3.93
399.054	3.73
399.261	3.45
399.468	3.7
399.676	3.96
399.883	3.82
400.09	3.75
400.297	3.86
400.505	4.11
400.712	4.27
400.919	4.49
401.126	4.19
401.333	4.43
401.54	4.6
401.748	4.44
401.955	4.28
402.162	4.53
402.369	4.7
402.576	3.89
402.783	3.62
402.99	3.78
403.197	3.31
403.404	3.3
403.611	3.5
403.818	3.53
404.025	3.62
404.232	3.58
404.439	3.64
404.646	3.48
404.853	4.08
405.06	4.4
405.267	4.42
405.474	4.76
405.681	4.89
405.887	4.4
406.094	4.51
406.301	3.99
406.508	4.05
406.715	4.21
406.922	4.58
407.128	4.3
407.335	3.61
407.542	3.63
407.749	3.78
407.955	3.89
408.162	4.2
408.369	4.19
408.575	4.76
408.782	4.61
408.989	4.04
409.195	3.59
409.402	3.36
409.609	3.73
409.815	3.32
410.022	2.9
410.228	2.92
410.435	2.99
410.642	2.99
410.848	2.86
411.055	2.81
411.261	3.14
411.468	3.25
411.674	3.79
411.881	3.5
412.087	3.42
412.294	3.41
412.5	3.24
412.706	3.01
412.913	2.59
413.119	2.91
413.326	3.06
413.532	3.05
413.738	2.88
413.945	2.36
414.151	2.55
414.357	2.88
414.564	3.17
414.77	3.44
414.976	3.26
415.182	3.47
415.389	3.4
415.595	3.34
415.801	3.27
416.007	3.35
416.214	3.48
416.42	3.55
416.626	3.38
416.832	3.36
417.038	2.93
417.244	3.34
417.45	3.43
417.657	3.45
417.863	3.52
418.069	3.69
418.275	3.97
418.481	3.83
418.687	3.81
418.893	3.94
419.099	3.98
419.305	4.16
419.511	3.99
419.717	4.01
419.923	3.87
420.129	3.91
420.335	3.96
420.541	3.84
420.746	3.93
420.952	3.94
421.158	3.97
421.364	4.05
421.57	4.17
421.776	4.27
421.982	4.32
422.187	4.52
422.393	4.45
422.599	4.3
422.805	4.26
423.01	4.36
423.216	4.36
423.422	4.34
423.628	4.25
423.833	4.25
424.039	4.37
424.245	4.28
424.45	4.06
424.656	4.04
424.862	4.03
425.067	3.96
425.273	3.86
425.478	3.82
425.684	3.77
425.889	3.74
426.095	3.69
426.301	3.5
426.506	3.44
426.712	3.53
426.917	3.49
427.123	3.49
427.328	3.51
427.533	3.46
427.739	3.59
427.944	3.76
428.15	3.64
428.355	3.53
428.561	3.49
428.766	3.73
428.971	3.65
429.177	3.93
429.382	3.89
429.587	3.79
429.793	3.86
429.998	4.03
430.203	3.71
430.408	3.77
430.614	3.86
430.819	3.74
431.024	3.69
431.229	3.8
431.434	3.78
431.64	3.83
431.845	3.95
432.05	4.05
432.255	3.84
432.46	3.96
432.665	3.88
432.87	3.85
433.076	3.86
433.281	3.78
433.486	3.8
433.691	3.61
433.896	3.73
434.101	3.81
434.306	3.66
434.511	3.53
434.716	3.49
434.921	3.51
435.126	3.53
435.331	3.5
435.535	3.61
435.74	3.48
435.945	3.4
436.15	3.27
436.355	3.2
436.56	3.32
436.765	3.44
436.97	3.59
437.174	3.75
437.379	3.64
437.584	3.78
437.789	3.4
437.993	3.58
438.198	3.7
438.403	3.77
438.608	3.61
438.812	3.56
439.017	3.55
439.222	3.57
439.426	3.49
439.631	3.39
439.836	3.33
440.04	3.59
440.245	3.79
440.45	3.81
440.654	3.67
440.859	3.64
441.063	3.66
441.268	3.64
441.472	3.4
441.677	3.29
441.881	3.37
442.086	3.4
442.29	3.18
442.495	2.9
442.699	2.83
442.904	3
443.108	3.17
443.312	3.11
443.517	3.18
443.721	3.11
443.925	3.35
444.13	3.39
444.334	3.27
444.538	3.51
444.743	3.47
444.947	3.53
445.151	3.54
445.356	3.51
445.56	3.49
445.764	3.57
445.968	3.83
446.173	3.7
446.377	3.7
446.581	3.8
446.785	3.78
446.989	3.75
447.193	3.69
447.398	3.74
447.602	3.79
447.806	3.76
448.01	3.61
448.214	3.52
448.418	3.55
448.622	3.61
448.826	3.53
449.03	3.46
449.234	3.47
449.438	3.29
449.642	3.01
449.846	2.96
450.05	3.03
450.254	3.07
450.458	3.12
450.662	3.04
450.866	2.97
451.069	2.92
451.273	2.83
451.477	3.13
451.681	3.41
451.885	3.52
452.089	3.48
452.292	3.46
452.496	3.31
452.7	3.24
452.904	3.32
453.107	3.32
453.311	3.4
453.515	3.37
453.719	3.18
453.922	3.04
454.126	2.91
454.33	2.8
454.533	2.63
454.737	2.78
454.94	2.9
455.144	3.1
455.348	2.97
455.551	2.98
455.755	3.12
455.958	3.23
456.162	3.25
456.365	3.42
456.569	3.55
456.772	3.8
456.976	3.76
457.179	3.83
457.383	3.87
457.586	3.93
457.79	3.91
457.993	3.92
458.196	3.82
458.4	4
458.603	3.92
458.807	3.78
459.01	3.88
459.213	3.85
459.417	3.58
459.62	3.49
459.823	3.49
460.026	3.49
460.23	3.41
460.433	3.41
460.636	3.2
460.839	3.13
461.042	3.09
461.246	2.89
461.449	2.69
461.652	2.74
461.855	2.7
462.058	2.64
462.261	2.61
462.464	2.57
462.668	2.52
462.871	2.6
463.074	2.64
463.277	3.07
463.48	3
463.683	3.14
463.886	3.24
464.089	2.96
464.292	3.01
464.495	2.84
464.698	3.03
464.901	3.05
465.104	3.13
465.306	3.04
465.509	2.69
465.712	2.72
465.915	2.95
466.118	2.89
466.321	3
466.524	2.84
466.726	2.9
466.929	2.72
467.132	2.73
467.335	2.72
