Data from 2937863_Reflection_1.txt Node
Date: Wed Jul 15 15:18:38 EDT 2015
User: robert
Spectrometer: USB4E03001
Autoset integration time: false
Trigger mode: 4
Integration Time (sec): 1.000000E-1
Scans to average: 10
Electric dark correction enabled: true
Nonlinearity correction enabled: false
Boxcar width: 5
Stray light correction enabled: false
XAxis mode: Wavelengths
Stop averaging: false
Number of Pixels in Spectrum: 3648
>>>>>Begin Spectral Data<<<<<
177.566	60.37
177.785	15.75
178.005	507.77
178.225	-119.44
178.445	172.73
178.665	16.32
178.885	78.88
179.105	85.79
179.324	77.51
179.544	69.51
179.764	55.21
179.984	7.09
180.204	-12.08
180.423	-170.31
180.643	-444.22
180.863	-797.73
181.083	-81.7
181.302	-15.85
181.522	6.04
181.742	-73.2
181.961	-56.56
182.181	-131.62
182.401	-71.02
182.621	-65.94
182.84	-64.37
183.06	-50.18
183.279	-74.25
183.499	-67.12
183.719	-112.32
183.938	-211.07
184.158	-143.87
184.377	-113.09
184.597	-52.47
184.816	-49.97
185.036	-58.3
185.256	-80.79
185.475	-24.64
185.695	21.48
185.914	8.18
186.134	-26.29
186.353	-68.56
186.572	-30.67
186.792	-84.05
187.011	316.81
187.231	1115.75
187.45	-52.96
187.67	11.93
187.889	6.75
188.108	-68.13
188.328	-156.01
188.547	-38.68
188.766	-9.9
188.986	-47.49
189.205	-27.42
189.424	11.5
189.644	24.39
189.863	-1.66
190.082	-21.43
190.302	-49.72
190.521	0.61
190.74	-14.06
190.959	-4.75
191.178	1.11
191.398	48.2
191.617	57.76
191.836	21.72
192.055	-38.57
192.274	34.55
192.494	359.07
192.713	183.54
192.932	76.5
193.151	87.44
193.37	-180.87
193.589	-141.91
193.808	105.53
194.027	-137.25
194.246	-144.38
194.465	49.58
194.685	-2.71
194.904	-35.46
195.123	-133.92
195.342	-18.16
195.561	-344.01
195.78	-101.49
195.999	-3.33
196.218	-8.9
196.436	948.68
196.655	170.39
196.874	239.43
197.093	243.43
197.312	325.55
197.531	269.3
197.75	174
197.969	200.84
198.188	101.83
198.407	111.24
198.625	134.6
198.844	93.87
199.063	116.3
199.282	6590
199.501	97.07
199.719	33.61
199.938	84.7
200.157	142.75
200.376	105.63
200.594	138.16
200.813	172.53
201.032	123.61
201.251	100.91
201.469	55.09
201.688	36.91
201.907	34.45
202.125	29.26
202.344	27.25
202.563	19.82
202.781	-5.33
203	-18.82
203.218	-25.64
203.437	-52.95
203.656	-32.91
203.874	-4.49
204.093	-6.92
204.311	-19.57
204.53	-10.3
204.748	-50.78
204.967	-30.23
205.185	-8.52
205.404	19.26
205.622	-15.79
205.841	35.34
206.059	10.55
206.278	-33.14
206.496	45.52
206.715	174.77
206.933	135.23
207.151	248.27
207.37	616.35
207.588	395.93
207.806	-998.48
208.025	28026.32
208.243	877.13
208.461	-178.78
208.68	-109.58
208.898	-72.94
209.116	-142.73
209.335	-33.54
209.553	3.24
209.771	-8.84
209.989	17.14
210.208	21.04
210.426	30.9
210.644	54.42
210.862	57.61
211.081	35.06
211.299	49.32
211.517	71.26
211.735	85.19
211.953	54.78
212.171	82.19
212.39	62.06
212.608	94.58
212.826	74.5
213.044	10.21
213.262	-62.7
213.48	-68.97
213.698	-47.84
213.916	-132.91
214.134	17.71
214.352	17.32
214.57	6.4
214.788	33.17
215.006	12.85
215.224	-40.89
215.442	-55.26
215.66	-51.6
215.878	-56.02
216.096	-144.53
216.314	-104.63
216.532	-89.29
216.75	-75.15
216.968	-117.31
217.185	-80.87
217.403	-93.82
217.621	-10.96
217.839	-4.62
218.057	4.65
218.275	-16.97
218.492	2.13
218.71	3.24
218.928	7.07
219.146	15.64
219.363	20.51
219.581	26.61
219.799	43.69
220.017	-1.96
220.234	-12.59
220.452	-4.29
220.67	1.04
220.887	4.31
221.105	3.09
221.323	4.06
221.54	-10.4
221.758	-13.89
221.976	-50.51
222.193	-36.46
222.411	-16.75
222.629	-8.98
222.846	-14.85
223.064	-8.76
223.281	-21.5
223.499	-30.29
223.716	-12.4
223.934	-1.04
224.151	-45.11
224.369	-42.85
224.586	-20.42
224.804	-98.26
225.021	-63.58
225.239	-68.8
225.456	-12.22
225.674	10.48
225.891	30.72
226.108	22.19
226.326	17.51
226.543	32.67
226.76	40.33
226.978	21.53
227.195	12.92
227.413	15.39
227.63	20.65
227.847	16.67
228.064	11.27
228.282	6.07
228.499	0.71
228.716	3.05
228.934	4.71
229.151	5
229.368	7.5
229.585	12.14
229.802	9.02
230.02	6.6
230.237	6.1
230.454	7.59
230.671	10.47
230.888	12.57
231.105	11.56
231.323	12.14
231.54	13.78
231.757	13.56
231.974	15.73
232.191	18.64
232.408	19.26
232.625	18.36
232.842	15.66
233.059	17.21
233.276	21.73
233.493	18.54
233.71	12.49
233.927	9.93
234.144	11.96
234.361	4.9
234.578	4.57
234.795	6.18
235.012	10.84
235.229	15.85
235.446	14.35
235.663	13.62
235.879	16.2
236.096	19.63
236.313	19.03
236.53	15.09
236.747	14.18
236.964	16.67
237.181	17.56
237.397	10.07
237.614	9.08
237.831	13.18
238.048	13.44
238.264	19.08
238.481	16.32
238.698	12.3
238.915	12.08
239.131	12.65
239.348	8.17
239.565	9.58
239.781	16.31
239.998	16.04
240.215	12.86
240.431	8.41
240.648	6.93
240.865	8.33
241.081	12.05
241.298	14.4
241.514	16.5
241.731	16.4
241.947	18.13
242.164	17.03
242.38	17.06
242.597	17.86
242.814	19.08
243.03	22.03
243.246	23.24
243.463	23.39
243.679	24.96
243.896	25.06
244.112	25.58
244.329	22.43
244.545	21.69
244.762	21.01
244.978	21.18
245.194	20.39
245.411	17.72
245.627	17
245.843	15.59
246.06	13.1
246.276	12.39
246.492	14.34
246.709	14.93
246.925	14.42
247.141	13.9
247.357	12.84
247.574	12.85
247.79	12.6
248.006	13.12
248.222	12.67
248.439	12.12
248.655	12.06
248.871	11.38
249.087	11.19
249.303	11.17
249.519	11.46
249.736	11.28
249.952	11.48
250.168	8.83
250.384	6.36
250.6	6.53
250.816	9.94
251.032	7.7
251.248	7.67
251.464	8.07
251.68	8.37
251.896	8.55
252.112	10.54
252.328	8.69
252.544	10.33
252.76	8.11
252.976	9.45
253.192	7.68
253.408	8.24
253.624	5.47
253.84	6.11
254.056	7.6
254.272	7.77
254.487	5.35
254.703	11.59
254.919	13.39
255.135	17.82
255.351	16.72
255.567	19.11
255.782	17.8
255.998	21.26
256.214	17.99
256.43	13.58
256.646	12.55
256.861	13.18
257.077	9.99
257.293	6.2
257.508	5.82
257.724	3.76
257.94	3.15
258.155	4.99
258.371	4.97
258.587	5.71
258.802	6.54
259.018	7
259.234	6.42
259.449	5.91
259.665	7.89
259.88	8.53
260.096	9.31
260.312	9.15
260.527	9.67
260.743	9.08
260.958	9.59
261.174	9.15
261.389	9
261.605	8.94
261.82	9.72
262.036	8.7
262.251	7.09
262.466	7.09
262.682	6.46
262.897	5.78
263.113	5.64
263.328	4.98
263.543	9.12
263.759	8.43
263.974	7.65
264.189	8.87
264.405	8.54
264.62	9.77
264.835	10.25
265.051	9.89
265.266	10.79
265.481	10.5
265.696	9.78
265.912	7.65
266.127	8.03
266.342	11.67
266.557	11.24
266.773	12.28
266.988	12.93
267.203	12.48
267.418	12.91
267.633	12.38
267.848	12.93
268.064	14.04
268.279	14.49
268.494	14.76
268.709	13.82
268.924	14.14
269.139	13.96
269.354	12.58
269.569	12.59
269.784	13.3
269.999	12.53
270.214	10.94
270.429	11.11
270.644	11.33
270.859	12.02
271.074	11.97
271.289	10.5
271.504	10.41
271.719	10.08
271.934	10.37
272.149	9.11
272.363	9.18
272.578	10.1
272.793	9.03
273.008	8.83
273.223	7.85
273.438	7.51
273.653	7.1
273.867	6.24
274.082	7.19
274.297	6.85
274.512	7.51
274.726	7.42
274.941	8.08
275.156	7.2
275.371	5.95
275.585	5.94
275.8	4.77
276.015	4.55
276.229	6.06
276.444	5.76
276.659	4.58
276.873	4.22
277.088	5.98
277.302	5.52
277.517	6.69
277.732	6.93
277.946	9.82
278.161	9.87
278.375	11.59
278.59	10.97
278.804	11.76
279.019	11.12
279.233	11.63
279.448	9.38
279.662	9.44
279.877	9.99
280.091	11.34
280.306	9.18
280.52	11.79
280.735	11.24
280.949	10.54
281.163	9.43
281.378	11.29
281.592	10.87
281.806	12.74
282.021	12.98
282.235	13.37
282.449	12.71
282.664	13.39
282.878	13.51
283.092	14.2
283.307	16.06
283.521	15.69
283.735	14.38
283.949	14.73
284.164	14.45
284.378	13.97
284.592	13.11
284.806	12.26
285.02	11.27
285.234	11.01
285.449	10.35
285.663	10.74
285.877	12.39
286.091	13.26
286.305	12.07
286.519	11.58
286.733	12.08
286.947	12.04
287.161	14.09
287.375	15.24
287.589	14.67
287.803	13.55
288.017	11.45
288.231	10.93
288.445	10.82
288.659	13.26
288.873	15.47
289.087	14.43
289.301	15.5
289.515	12.65
289.729	9.93
289.943	9.78
290.157	10.41
290.371	9.95
290.584	10.59
290.798	9.56
291.012	8.11
291.226	6.23
291.44	5.99
291.654	5.32
291.867	7.89
292.081	11.07
292.295	10.5
292.509	9.83
292.722	10.9
292.936	9.71
293.15	10.63
293.364	9.59
293.577	8.07
293.791	8.56
294.005	9.72
294.218	8.82
294.432	8.47
294.645	8.87
294.859	11.6
295.073	12.19
295.286	12.01
295.5	12.01
295.713	12.38
295.927	13.06
296.14	13.25
296.354	12.76
296.568	12.45
296.781	11.07
296.994	11.72
297.208	10.36
297.421	9.64
297.635	9.96
297.848	10.15
298.062	11.38
298.275	11.42
298.489	11.74
298.702	11.54
298.915	12.07
299.129	13.01
299.342	12.08
299.555	12.88
299.769	13.28
299.982	14.5
300.195	14.07
300.409	14.06
300.622	15.24
300.835	15.22
301.048	15.94
301.262	15.95
301.475	15.3
301.688	16.04
301.901	16.19
302.115	16.77
302.328	15.74
302.541	15.99
302.754	14.87
302.967	14.91
303.18	14.88
303.393	13.75
303.607	13.26
303.82	14.66
304.033	14.19
304.246	14.2
304.459	12.07
304.672	12.08
304.885	11.73
305.098	12.65
305.311	11.28
305.524	11.76
305.737	11.19
305.95	9.97
306.163	8.26
306.376	8.48
306.589	6.62
306.802	8.39
307.015	9.18
307.228	10.65
307.44	11.51
307.653	11.2
307.866	9.85
308.079	11.47
308.292	12.54
308.505	14.05
308.718	14.72
308.93	14.78
309.143	15.28
309.356	15.17
309.569	14.39
309.781	12.43
309.994	12.33
310.207	14.4
310.42	13.42
310.632	13.18
310.845	13
311.058	11.57
311.27	13.03
311.483	12.96
311.696	11.37
311.908	10.94
312.121	11.01
312.333	11.59
312.546	9.3
312.759	8.46
312.971	8.56
313.184	9.36
313.396	10.37
313.609	9.08
313.821	9.56
314.034	11.39
314.246	13.3
314.459	13.84
314.671	13.4
314.884	13.07
315.096	14.85
315.309	14.62
315.521	12.7
315.733	12.09
315.946	11.68
316.158	10.75
316.371	10.78
316.583	8.6
316.795	8.73
317.008	8.72
317.22	9.92
317.432	9.41
317.644	9.54
317.857	9.82
318.069	10.31
318.281	11.03
318.494	11
318.706	8.49
318.918	8.16
319.13	9.72
319.342	9.43
319.555	8.81
319.767	7.33
319.979	8.07
320.191	8.26
320.403	7.65
320.615	7.9
320.827	7.01
321.039	8.12
321.252	9.25
321.464	8.16
321.676	9.62
321.888	10.78
322.1	12.3
322.312	10.29
322.524	10.32
322.736	10.59
322.948	11.83
323.16	11.8
323.372	10.4
323.584	9.26
323.796	7.18
324.007	6.78
324.219	6.74
324.431	7.91
324.643	8.5
324.855	9.33
325.067	8.86
325.279	7.83
325.491	8.03
325.702	8.79
325.914	9.97
326.126	10.44
326.338	9.41
326.55	8.21
326.761	5.59
326.973	6.63
327.185	5
327.396	6.24
327.608	5.5
327.82	5.1
328.032	6.44
328.243	5.99
328.455	7.11
328.666	7.73
328.878	9.15
329.09	10.27
329.301	10.09
329.513	10.92
329.725	9.37
329.936	7.9
330.148	9.97
330.359	8.58
330.571	9.64
330.782	8.51
330.994	7.9
331.205	6.9
331.417	6.62
331.628	6.98
331.84	6.63
332.051	7.24
332.262	9.85
332.474	8.48
332.685	8.72
332.897	8.51
333.108	10.46
333.319	9.36
333.531	8.26
333.742	7.73
333.953	6.84
334.165	8.07
334.376	8.55
334.587	8.42
334.799	8.12
335.01	8.46
335.221	7.01
335.432	5.68
335.644	7.01
335.855	8.94
336.066	9.63
336.277	8.35
336.488	7.24
336.7	6.33
336.911	6.07
337.122	7.06
337.333	6.29
337.544	5.79
337.755	6.21
337.966	6.94
338.177	6.54
338.388	7.01
338.599	8.44
338.811	8.22
339.022	9.97
339.233	10.2
339.444	9.14
339.655	9.7
339.866	10.68
340.076	10.22
340.287	10.07
340.498	9.14
340.709	8.55
340.92	9.42
341.131	10.32
341.342	9.98
341.553	8.14
341.764	9.5
341.975	8.15
342.185	8.35
342.396	8.77
342.607	9.15
342.818	9.32
343.029	8.61
343.239	7.09
343.45	6.56
343.661	6.93
343.872	7.74
344.082	6.27
344.293	7.22
344.504	6.42
344.714	6.62
344.925	5.73
345.136	4.69
345.346	6.44
345.557	6.92
345.768	6.25
345.978	5.88
346.189	7.46
346.399	7.43
346.61	7.48
346.821	7.37
347.031	8.03
347.242	7.69
347.452	7.85
347.663	7.06
347.873	7.43
348.084	7.51
348.294	6.9
348.504	6.33
348.715	7.04
348.925	7.36
349.136	7.14
349.346	5.94
349.557	6.72
349.767	7.82
349.977	7.21
350.188	6.5
350.398	6.43
350.608	5.35
350.819	5.22
351.029	4.02
351.239	3.32
351.449	5.17
351.66	4.78
351.87	5.46
352.08	5.2
352.29	5.08
352.501	6.42
352.711	7.78
352.921	7.97
353.131	7.1
353.341	7.61
353.552	8.52
353.762	7.77
353.972	7.78
354.182	6.3
354.392	6.93
354.602	7.52
354.812	7.46
355.022	6.27
355.232	6.66
355.442	7.83
355.652	8.24
355.862	7.8
356.072	8.75
356.282	9.84
356.492	10.18
356.702	9.29
356.912	9.27
357.122	8.05
357.332	7.67
357.542	8.1
357.752	7.85
357.962	8.37
358.171	8.72
358.381	7.74
358.591	7.62
358.801	7.31
359.011	7.72
359.221	6.67
359.43	7.53
359.64	8.82
359.85	8.82
360.06	8.49
360.269	7.67
360.479	7.37
360.689	7.11
360.899	7.08
361.108	7.44
361.318	6.98
361.528	7.3
361.737	7.28
361.947	6.53
362.156	6.77
362.366	6.7
362.576	6.7
362.785	6.61
362.995	6.9
363.204	6.46
363.414	5.92
363.623	6.88
363.833	7.45
364.042	8.09
364.252	7.55
364.461	6.94
364.671	7.58
364.88	7.66
365.09	8.1
365.299	7.29
365.509	7.48
365.718	8.27
365.927	7.86
366.137	8.1
366.346	7.64
366.555	7.97
366.765	8.22
366.974	7.58
367.183	7.55
367.393	6.64
367.602	7
367.811	6.35
368.021	5.87
368.23	5.61
368.439	5.72
368.648	4.37
368.857	4.64
369.067	4.13
369.276	4.22
369.485	4.47
369.694	4.61
369.903	4.79
370.112	5.61
370.321	5.38
370.531	5.3
370.74	3.5
370.949	3.79
371.158	3.43
371.367	3.59
371.576	3.7
371.785	3.24
371.994	3.95
372.203	4.1
372.412	3.99
372.621	4.14
372.83	3.59
373.039	4.31
373.248	4.67
373.457	5.41
373.666	5.81
373.874	5.51
374.083	5.93
374.292	6.22
374.501	6.12
374.71	6.07
374.919	5.88
375.128	5.98
375.336	6.55
375.545	6.48
375.754	6.16
375.963	6.45
376.171	6.66
376.38	6.65
376.589	6.29
376.798	5.83
377.006	5.91
377.215	6.33
377.424	6.75
377.632	7.26
377.841	7.39
378.05	7.52
378.258	6.93
378.467	7.52
378.675	6.79
378.884	6.82
379.093	7.34
379.301	7.41
379.51	7.19
379.718	6.67
379.927	5.76
380.135	5.84
380.344	5.87
380.552	5.53
380.761	4.24
380.969	4.21
381.177	4.38
381.386	4.31
381.594	4.54
381.803	4.06
382.011	4.3
382.219	4.11
382.428	4.09
382.636	4
382.845	4.58
383.053	4.89
383.261	5.49
383.469	4.88
383.678	5.25
383.886	4.85
384.094	5.46
384.302	5.78
384.511	5.79
384.719	5.98
384.927	6.13
385.135	5.48
385.343	5.47
385.552	5.51
385.76	5.51
385.968	4.98
386.176	5.16
386.384	4.64
386.592	4.27
386.8	4.19
387.008	4.09
387.216	3.94
387.424	4.06
387.633	4.03
387.841	3.68
388.049	3.44
388.257	3.59
388.465	2.96
388.672	3.07
388.88	3.65
389.088	3.73
389.296	3.74
389.504	3.6
389.712	3.67
389.92	3.72
390.128	3.63
390.336	4.07
390.544	3.95
390.751	3.78
390.959	3.78
391.167	3.35
391.375	3.48
391.583	3
391.79	2.83
391.998	2.82
392.206	2.71
392.414	2.75
392.621	2.7
392.829	2.86
393.037	3.4
393.244	3.26
393.452	3.41
393.66	3.46
393.867	3.89
394.075	4.07
394.283	4.09
394.49	3.77
394.698	3.91
394.905	3.67
395.113	3.53
395.32	3.19
395.528	3.45
395.735	3.08
395.943	2.86
396.15	2.89
396.358	3.05
396.565	3.28
396.773	4.03
396.98	4.13
397.188	4.58
397.395	4.77
397.602	5.1
397.81	5.1
398.017	5.63
398.225	5.7
398.432	5.43
398.639	5.46
398.847	5.34
399.054	5.19
399.261	4.79
399.468	4.59
399.676	3.87
399.883	3.57
400.09	3.66
400.297	3.66
400.505	4.02
400.712	4.2
400.919	4.18
401.126	4.17
401.333	4.05
401.54	4.37
401.748	4.15
401.955	4.54
402.162	4.6
402.369	4.64
402.576	4.28
402.783	3.9
402.99	3.53
403.197	3.28
403.404	3.27
403.611	3.28
403.818	3.56
404.025	3.58
404.232	3.68
404.439	3.73
404.646	3.84
404.853	3.93
405.06	3.94
405.267	3.92
405.474	4.18
405.681	4.41
405.887	4.37
406.094	3.98
406.301	4.18
406.508	4.06
406.715	4.12
406.922	3.91
407.128	3.79
407.335	3.86
407.542	4.05
407.749	3.77
407.955	3.39
408.162	3.38
408.369	3.56
408.575	3.33
408.782	3.34
408.989	3.36
409.195	3.47
409.402	3.27
409.609	3.14
409.815	3.13
410.022	3.01
410.228	3.53
410.435	3.66
410.642	3.84
410.848	4.12
411.055	4.19
411.261	4.05
411.468	3.91
411.674	4.38
411.881	4.41
412.087	4.45
412.294	4.42
412.5	4.1
412.706	4
412.913	4.08
413.119	4
413.326	3.83
413.532	3.92
413.738	3.82
413.945	3.66
414.151	3.78
414.357	3.85
414.564	3.82
414.77	3.88
414.976	3.63
415.182	3.17
415.389	3.14
415.595	3.31
415.801	3.63
416.007	3.74
416.214	3.94
416.42	3.83
416.626	3.87
416.832	3.89
417.038	3.8
417.244	3.81
417.45	4.02
417.657	3.97
417.863	3.91
418.069	3.73
418.275	3.73
418.481	3.49
418.687	3.38
418.893	3.28
419.099	3.39
419.305	3.28
419.511	3.39
419.717	3.41
419.923	3.32
420.129	3.39
420.335	3.3
420.541	3.25
420.746	3.3
420.952	3.44
421.158	3.47
421.364	3.4
421.57	3.41
421.776	3.34
421.982	3.23
422.187	3.19
422.393	3.12
422.599	3.17
422.805	3.18
423.01	3.18
423.216	3.14
423.422	3.19
423.628	3.27
423.833	3.38
424.039	3.46
424.245	3.42
424.45	3.55
424.656	3.65
424.862	3.77
425.067	4.02
425.273	3.87
425.478	3.81
425.684	3.66
425.889	3.57
426.095	3.61
426.301	3.51
426.506	3.45
426.712	3.29
426.917	3.17
427.123	2.95
427.328	2.57
427.533	2.66
427.739	2.73
427.944	2.81
428.15	2.87
428.355	2.52
428.561	2.76
428.766	2.81
428.971	3.06
429.177	3.02
429.382	2.77
429.587	2.61
429.793	2.95
429.998	2.77
430.203	2.84
430.408	2.71
430.614	2.69
430.819	2.52
431.024	2.73
431.229	2.52
431.434	2.72
431.64	2.62
431.845	2.75
432.05	2.35
432.255	2.49
432.46	2.44
432.665	2.69
432.87	2.98
433.076	3.14
433.281	3.04
433.486	3.11
433.691	2.99
433.896	3.14
434.101	3.34
434.306	3.39
434.511	3.45
434.716	3.39
434.921	3.31
435.126	3.26
435.331	3.09
435.535	3.05
435.74	2.85
435.945	2.78
436.15	2.83
436.355	2.65
436.56	2.88
436.765	2.74
436.97	2.8
437.174	2.85
437.379	2.91
437.584	2.98
437.789	2.94
437.993	3.29
438.198	3.21
438.403	3.37
438.608	3.19
438.812	3.05
439.017	2.98
439.222	3.03
439.426	2.81
439.631	2.65
439.836	2.61
440.04	2.69
440.245	2.56
440.45	2.66
440.654	2.4
440.859	2.52
441.063	2.53
441.268	2.5
441.472	2.45
441.677	2.52
441.881	2.55
442.086	2.47
442.29	2.31
442.495	2.26
442.699	2.21
442.904	2.4
443.108	2.39
443.312	2.33
443.517	2.43
443.721	2.46
443.925	2.48
444.13	2.33
444.334	2.27
444.538	2.45
444.743	2.63
444.947	2.57
445.151	2.61
445.356	2.63
445.56	2.73
445.764	2.85
445.968	2.8
446.173	2.81
446.377	2.74
446.581	2.83
446.785	2.86
446.989	2.62
447.193	2.68
447.398	2.5
447.602	2.57
447.806	2.49
448.01	2.32
448.214	2.31
448.418	2.33
448.622	2.54
448.826	2.47
449.03	2.4
449.234	2.54
449.438	2.48
449.642	2.4
449.846	2.31
450.05	2.34
450.254	2.37
450.458	2.47
450.662	2.35
450.866	2.38
451.069	2.4
451.273	2.4
451.477	2.43
451.681	2.6
451.885	2.84
452.089	3
452.292	2.76
452.496	2.86
452.7	2.68
452.904	2.9
453.107	2.63
453.311	2.75
453.515	2.69
453.719	2.61
453.922	2.61
454.126	2.43
454.33	2.11
454.533	2.28
454.737	2.22
454.94	2.37
455.144	2.16
455.348	2.4
455.551	2.31
455.755	2.36
455.958	2.38
456.162	2.39
456.365	2.66
456.569	2.88
456.772	2.94
456.976	3.07
457.179	3
457.383	3.02
457.586	2.97
457.79	2.96
457.993	2.88
458.196	2.86
458.4	2.85
458.603	2.73
458.807	2.65
459.01	2.65
459.213	2.39
459.417	2.28
459.62	2.34
459.823	2.39
460.026	2.39
460.23	2.41
460.433	2.47
460.636	2.42
460.839	2.37
461.042	2.45
461.246	2.32
461.449	2.39
461.652	2.61
461.855	2.41
462.058	2.42
462.261	2.39
462.464	2.47
462.668	2.26
462.871	2.13
463.074	2.23
463.277	2.14
463.48	2.14
463.683	2.18
463.886	1.95
464.089	2.13
464.292	2.23
464.495	2.08
464.698	1.93
464.901	1.97
465.104	2.11
465.306	2.14
465.509	2
465.712	2.23
465.915	2.11
466.118	2.14
466.321	2.3
466.524	2.21
466.726	2.47
466.929	2.54
467.132	2.6
467.335	2.49
