Data from 2937828_Reflection_2.txt Node
Date: Wed Jul 15 16:56:13 EDT 2015
User: robert
Spectrometer: USB4E03001
Autoset integration time: false
Trigger mode: 4
Integration Time (sec): 1.000000E-1
Scans to average: 10
Electric dark correction enabled: true
Nonlinearity correction enabled: false
Boxcar width: 5
Stray light correction enabled: false
XAxis mode: Wavelengths
Stop averaging: false
Number of Pixels in Spectrum: 3648
>>>>>Begin Spectral Data<<<<<
177.566	91.11
177.785	45.58
178.005	72.74
178.225	5342.86
178.445	16516.67
178.665	114.78
178.885	-36.39
179.105	382.22
179.324	40.09
179.544	110.33
179.764	73.57
179.984	-60.85
180.204	-107.81
180.423	-110.41
180.643	-15.75
180.863	-7.71
181.083	36.63
181.302	-70.81
181.522	-91.37
181.742	24.98
181.961	25.79
182.181	-3.24
182.401	-5.17
182.621	-18.14
182.84	-11.48
183.06	-78.6
183.279	-201.31
183.499	-204.52
183.719	-65.43
183.938	-28.82
184.158	700
184.377	191.25
184.597	3.2
184.816	-7.92
185.036	-101.5
185.256	-18.08
185.475	-201.24
185.695	700
185.914	3731.34
186.134	546.52
186.353	305.79
186.572	186.02
186.792	172.81
187.011	109.79
187.231	84.45
187.45	72.13
187.67	71.29
187.889	65.53
188.108	66.16
188.328	57.9
188.547	51.83
188.766	42.13
188.986	35.13
189.205	69.13
189.424	155.55
189.644	643.97
189.863	-31952.94
190.082	537.06
190.302	277.38
190.521	312.1
190.74	1545
190.959	59.29
191.178	77.82
191.398	66.62
191.617	-136.3
191.836	6.78
192.055	37.44
192.274	-222.02
192.494	1156.44
192.713	214.87
192.932	-185.74
193.151	-50.27
193.37	-54.52
193.589	-94.28
193.808	-104.08
194.027	-139.84
194.246	389.28
194.465	119.06
194.685	11.64
194.904	16.27
195.123	-79.29
195.342	-80.85
195.561	-166.07
195.78	-227.57
195.999	-654.44
196.218	-371.96
196.436	-323.98
196.655	1833.83
196.874	453.09
197.093	194.42
197.312	159.36
197.531	160.7
197.75	149.13
197.969	34.38
198.188	7.1
198.407	-11.38
198.625	-6.83
198.844	5.44
199.063	-84.72
199.282	-173.44
199.501	-4.74
199.719	-94.95
199.938	-254.61
200.157	-123.16
200.376	-91.88
200.594	-209.61
200.813	-132.66
201.032	-95.39
201.251	-120.8
201.469	-18.46
201.688	-30.28
201.907	-37.86
202.125	-54.61
202.344	0.96
202.563	17.44
202.781	-85.24
203	-24.04
203.218	-38.63
203.437	-43.03
203.656	-121.41
203.874	632.9
204.093	436.9
204.311	-176.09
204.53	-631.38
204.748	144.76
204.967	338.62
205.185	337.19
205.404	-299.9
205.622	-795.78
205.841	-363.41
206.059	-162.03
206.278	-200.12
206.496	-164.62
206.715	-838.97
206.933	-1415.25
207.151	-182.21
207.37	-103.75
207.588	-20.39
207.806	-138.48
208.025	-103.8
208.243	-138.36
208.461	-94.76
208.68	-88.42
208.898	-43.21
209.116	7.43
209.335	108.12
209.553	57.41
209.771	124.18
209.989	395.31
210.208	-2693.81
210.426	249.19
210.644	142.53
210.862	115.18
211.081	99.03
211.299	103.31
211.517	126.84
211.735	90.96
211.953	100.53
212.171	60.64
212.39	50.46
212.608	42.69
212.826	34.04
213.044	28.01
213.262	0.82
213.48	-17.06
213.698	-69.24
213.916	-28.38
214.134	-207.33
214.352	145.7
214.57	102.85
214.788	89.97
215.006	54.45
215.224	50.25
215.442	58.2
215.66	30.4
215.878	97.49
216.096	87.07
216.314	136.58
216.532	282.04
216.75	23.32
216.968	-40.13
217.185	84.47
217.403	52.3
217.621	159.51
217.839	392.53
218.057	-2043.78
218.275	-172.24
218.492	-23.69
218.71	-48.19
218.928	-1.51
219.146	100.4
219.363	-143.86
219.581	-858.12
219.799	-3447.62
220.017	-309.62
220.234	-482.18
220.452	-159.3
220.67	-173.15
220.887	-72.34
221.105	-135.4
221.323	-25.34
221.54	-61.28
221.758	14.75
221.976	41.91
222.193	72.79
222.411	34.45
222.629	90.88
222.846	92.99
223.064	78.65
223.281	76.32
223.499	44.62
223.716	71.36
223.934	58.85
224.151	64.36
224.369	48.03
224.586	58.74
224.804	103.66
225.021	49.34
225.239	14.03
225.456	47.85
225.674	39.56
225.891	50.91
226.108	30.42
226.326	64.09
226.543	19.42
226.76	24.73
226.978	12.35
227.195	11.74
227.413	16.97
227.63	12.49
227.847	3.92
228.064	10.89
228.282	12.7
228.499	9.71
228.716	12.76
228.934	17.53
229.151	18.07
229.368	16.86
229.585	13.32
229.802	14.26
230.02	16.27
230.237	13.91
230.454	14.36
230.671	14.45
230.888	14.34
231.105	12.47
231.323	9.01
231.54	3.27
231.757	4.62
231.974	9.87
232.191	6.48
232.408	10.51
232.625	12.21
232.842	10.32
233.059	8.74
233.276	0.72
233.493	-11.77
233.71	-4.52
233.927	1.73
234.144	-0.05
234.361	-9.19
234.578	-13.76
234.795	-25.95
235.012	-12.99
235.229	-13.09
235.446	-5.83
235.663	6.7
235.879	13.07
236.096	16.33
236.313	12.45
236.53	13.84
236.747	23.3
236.964	14.88
237.181	19
237.397	13.94
237.614	13.2
237.831	5.08
238.048	-2.23
238.264	-3.2
238.481	0.21
238.698	-6.07
238.915	-10.37
239.131	-12.82
239.348	-0.65
239.565	-0.2
239.781	1.97
239.998	4.31
240.215	1.37
240.431	5.48
240.648	9.39
240.865	8.52
241.081	10.89
241.298	14.49
241.514	14.09
241.731	15.46
241.947	17.95
242.164	17.27
242.38	15.1
242.597	17.56
242.814	19.43
243.03	18.55
243.246	20.01
243.463	19.51
243.679	16.7
243.896	15.87
244.112	15.14
244.329	13.71
244.545	12.82
244.762	13.53
244.978	14.3
245.194	9.05
245.411	10.18
245.627	8.81
245.843	11.06
246.06	12.98
246.276	14.18
246.492	14.72
246.709	14.66
246.925	14.55
247.141	15.31
247.357	15.34
247.574	17.08
247.79	15.96
248.006	15.01
248.222	14.75
248.439	16.21
248.655	16.07
248.871	15.88
249.087	15.12
249.303	17.03
249.519	16.32
249.736	15.26
249.952	14.58
250.168	14.96
250.384	16.05
250.6	16.42
250.816	15.57
251.032	13.69
251.248	14.87
251.464	16.36
251.68	12.65
251.896	12.09
252.112	13.55
252.328	13.37
252.544	10.46
252.76	9.72
252.976	10.13
253.192	8.3
253.408	10.21
253.624	8.47
253.84	5.73
254.056	7.5
254.272	12.45
254.487	8.2
254.703	4.65
254.919	7.71
255.135	10.66
255.351	9.65
255.567	10.88
255.782	10.4
255.998	11.99
256.214	14.84
256.43	13.14
256.646	8.55
256.861	11.27
257.077	14.04
257.293	13.51
257.508	9.94
257.724	11.59
257.94	11.94
258.155	8.6
258.371	7.33
258.587	6.34
258.802	8.24
259.018	8.29
259.234	9.13
259.449	9.5
259.665	9.98
259.88	11.58
260.096	11.15
260.312	10.92
260.527	11.94
260.743	13.11
260.958	13.21
261.174	13.32
261.389	13.17
261.605	12.44
261.82	12.06
262.036	12.73
262.251	10.09
262.466	8.14
262.682	6.91
262.897	7.93
263.113	5.3
263.328	4.82
263.543	2.64
263.759	4
263.974	4.82
264.189	4.32
264.405	4.4
264.62	4.96
264.835	6.25
265.051	1.94
265.266	3.75
265.481	4.3
265.696	5.05
265.912	3.57
266.127	1.43
266.342	1.5
266.557	1.79
266.773	0.09
266.988	4.22
267.203	4.99
267.418	9.38
267.633	6.93
267.848	7.06
268.064	7.47
268.279	7.06
268.494	5.55
268.709	5.95
268.924	6.5
269.139	6.24
269.354	3.08
269.569	3.41
269.784	2.83
269.999	2.89
270.214	2.76
270.429	1.25
270.644	3.67
270.859	7.87
271.074	7.26
271.289	8.21
271.504	8.46
271.719	10.04
271.934	8.79
272.149	8.47
272.363	9.4
272.578	10.56
272.793	11.61
273.008	11.7
273.223	10.12
273.438	10.98
273.653	10.38
273.867	12.04
274.082	11.37
274.297	12.52
274.512	14.09
274.726	13.08
274.941	12.07
275.156	13.4
275.371	12.42
275.585	13.89
275.8	14.63
276.015	14.07
276.229	12.39
276.444	13.97
276.659	13.73
276.873	12
277.088	12.7
277.302	13.57
277.517	11.99
277.732	13.79
277.946	10.7
278.161	9.45
278.375	9.75
278.59	9.91
278.804	8.81
279.019	8.1
279.233	8.91
279.448	5.97
279.662	6.57
279.877	7.5
280.091	7.06
280.306	10.36
280.52	10.09
280.735	8.4
280.949	9.33
281.163	8.3
281.378	10.12
281.592	7.49
281.806	9.14
282.021	7.57
282.235	6.79
282.449	5.01
282.664	4.66
282.878	5.85
283.092	8.29
283.307	7.35
283.521	8.81
283.735	8.52
283.949	8.42
284.164	9.09
284.378	8.67
284.592	9.46
284.806	8.38
285.02	8.16
285.234	7.44
285.449	5.43
285.663	6.27
285.877	5.98
286.091	6.48
286.305	7.83
286.519	7.7
286.733	8.56
286.947	8.69
287.161	10.35
287.375	11.2
287.589	12.22
287.803	13.96
288.017	12.75
288.231	10.91
288.445	10.26
288.659	11.32
288.873	11.55
289.087	9.39
289.301	9.69
289.515	9.68
289.729	9.37
289.943	8.61
290.157	8.41
290.371	8.2
290.584	10.08
290.798	8.27
291.012	9.03
291.226	8.58
291.44	9.52
291.654	6.67
291.867	6.63
292.081	5.54
292.295	4.08
292.509	2.82
292.722	3.02
292.936	1.39
293.15	4.54
293.364	0.18
293.577	-0.33
293.791	-0.98
294.005	-0.09
294.218	0.4
294.432	1.95
294.645	2.2
294.859	4.45
295.073	5.35
295.286	4.72
295.5	4.74
295.713	8.88
295.927	9.17
296.14	10.15
296.354	11.14
296.568	11.05
296.781	11.66
296.994	12.39
297.208	11.09
297.421	11.47
297.635	12.39
297.848	11.64
298.062	10.21
298.275	9.87
298.489	9.79
298.702	9.62
298.915	9.91
299.129	8.67
299.342	8.13
299.555	9.08
299.769	9.31
299.982	9.66
300.195	9.15
300.409	10.53
300.622	9.36
300.835	10.62
301.048	10.55
301.262	9.62
301.475	8.52
301.688	8.81
301.901	8.26
302.115	7.36
302.328	9.02
302.541	11.9
302.754	11.58
302.967	14.2
303.18	13.01
303.393	12.49
303.607	11.63
303.82	13.53
304.033	13.97
304.246	13.27
304.459	12.52
304.672	8.15
304.885	6.91
305.098	6.5
305.311	7.27
305.524	8.19
305.737	8.87
305.95	11.27
306.163	11.85
306.376	13.07
306.589	15.12
306.802	16.7
307.015	19.32
307.228	18.49
307.44	18.15
307.653	15.57
307.866	14.67
308.079	13.71
308.292	11.74
308.505	11.51
308.718	10.06
308.93	8.76
309.143	8.59
309.356	7.87
309.569	8.21
309.781	8.83
309.994	9.49
310.207	10.27
310.42	11.3
310.632	11.79
310.845	11.65
311.058	10.67
311.27	11.19
311.483	10.35
311.696	11.1
311.908	10.95
312.121	9.86
312.333	9.94
312.546	10.19
312.759	9.75
312.971	10.15
313.184	10.04
313.396	9.58
313.609	8.46
313.821	10.19
314.034	8.66
314.246	7.35
314.459	7.62
314.671	8.03
314.884	6.13
315.096	5.77
315.309	5.3
315.521	6.3
315.733	7.76
315.946	7.96
316.158	6.26
316.371	7.53
316.583	10.14
316.795	7.82
317.008	8.9
317.22	9.6
317.432	10.93
317.644	10.18
317.857	8.35
318.069	9.77
318.281	10.45
318.494	12.85
318.706	11.93
318.918	10.54
319.13	11.25
319.342	10.06
319.555	10.2
319.767	7.8
319.979	8.4
320.191	6.73
320.403	5.78
320.615	2.68
320.827	1.27
321.039	1.73
321.252	2.05
321.464	4.48
321.676	3.43
321.888	4.18
322.1	5.97
322.312	5.18
322.524	6.27
322.736	7.36
322.948	10.37
323.16	11.17
323.372	10.57
323.584	10.55
323.796	10.1
324.007	9.9
324.219	10.14
324.431	10.76
324.643	10.89
324.855	12.52
325.067	11.16
325.279	11.35
325.491	9.64
325.702	11.19
325.914	11.19
326.126	11.06
326.338	12.16
326.55	12.25
326.761	11.15
326.973	12.99
327.185	12.64
327.396	13.12
327.608	12.18
327.82	13.05
328.032	12.54
328.243	13.12
328.455	12.57
328.666	12.54
328.878	15.7
329.09	15.17
329.301	12.8
329.513	13.03
329.725	13.49
329.936	15.08
330.148	15.59
330.359	16.06
330.571	17.56
330.782	16.69
330.994	16.9
331.205	12.59
331.417	11.23
331.628	13.38
331.84	10.61
332.051	10.84
332.262	9.17
332.474	7.25
332.685	5.74
332.897	5.24
333.108	5.77
333.319	6.37
333.531	5.99
333.742	9.33
333.953	9.56
334.165	10.42
334.376	10.67
334.587	12.05
334.799	12.4
335.01	12.86
335.221	12.05
335.432	13.16
335.644	12.91
335.855	12.24
336.066	10.04
336.277	9.44
336.488	10.24
336.7	9.82
336.911	7.56
337.122	8.75
337.333	8.69
337.544	10.68
337.755	10.03
337.966	9.78
338.177	11.07
338.388	11.59
338.599	12.15
338.811	13.11
339.022	13.24
339.233	15.32
339.444	16.09
339.655	16.67
339.866	15.73
340.076	17.18
340.287	16.92
340.498	16.62
340.709	16.37
340.92	14.32
341.131	13.45
341.342	13.76
341.553	12.26
341.764	11.35
341.975	10.42
342.185	10.85
342.396	10.03
342.607	11.43
342.818	11.19
343.029	13.05
343.239	13.66
343.45	11.74
343.661	10.99
343.872	12.31
344.082	12.47
344.293	13.68
344.504	11.67
344.714	12.93
344.925	11.84
345.136	13.74
345.346	13.07
345.557	15.42
345.768	17.34
345.978	18.17
346.189	16.89
346.399	16.09
346.61	16.81
346.821	18.08
347.031	16.69
347.242	15.46
347.452	13.77
347.663	12.34
347.873	11.65
348.084	10.16
348.294	9.55
348.504	10.63
348.715	10.93
348.925	10.78
349.136	10.73
349.346	10.01
349.557	10.81
349.767	11.66
349.977	12.29
350.188	11.39
350.398	12.25
350.608	10.99
350.819	8.95
351.029	10.2
351.239	9.57
351.449	8.17
351.66	8.65
351.87	9.02
352.08	7.8
352.29	9.38
352.501	9.31
352.711	8.47
352.921	9.82
353.131	12.06
353.341	10.13
353.552	8.96
353.762	9.19
353.972	8.52
354.182	8.35
354.392	10.14
354.602	9.52
354.812	9.86
355.022	10.48
355.232	10.57
355.442	10.83
355.652	11.17
355.862	11.67
356.072	12.99
356.282	14.63
356.492	15.06
356.702	13.34
356.912	12.85
357.122	12.64
357.332	13.19
357.542	13.31
357.752	12.98
357.962	14.38
358.171	13.72
358.381	12.46
358.591	10.95
358.801	11.06
359.011	11.77
359.221	12.43
359.43	12.65
359.64	12.51
359.85	12.44
360.06	13
360.269	12.51
360.479	13.44
360.689	14.37
360.899	15.03
361.108	14.85
361.318	15.06
361.528	14.47
361.737	14.73
361.947	14.15
362.156	13.47
362.366	13.11
362.576	12.36
362.785	12.23
362.995	12.15
363.204	12.55
363.414	12.51
363.623	11.98
363.833	12.56
364.042	11.3
364.252	11.44
364.461	12.16
364.671	11.87
364.88	12
365.09	11.69
365.299	11.6
365.509	10.97
365.718	11.27
365.927	11.52
366.137	10.94
366.346	12.86
366.555	13.63
366.765	13.33
366.974	13.46
367.183	14.06
367.393	14.05
367.602	13.74
367.811	13.28
368.021	12.45
368.23	12.05
368.439	11.6
368.648	10.13
368.857	9.79
369.067	10.04
369.276	9.29
369.485	9.96
369.694	9.38
369.903	9.09
370.112	9.69
370.321	9.42
370.531	9.9
370.74	10.48
370.949	11.13
371.158	11.36
371.367	10.49
371.576	10.31
371.785	9.66
371.994	10.53
372.203	10.73
372.412	10.55
372.621	11.68
372.83	11.68
373.039	11.18
373.248	10.02
373.457	8.79
373.666	9.33
373.874	9.15
374.083	8.51
374.292	7.62
374.501	7.19
374.71	7.65
374.919	6.24
375.128	5.78
375.336	6.73
375.545	6.8
375.754	7.58
375.963	8
376.171	8.06
376.38	8.71
376.589	9.43
376.798	10.19
377.006	9.78
377.215	10.19
377.424	10.83
377.632	10.76
377.841	10.93
378.05	11.24
378.258	10.5
378.467	11.06
378.675	10.26
378.884	10.95
379.093	10.78
379.301	10.84
379.51	11.95
379.718	11.85
379.927	12.1
380.135	11.81
380.344	11.61
380.552	11.97
380.761	12.58
380.969	13.55
381.177	12.33
381.386	11.75
381.594	11.71
381.803	10.99
382.011	10.76
382.219	10.25
382.428	10.31
382.636	10.14
382.845	9.72
383.053	9.91
383.261	9.78
383.469	10.59
383.678	10.72
383.886	10.84
384.094	11.2
384.302	11.15
384.511	10.13
384.719	10.27
384.927	10.45
385.135	10.72
385.343	9.88
385.552	9.09
385.76	8.06
385.968	8.4
386.176	8.41
386.384	8.23
386.592	8.15
386.8	8.99
387.008	9.24
387.216	8.21
387.424	8.05
387.633	7.96
387.841	8.13
388.049	8.61
388.257	8.31
388.465	8.01
388.672	7.95
388.88	7.99
389.088	7.73
389.296	7.18
389.504	7.8
389.712	8.2
389.92	8.5
390.128	8.81
390.336	8.55
390.544	8.28
390.751	8.38
390.959	8.39
391.167	8.21
391.375	8.56
391.583	8.53
391.79	8.38
391.998	8.18
392.206	7.64
392.414	7.56
392.621	7.73
392.829	7.65
393.037	7.38
393.244	7.06
393.452	6.88
393.66	6.64
393.867	6.76
394.075	7.03
394.283	6.63
394.49	7.2
394.698	7.09
394.905	6.99
395.113	7.19
395.32	7.4
395.528	7.56
395.735	7.26
395.943	7.11
396.15	7.8
396.358	7.4
396.565	7.49
396.773	6.99
396.98	6.67
397.188	6.46
397.395	6.51
397.602	6.24
397.81	6.05
398.017	6.15
398.225	5.98
398.432	5.12
398.639	5.06
398.847	4.87
399.054	5.07
399.261	5.48
399.468	5.58
399.676	5.51
399.883	5.68
400.09	5.82
400.297	6.29
400.505	6.68
400.712	6.94
400.919	6.99
401.126	7.84
401.333	7.21
401.54	7.03
401.748	7.37
401.955	7.44
402.162	7.79
402.369	7.7
402.576	7.67
402.783	7.39
402.99	7.61
403.197	7.32
403.404	7.24
403.611	7.92
403.818	8.37
404.025	7.92
404.232	7.95
404.439	7.74
404.646	7.57
404.853	7.69
405.06	7.7
405.267	7.7
405.474	8.02
405.681	7.52
405.887	7.42
406.094	7.38
406.301	7.78
406.508	7.61
406.715	7.65
406.922	7.96
407.128	7.78
407.335	8.03
407.542	7.63
407.749	7.34
407.955	7.22
408.162	7.11
408.369	6.52
408.575	6.42
408.782	6.27
408.989	6.4
409.195	6.16
409.402	6.09
409.609	5.81
409.815	5.95
410.022	6.15
410.228	6.26
410.435	6.32
410.642	6.55
410.848	6.69
411.055	6.6
411.261	5.68
411.468	5.51
411.674	5.64
411.881	6.02
412.087	6.18
412.294	6.31
412.5	6.36
412.706	6.15
412.913	6.19
413.119	6.04
413.326	6.5
413.532	7.08
413.738	7.21
413.945	6.91
414.151	6.71
414.357	6.22
414.564	6.1
414.77	6.03
414.976	6.23
415.182	6.17
415.389	5.87
415.595	5.64
415.801	5.64
416.007	5.78
416.214	5.81
416.42	5.52
416.626	5.89
416.832	6.13
417.038	6.54
417.244	6.5
417.45	6.49
417.657	6.74
417.863	6.96
418.069	6.97
418.275	6.93
418.481	6.97
418.687	7.13
418.893	7.06
419.099	7.06
419.305	6.88
419.511	6.91
419.717	7
419.923	6.77
420.129	6.63
420.335	6.69
420.541	6.71
420.746	6.74
420.952	6.83
421.158	6.76
421.364	6.63
421.57	6.63
421.776	6.84
421.982	6.71
422.187	6.92
422.393	7.07
422.599	6.9
422.805	6.81
423.01	6.73
423.216	6.52
423.422	6.63
423.628	6.72
423.833	6.83
424.039	6.67
424.245	6.81
424.45	6.59
424.656	6.5
424.862	6.76
425.067	6.76
425.273	7.11
425.478	7.12
425.684	6.98
425.889	6.86
426.095	6.67
426.301	6.76
426.506	6.68
426.712	6.97
426.917	6.7
427.123	6.42
427.328	6.38
427.533	6.13
427.739	6.28
427.944	6.39
428.15	6.8
428.355	6.83
428.561	6.58
428.766	6.76
428.971	6.49
429.177	6.79
429.382	7.03
429.587	7.07
429.793	6.96
429.998	7.18
430.203	6.8
430.408	6.52
430.614	6.56
430.819	6.73
431.024	6.32
431.229	6.43
431.434	6.33
431.64	6.5
431.845	6.75
432.05	6.72
432.255	6.4
432.46	6.68
432.665	6.67
432.87	6.97
433.076	6.78
433.281	6.97
433.486	7.13
433.691	7.08
433.896	6.75
434.101	6.82
434.306	6.6
434.511	6.98
434.716	7.08
434.921	6.96
435.126	6.67
435.331	6.81
435.535	6.54
435.74	6.4
435.945	6.71
436.15	6.8
436.355	6.66
436.56	6.89
436.765	6.66
436.97	6.54
437.174	6.86
437.379	6.73
437.584	6.47
437.789	6.56
437.993	6.45
438.198	6.13
438.403	6.14
438.608	5.93
438.812	6.03
439.017	6
439.222	6.1
439.426	6.08
439.631	6.12
439.836	6.33
440.04	6.47
440.245	6.67
440.45	6.85
440.654	6.98
440.859	7.15
441.063	7.14
441.268	7.19
441.472	7.3
441.677	7.12
441.881	7.11
442.086	7.01
442.29	7.11
442.495	6.87
442.699	6.88
442.904	6.71
443.108	6.56
443.312	6.51
443.517	6.31
443.721	5.87
443.925	5.97
444.13	5.99
444.334	6.25
444.538	6.33
444.743	6.52
444.947	6.51
445.151	6.51
445.356	6.65
445.56	6.54
445.764	6.82
445.968	7.05
446.173	7.07
446.377	7.03
446.581	6.85
446.785	6.71
446.989	6.73
447.193	6.69
447.398	6.82
447.602	6.74
447.806	6.73
448.01	6.68
448.214	6.54
448.418	6.39
448.622	6.58
448.826	6.45
449.03	6.43
449.234	6.26
449.438	6.01
449.642	5.86
449.846	5.76
450.05	5.86
450.254	5.55
450.458	5.7
450.662	5.71
450.866	5.7
451.069	5.76
451.273	5.65
451.477	5.73
451.681	6.02
451.885	5.87
452.089	5.95
452.292	5.93
452.496	6.11
452.7	6.2
452.904	6.3
453.107	6.14
453.311	6.41
453.515	6.54
453.719	6.44
453.922	6.5
454.126	6.63
454.33	6.48
454.533	6.48
454.737	6.32
454.94	6.35
455.144	6.22
455.348	6.23
455.551	6.18
455.755	5.9
455.958	6.05
456.162	5.73
456.365	5.75
456.569	6.04
456.772	6.07
456.976	6.3
457.179	5.98
457.383	5.87
457.586	6.14
457.79	6.15
457.993	6.35
458.196	6.56
458.4	6.74
458.603	6.84
458.807	6.7
459.01	6.52
459.213	6.44
459.417	6.56
459.62	6.74
459.823	6.67
460.026	6.69
460.23	6.73
460.433	6.65
460.636	6.56
460.839	6.51
461.042	6.68
461.246	6.79
461.449	6.64
461.652	6.63
461.855	6.5
462.058	6.31
462.261	6.31
462.464	6.33
462.668	6.09
462.871	6.24
463.074	6.28
463.277	6.14
463.48	6.08
463.683	6.33
