Data from 2937831_Reflection_1.txt Node
Date: Wed Jul 15 16:45:20 EDT 2015
User: robert
Spectrometer: USB4E03001
Autoset integration time: false
Trigger mode: 4
Integration Time (sec): 1.000000E-1
Scans to average: 10
Electric dark correction enabled: true
Nonlinearity correction enabled: false
Boxcar width: 5
Stray light correction enabled: false
XAxis mode: Wavelengths
Stop averaging: false
Number of Pixels in Spectrum: 3648
>>>>>Begin Spectral Data<<<<<
177.566	-2264.29
177.785	-2598.25
178.005	218.97
178.225	174.19
178.445	64.15
178.665	62.02
178.885	49.8
179.105	408.22
179.324	-328.1
179.544	-269.25
179.764	-220.99
179.984	-227.22
180.204	-66.67
180.423	-270.38
180.643	-236.06
180.863	-146.19
181.083	-254.24
181.302	1913.78
181.522	-1511.11
181.742	233.47
181.961	252.86
182.181	262
182.401	325.91
182.621	228.4
182.84	239.29
183.06	387.98
183.279	809.31
183.499	980.82
183.719	-182.81
183.938	-236.14
184.158	-147.34
184.377	-99.68
184.597	-121.53
184.816	-77.48
185.036	-42.46
185.256	-54.58
185.475	-26.14
185.695	-29.65
185.914	-24.7
186.134	-56.28
186.353	-24.23
186.572	-45.82
186.792	-123.08
187.011	-156.03
187.231	-204.04
187.45	-108.48
187.67	-157.83
187.889	-230.34
188.108	-218.8
188.328	-218.24
188.547	-86.14
188.766	-112.39
188.986	-154.37
189.205	-154.13
189.424	-136.78
189.644	-138.08
189.863	-204.32
190.082	-101.57
190.302	-131.52
190.521	-60.66
190.74	-48.27
190.959	-143.26
191.178	-260.31
191.398	-38.35
191.617	-1.82
191.836	-73.44
192.055	-37.72
192.274	-70.94
192.494	-78.7
192.713	-97.07
192.932	-144.67
193.151	-220.85
193.37	-163
193.589	-61.77
193.808	-75.51
194.027	-33.78
194.246	4.01
194.465	-6.26
194.685	4.84
194.904	-13.72
195.123	7.11
195.342	-6.55
195.561	3.26
195.78	13.46
195.999	11.61
196.218	-1.35
196.436	-16
196.655	-24.78
196.874	-49.46
197.093	-41.94
197.312	-19.81
197.531	-46.21
197.75	-51.62
197.969	-119.82
198.188	-210.03
198.407	-308.95
198.625	-470.41
198.844	-567.64
199.063	-406.65
199.282	-202.24
199.501	-210.66
199.719	-346.49
199.938	-406.91
200.157	-1443.72
200.376	-505.11
200.594	-341.89
200.813	-546.24
201.032	-949.57
201.251	-472.08
201.469	-160.86
201.688	-92.93
201.907	-60.74
202.125	-69.32
202.344	-69.84
202.563	-59.28
202.781	-78.09
203	-56.47
203.218	-79.13
203.437	-46.15
203.656	-42.18
203.874	-124.77
204.093	-228.66
204.311	-377.97
204.53	-320.82
204.748	-245.59
204.967	-298.55
205.185	-217.71
205.404	-482.64
205.622	-262.79
205.841	-344.59
206.059	-755.21
206.278	-502.42
206.496	-279.66
206.715	-141.3
206.933	-106.4
207.151	-87.66
207.37	-70.11
207.588	-65.07
207.806	-23.17
208.025	-18.78
208.243	-17.87
208.461	-0.16
208.68	13.93
208.898	10.78
209.116	-11.91
209.335	-15.56
209.553	-16.18
209.771	-23.4
209.989	-27.46
210.208	-90.73
210.426	-96.58
210.644	-130.16
210.862	-141.67
211.081	-166.77
211.299	-187.9
211.517	-313.58
211.735	-165.19
211.953	-196.9
212.171	-149.18
212.39	-132.33
212.608	-116.48
212.826	-113.28
213.044	-145.78
213.262	-126.32
213.48	-129.41
213.698	-108.8
213.916	-56.22
214.134	-75.89
214.352	-113.46
214.57	-134.06
214.788	-122.93
215.006	-107.95
215.224	-65.06
215.442	-60.72
215.66	-83.22
215.878	-76.71
216.096	-66.23
216.314	-53.65
216.532	-50.49
216.75	-35.53
216.968	-34.13
217.185	-31.36
217.403	-39.44
217.621	-57.3
217.839	-62.93
218.057	-26.53
218.275	-15.9
218.492	-11.87
218.71	-24.56
218.928	-33.08
219.146	-36.9
219.363	-41.31
219.581	-42.13
219.799	3.99
220.017	-4.57
220.234	-8.45
220.452	-31
220.67	-51.03
220.887	-47.31
221.105	-39.98
221.323	-17.71
221.54	1.97
221.758	24.55
221.976	21.35
222.193	-129.16
222.411	-98.07
222.629	33.23
222.846	50.76
223.064	42.31
223.281	25.1
223.499	2.62
223.716	-19.27
223.934	-10.54
224.151	-38.21
224.369	-24.52
224.586	-10.46
224.804	-7.72
225.021	-16.34
225.239	-19.22
225.456	-29.25
225.674	-19.42
225.891	-23.73
226.108	-23.91
226.326	-30.18
226.543	-16.28
226.76	-15
226.978	-10.84
227.195	-6.38
227.413	-3.53
227.63	-2.73
227.847	2.76
228.064	5.54
228.282	9.38
228.499	10.32
228.716	7.16
228.934	9.2
229.151	5.15
229.368	-1.28
229.585	-2.34
229.802	0.71
230.02	3.03
230.237	-1.42
230.454	-4.97
230.671	-5.01
230.888	-3.28
231.105	-5.13
231.323	-2.67
231.54	1
231.757	8.51
231.974	6.03
232.191	2.71
232.408	0.82
232.625	-2.04
232.842	9.11
233.059	7.57
233.276	9.43
233.493	10.77
233.71	4.28
233.927	5.35
234.144	8.23
234.361	10.21
234.578	13.8
234.795	15.25
235.012	19.06
235.229	12.65
235.446	12.3
235.663	8.01
235.879	9.95
236.096	16.87
236.313	15.16
236.53	15.39
236.747	11.35
236.964	-2.15
237.181	-1.13
237.397	4.17
237.614	1.48
237.831	2.13
238.048	3.57
238.264	0.17
238.481	-4.75
238.698	-5.98
238.915	-13.96
239.131	-10.01
239.348	-2.18
239.565	1.4
239.781	-2.63
239.998	-1.23
240.215	-1.22
240.431	-2.41
240.648	-3.08
240.865	-2.41
241.081	3.8
241.298	6.13
241.514	8.97
241.731	9.34
241.947	7.43
242.164	7.52
242.38	9.42
242.597	10.72
242.814	13.92
243.03	16.24
243.246	18.42
243.463	17.28
243.679	16.57
243.896	14.04
244.112	15.59
244.329	14.48
244.545	12.51
244.762	11.01
244.978	7.93
245.194	4.7
245.411	4.46
245.627	2.3
245.843	5.71
246.06	9.33
246.276	9.71
246.492	9.52
246.709	11.88
246.925	13.48
247.141	14.02
247.357	14.75
247.574	13.96
247.79	13.46
248.006	14.62
248.222	13.8
248.439	13.03
248.655	13.79
248.871	14.03
249.087	12.79
249.303	12.9
249.519	12.32
249.736	14.19
249.952	14.13
250.168	13.78
250.384	10.42
250.6	11.44
250.816	10.93
251.032	11.29
251.248	11.07
251.464	11.08
251.68	11.29
251.896	11.69
252.112	10.21
252.328	10.59
252.544	11.52
252.76	10.74
252.976	8.84
253.192	7.87
253.408	6.71
253.624	5.4
253.84	4.68
254.056	0.71
254.272	0.18
254.487	-2.4
254.703	-0.74
254.919	-3.48
255.135	-0.45
255.351	-1.93
255.567	-3.4
255.782	-5.81
255.998	-3.05
256.214	-2.75
256.43	-0.15
256.646	1.24
256.861	-3.67
257.077	-5.87
257.293	-4.98
257.508	-9.66
257.724	-4.77
257.94	-3.86
258.155	-1.6
258.371	-1.14
258.587	-0.11
258.802	2.26
259.018	4.12
259.234	7.96
259.449	8.95
259.665	10.01
259.88	11.43
260.096	10.45
260.312	10.84
260.527	11.23
260.743	11.04
260.958	11.16
261.174	10.89
261.389	9.48
261.605	9.53
261.82	9.88
262.036	9.84
262.251	9.61
262.466	9.08
262.682	9.38
262.897	9.01
263.113	9.96
263.328	10.18
263.543	7.88
263.759	8.58
263.974	5.71
264.189	3.4
264.405	0.96
264.62	1.63
264.835	1.48
265.051	-2.05
265.266	-2.25
265.481	-3.32
265.696	-1.65
265.912	1.01
266.127	1.84
266.342	2.59
266.557	3.05
266.773	4.54
266.988	3.88
267.203	3.46
267.418	4.82
267.633	5.23
267.848	4.93
268.064	2.32
268.279	0.5
268.494	-0.16
268.709	0.11
268.924	-0.77
269.139	-2.37
269.354	-1.13
269.569	-0.61
269.784	0.95
269.999	-0.05
270.214	0.57
270.429	2.73
270.644	5.2
270.859	4.86
271.074	4.89
271.289	6.07
271.504	8.22
271.719	8.7
271.934	9.29
272.149	8.66
272.363	9.51
272.578	9.95
272.793	9.15
273.008	8.16
273.223	9.04
273.438	10.42
273.653	10.52
273.867	9.95
274.082	9.49
274.297	10.13
274.512	8.25
274.726	6.86
274.941	7.35
275.156	7.61
275.371	7.34
275.585	5.85
275.8	4.96
276.015	6.8
276.229	4.71
276.444	4.56
276.659	3.44
276.873	5.66
277.088	6.77
277.302	5.1
277.517	3.57
277.732	3.26
277.946	4.54
278.161	2.53
278.375	1.55
278.59	4.68
278.804	3.29
279.019	2.65
279.233	4.31
279.448	5.22
279.662	6.71
279.877	10.14
280.091	9.1
280.306	8.31
280.52	8.56
280.735	8.2
280.949	6.77
281.163	8.42
281.378	8.42
281.592	6.28
281.806	6.58
282.021	6.6
282.235	4.23
282.449	5.69
282.664	4.93
282.878	5.65
283.092	6.86
283.307	7.52
283.521	6.31
283.735	9.05
283.949	9.26
284.164	7.42
284.378	7.15
284.592	8.94
284.806	8.24
285.02	9.94
285.234	9.22
285.449	7.66
285.663	8.22
285.877	9
286.091	7.75
286.305	8.64
286.519	9.95
286.733	10.37
286.947	9.03
287.161	8.94
287.375	7.57
287.589	7.04
287.803	7.22
288.017	6.13
288.231	5.89
288.445	5.71
288.659	5.96
288.873	3.64
289.087	1.97
289.301	4.42
289.515	5.27
289.729	5.06
289.943	5.55
290.157	6.61
290.371	6.87
290.584	6.57
290.798	7.08
291.012	8.17
291.226	9.08
291.44	9.53
291.654	7.14
291.867	6.66
292.081	5.72
292.295	5.9
292.509	5.24
292.722	5.58
292.936	4.21
293.15	3.25
293.364	0.82
293.577	0.77
293.791	0.79
294.005	-0.49
294.218	0.26
294.432	1.83
294.645	4.39
294.859	4.57
295.073	4.47
295.286	5.51
295.5	4.67
295.713	5.02
295.927	5.6
296.14	6.6
296.354	8.29
296.568	8.63
296.781	9.2
296.994	6.6
297.208	7.1
297.421	7.63
297.635	8.36
297.848	8.85
298.062	8.6
298.275	8.97
298.489	8.73
298.702	9
298.915	7.76
299.129	7.05
299.342	8.78
299.555	9.27
299.769	7.95
299.982	6.58
300.195	6.53
300.409	7.08
300.622	7.87
300.835	10.17
301.048	8.66
301.262	9.8
301.475	11.17
301.688	10.21
301.901	9.21
302.115	10.05
302.328	11.51
302.541	11.7
302.754	9.92
302.967	8.77
303.18	6.43
303.393	7.53
303.607	7.29
303.82	6.19
304.033	6.82
304.246	6.77
304.459	8.26
304.672	7.67
304.885	7.01
305.098	7.85
305.311	8.7
305.524	9.09
305.737	7.39
305.95	7.95
306.163	8.58
306.376	7.75
306.589	8.26
306.802	7.12
307.015	7.72
307.228	7.4
307.44	8.12
307.653	7.68
307.866	6.06
308.079	9.2
308.292	7.95
308.505	6.93
308.718	7.32
308.93	6.25
309.143	7.03
309.356	5.91
309.569	7.61
309.781	9.23
309.994	9.88
310.207	11.31
310.42	8.94
310.632	9.15
310.845	9.74
311.058	10.39
311.27	10.35
311.483	10.13
311.696	9.38
311.908	9.92
312.121	8.04
312.333	7.47
312.546	6.03
312.759	6.25
312.971	5.47
313.184	5.38
313.396	5.8
313.609	4.07
313.821	1.17
314.034	1.75
314.246	-1.29
314.459	0.41
314.671	1.43
314.884	-0.78
315.096	0.12
315.309	2.3
315.521	1.64
315.733	1.6
315.946	2.84
316.158	4.05
316.371	3.62
316.583	4.47
316.795	2.91
317.008	0.23
317.22	2.54
317.432	2.07
317.644	3.22
317.857	4.01
318.069	3.09
318.281	4.18
318.494	3.54
318.706	5.98
318.918	7.8
319.13	9.25
319.342	10.23
319.555	10.54
319.767	11.95
319.979	9.98
320.191	9.74
320.403	10.09
320.615	9.86
320.827	10.58
321.039	10.12
321.252	8.44
321.464	7.52
321.676	7.55
321.888	8.06
322.1	6.21
322.312	5.79
322.524	6.21
322.736	5.01
322.948	5.17
323.16	6.08
323.372	4.47
323.584	4.14
323.796	5.05
324.007	4.92
324.219	4.62
324.431	4.9
324.643	6.37
324.855	6.85
325.067	7.1
325.279	6.54
325.491	5.46
325.702	5.5
325.914	6.25
326.126	6.3
326.338	6.13
326.55	6.52
326.761	6.79
326.973	6.56
327.185	5.41
327.396	5.85
327.608	6.43
327.82	6.12
328.032	8.22
328.243	8.29
328.455	8.11
328.666	8.82
328.878	9.27
329.09	10.07
329.301	8.96
329.513	9.1
329.725	8.76
329.936	7.33
330.148	8.71
330.359	7.42
330.571	6.84
330.782	5.36
330.994	6.58
331.205	7.11
331.417	8.26
331.628	8.71
331.84	9.19
332.051	9.95
332.262	11.62
332.474	12.72
332.685	11.28
332.897	10.34
333.108	12.47
333.319	10.24
333.531	9.56
333.742	8.34
333.953	7.44
334.165	8.66
334.376	8.2
334.587	6.69
334.799	5.41
335.01	7.38
335.221	7.98
335.432	7.33
335.644	7.95
335.855	8.62
336.066	9.11
336.277	9.22
336.488	8.96
336.7	9.57
336.911	9.73
337.122	9.34
337.333	8.45
337.544	9.5
337.755	7.72
337.966	6.76
338.177	5.96
338.388	5.53
338.599	6.05
338.811	4.17
339.022	2.8
339.233	3.52
339.444	2.51
339.655	1.62
339.866	0.78
340.076	0.99
340.287	2.37
340.498	2.17
340.709	1.21
340.92	1.59
341.131	2.13
341.342	3.87
341.553	3.87
341.764	5.43
341.975	6.36
342.185	5.64
342.396	6.44
342.607	6.59
342.818	6.83
343.029	8.66
343.239	9.12
343.45	8.84
343.661	7.74
343.872	6.98
344.082	7.3
344.293	6.9
344.504	7.75
344.714	7.9
344.925	7.28
345.136	7.98
345.346	7.38
345.557	7.28
345.768	6.65
345.978	7.42
346.189	8.56
346.399	7.71
346.61	8.31
346.821	7.69
347.031	7.99
347.242	8.77
347.452	7.48
347.663	6.62
347.873	7.64
348.084	8.42
348.294	7.29
348.504	6.72
348.715	6.64
348.925	5.94
349.136	7
349.346	6.17
349.557	6.6
349.767	7.71
349.977	7.76
350.188	5.85
350.398	6.9
350.608	6.86
350.819	7.07
351.029	6.72
351.239	6.61
351.449	5.64
351.66	4.75
351.87	3.37
352.08	3.14
352.29	2.77
352.501	3.38
352.711	2.51
352.921	3.2
353.131	3.01
353.341	4.53
353.552	5.32
353.762	4.96
353.972	7.06
354.182	6.72
354.392	6.63
354.602	6.46
354.812	4.66
355.022	5.28
355.232	5.82
355.442	6.18
355.652	5.85
355.862	4.59
356.072	5.05
356.282	4.85
356.492	5.84
356.702	4.69
356.912	5.28
357.122	5.42
357.332	5.43
357.542	4.49
357.752	4.09
357.962	4.22
358.171	5.9
358.381	6.45
358.591	5.48
358.801	5.12
359.011	5.22
359.221	5.65
359.43	6.65
359.64	6.13
359.85	5.65
360.06	6.12
360.269	5.29
360.479	5.88
360.689	5.98
360.899	6.71
361.108	6.82
361.318	6.83
361.528	6.17
361.737	6.15
361.947	5.67
362.156	6.43
362.366	6.13
362.576	6.59
362.785	5.68
362.995	5.64
363.204	5.24
363.414	4.88
363.623	5.52
363.833	6.04
364.042	6.46
364.252	7.4
364.461	6.84
364.671	7.04
364.88	6.57
365.09	6.53
365.299	6.17
365.509	6.63
365.718	7.26
365.927	6.85
366.137	6.58
366.346	6.75
366.555	6.49
366.765	6.4
366.974	6.54
367.183	7.54
367.393	6.8
367.602	6.33
367.811	5.91
368.021	5.77
368.23	6.47
368.439	5.37
368.648	4.45
368.857	3.69
369.067	4.44
369.276	4.46
369.485	3.73
369.694	4.05
369.903	4.24
370.112	3.42
370.321	3.52
370.531	2.79
370.74	3.59
370.949	4.47
371.158	4.63
371.367	5.17
371.576	4.72
371.785	4.64
371.994	4.5
372.203	4.56
372.412	5.43
372.621	4.86
372.83	4.8
373.039	5.5
373.248	4.83
373.457	4.74
373.666	3.82
373.874	3.53
374.083	3.5
374.292	3.93
374.501	4.09
374.71	3.7
374.919	3.64
375.128	4
375.336	3.85
375.545	3.6
375.754	4.53
375.963	4.96
376.171	5.18
376.38	5.74
376.589	5.42
376.798	6.49
377.006	6.5
377.215	7.03
377.424	7.1
377.632	7.21
377.841	7.42
378.05	6.85
378.258	6.65
378.467	6.69
378.675	5.95
378.884	6.48
379.093	5.11
379.301	5.79
379.51	5.23
379.718	4.78
379.927	4.48
380.135	4.48
380.344	4.81
380.552	4.45
380.761	4.77
380.969	5.35
381.177	5.6
381.386	5.56
381.594	4.95
381.803	5.08
382.011	5.37
382.219	5.06
382.428	4.47
382.636	3.75
382.845	3.88
383.053	4.2
383.261	4.32
383.469	3.68
383.678	3.61
383.886	3.93
384.094	4.16
384.302	4.13
384.511	4.52
384.719	4.52
384.927	4.92
385.135	4.75
385.343	4.29
385.552	3.63
385.76	3.39
385.968	3.81
386.176	3.65
386.384	3.38
386.592	3.44
386.8	3.14
387.008	3.57
387.216	3.46
387.424	4.3
387.633	3.91
387.841	3.93
388.049	3.67
388.257	3.36
388.465	3.3
388.672	3.07
388.88	2.89
389.088	3.41
389.296	3.54
389.504	3.53
389.712	2.93
389.92	2.98
390.128	3.12
390.336	3.66
390.544	3.8
390.751	3.25
390.959	3.27
391.167	3.58
391.375	3.39
391.583	3.58
391.79	3.52
391.998	3.5
392.206	3.46
392.414	3.65
392.621	3.39
392.829	3.79
393.037	4.24
393.244	4.32
393.452	4.09
393.66	3.97
393.867	3.78
394.075	4.05
394.283	3.66
394.49	3.71
394.698	3.84
394.905	3.82
395.113	3.56
395.32	3.4
395.528	3.6
395.735	3.71
395.943	3.55
396.15	3.52
396.358	3.72
396.565	3.93
396.773	3.71
396.98	3.75
397.188	4.02
397.395	3.96
397.602	4.02
397.81	3.87
398.017	3.85
398.225	3.92
398.432	3.69
398.639	3.24
398.847	3.54
399.054	3.58
399.261	3.49
399.468	3.41
399.676	3.03
399.883	2.9
400.09	2.86
400.297	2.55
400.505	2.24
400.712	2.6
400.919	2.86
401.126	2.77
401.333	2.95
401.54	2.66
401.748	2.7
401.955	2.85
402.162	3.13
402.369	3.13
402.576	3.16
402.783	3.15
402.99	2.87
403.197	2.5
403.404	2.51
403.611	2.49
403.818	2.56
404.025	2.52
404.232	2.27
404.439	2.15
404.646	2.43
404.853	2.69
405.06	3.17
405.267	3.33
405.474	3.39
405.681	3.23
405.887	3.35
406.094	3.45
406.301	3.54
406.508	3.95
406.715	3.88
406.922	3.61
407.128	3.7
407.335	3.67
407.542	3.89
407.749	4.11
407.955	4.19
408.162	4.01
408.369	3.85
408.575	3.53
408.782	3.74
408.989	3.85
409.195	3.68
409.402	3.36
409.609	3.25
409.815	3.09
410.022	2.94
410.228	3.14
410.435	3.55
410.642	3.59
410.848	3.59
411.055	3.06
411.261	3.3
411.468	3.51
411.674	3.61
411.881	3.59
412.087	3.56
412.294	3.74
412.5	3.85
412.706	3.61
412.913	3.38
413.119	3.53
413.326	3.73
413.532	3.42
413.738	3.2
413.945	3.22
414.151	3.43
414.357	3.46
414.564	3.49
414.77	3.3
414.976	3.31
415.182	3.61
415.389	3.53
415.595	3.49
415.801	3.93
416.007	4.19
416.214	3.85
416.42	3.42
416.626	3.46
416.832	3.41
417.038	3.24
417.244	3.13
417.45	2.92
417.657	3.28
417.863	3.48
418.069	3.16
418.275	3.06
418.481	3.29
418.687	3.45
418.893	3.37
419.099	3.27
419.305	3.48
419.511	3.56
419.717	3.75
419.923	3.59
420.129	3.59
420.335	3.54
420.541	3.52
420.746	3.61
420.952	3.58
421.158	3.55
421.364	3.44
421.57	3.23
421.776	3.23
421.982	3.1
422.187	3.08
422.393	3.03
422.599	3.13
422.805	3.19
423.01	3.09
423.216	2.94
423.422	3.03
423.628	3.07
423.833	3.19
424.039	3.06
424.245	3.13
424.45	3.13
424.656	3.06
424.862	3.08
425.067	3.15
425.273	3.23
425.478	3.33
425.684	3.33
425.889	3.53
426.095	3.57
426.301	3.77
426.506	3.83
426.712	3.81
426.917	3.87
427.123	3.67
427.328	3.82
427.533	3.64
427.739	3.51
427.944	3.37
428.15	3.07
428.355	2.99
428.561	3.09
428.766	3.05
428.971	3.09
429.177	3.16
429.382	3.3
429.587	2.81
429.793	3
429.998	3.18
430.203	2.96
430.408	2.86
430.614	2.79
430.819	2.48
431.024	2.67
431.229	2.64
431.434	2.53
431.64	2.73
431.845	2.9
432.05	2.75
432.255	2.83
432.46	3.11
432.665	3.15
432.87	3.16
433.076	3.26
433.281	3.16
433.486	3.14
433.691	3.16
433.896	2.86
434.101	2.8
434.306	2.77
434.511	2.78
434.716	2.78
434.921	2.98
435.126	2.95
435.331	2.92
435.535	2.65
435.74	2.46
435.945	2.36
436.15	2.49
436.355	2.63
436.56	2.8
436.765	2.71
436.97	2.45
437.174	2.25
437.379	2.09
437.584	2.24
437.789	2.44
437.993	2.65
438.198	2.57
438.403	2.59
438.608	2.39
438.812	2.16
439.017	2.11
439.222	2.31
439.426	2.36
439.631	2.39
439.836	2.32
440.04	2.31
440.245	2.28
440.45	2.49
440.654	2.56
440.859	2.63
441.063	2.65
441.268	2.67
441.472	2.65
441.677	2.81
441.881	3.15
442.086	3.1
442.29	3.07
442.495	3.12
442.699	2.88
442.904	2.82
443.108	2.86
443.312	3.1
443.517	3.28
443.721	3.29
443.925	3.24
444.13	2.9
444.334	2.92
444.538	3.05
444.743	2.92
444.947	3.06
445.151	3
445.356	3.18
445.56	3.11
445.764	3.12
445.968	3.14
446.173	3.18
446.377	3.27
446.581	3.2
446.785	3.16
446.989	3.34
447.193	3.43
447.398	3.51
447.602	3.31
447.806	3.41
448.01	3.23
448.214	3.24
448.418	3.2
448.622	3.21
448.826	3.32
449.03	3.25
449.234	3.11
449.438	3.2
449.642	3.14
449.846	3.32
450.05	3.12
450.254	3.1
450.458	3
450.662	3.11
450.866	3.21
451.069	3.25
451.273	3.46
451.477	3.45
451.681	3.15
451.885	3.19
452.089	2.92
452.292	2.93
452.496	3.11
452.7	2.88
452.904	2.61
453.107	2.6
453.311	2.52
453.515	2.38
453.719	2.26
453.922	2.39
454.126	2.22
454.33	2.44
454.533	2.52
454.737	2.38
454.94	2.66
455.144	2.63
455.348	2.35
455.551	2.14
455.755	1.93
455.958	2.1
456.162	1.78
456.365	1.78
456.569	1.67
456.772	1.51
456.976	1.53
457.179	1.64
457.383	1.69
457.586	1.73
457.79	1.98
457.993	2.06
458.196	1.88
458.4	2.08
458.603	2.2
458.807	2.24
459.01	2.26
459.213	2.27
459.417	2.35
459.62	2.42
459.823	2.61
460.026	2.59
460.23	2.7
460.433	2.92
460.636	3.06
460.839	2.95
461.042	3.01
461.246	3.02
461.449	3
461.652	2.87
461.855	2.88
462.058	2.77
462.261	2.69
462.464	2.57
462.668	2.42
462.871	2.31
463.074	2.55
463.277	2.59
463.48	2.74
463.683	2.82
463.886	3.03
464.089	2.85
464.292	2.92
464.495	2.75
464.698	2.88
464.901	2.96
465.104	2.86
465.306	2.62
465.509	2.55
465.712	2.37
465.915	2.5
466.118	2.27
466.321	2.18
466.524	2.04
466.726	2.18
466.929	2.07
467.132	1.79
