Data from 2937867_Reflection_1.txt Node
Date: Wed Jul 15 15:07:15 EDT 2015
User: robert
Spectrometer: USB4E03001
Autoset integration time: false
Trigger mode: 4
Integration Time (sec): 1.000000E-1
Scans to average: 10
Electric dark correction enabled: true
Nonlinearity correction enabled: false
Boxcar width: 5
Stray light correction enabled: false
XAxis mode: Wavelengths
Stop averaging: false
Number of Pixels in Spectrum: 3648
>>>>>Begin Spectral Data<<<<<
177.566	-1284.3
177.785	-577.16
178.005	1709.31
178.225	729.51
178.445	327.09
178.665	582.37
178.885	175.08
179.105	1160
179.324	-123.34
179.544	-55.54
179.764	-43.19
179.984	-12.01
180.204	-9.55
180.423	-24.52
180.643	-7.75
180.863	-35.14
181.083	-91.2
181.302	-94.68
181.522	14.06
181.742	15.59
181.961	-437.06
182.181	-139.09
182.401	-90.84
182.621	-3.81
182.84	-32.74
183.06	-11.52
183.279	-14.6
183.499	-54.83
183.719	-65.26
183.938	-41.22
184.158	-47.64
184.377	-53.91
184.597	-35.34
184.816	-5.17
185.036	-32.38
185.256	-49.5
185.475	-4.97
185.695	341.43
185.914	94.73
186.134	13.82
186.353	50.9
186.572	-15.34
186.792	-10.67
187.011	43.61
187.231	62.87
187.45	63.8
187.67	-15.94
187.889	16.99
188.108	69.61
188.328	57.45
188.547	56.83
188.766	178.78
188.986	72.49
189.205	102.3
189.424	60.06
189.644	110.06
189.863	231.8
190.082	98.08
190.302	-6900
190.521	-182.74
190.74	49.69
190.959	104.1
191.178	84.14
191.398	83.03
191.617	75.45
191.836	53.76
192.055	35.59
192.274	34.98
192.494	65.7
192.713	7.91
192.932	-20.72
193.151	-58.48
193.37	-71.03
193.589	-512.57
193.808	-1314.98
194.027	143.18
194.246	94.15
194.465	92.49
194.685	72.12
194.904	129.04
195.123	67.84
195.342	57.51
195.561	87.82
195.78	89.12
195.999	79.54
196.218	41.88
196.436	42.53
196.655	24.91
196.874	-13.75
197.093	26.14
197.312	-0.95
197.531	-1.03
197.75	-20.26
197.969	-29.19
198.188	-39.36
198.407	-11.48
198.625	-4.98
198.844	-57.75
199.063	-36.97
199.282	-10.7
199.501	-50.11
199.719	18.28
199.938	42.2
200.157	240.99
200.376	67.77
200.594	90.76
200.813	43.97
201.032	221.07
201.251	1150.97
201.469	-273.67
201.688	112.45
201.907	171.56
202.125	188.78
202.344	217.48
202.563	145.12
202.781	198.68
203	205.53
203.218	296.95
203.437	223.53
203.656	1024.12
203.874	-1084.77
204.093	-280.14
204.311	-111.89
204.53	-46.2
204.748	-58.97
204.967	-73.58
205.185	-28.08
205.404	-22.58
205.622	-64.39
205.841	-131.64
206.059	-451.23
206.278	4739.06
206.496	330.58
206.715	152.97
206.933	988.35
207.151	-914.77
207.37	-753.62
207.588	-203.56
207.806	-62.12
208.025	-121.64
208.243	2038.28
208.461	1109.46
208.68	225.34
208.898	331.5
209.116	254.16
209.335	0.91
209.553	192.51
209.771	1100.86
209.989	135.34
210.208	-63
210.426	-905.56
210.644	90.88
210.862	657.98
211.081	255.1
211.299	-1608.24
211.517	-566.42
211.735	-72.14
211.953	-75.98
212.171	-25.32
212.39	12.68
212.608	69.74
212.826	95.06
213.044	-111.11
213.262	-108.68
213.48	1148.8
213.698	-311.95
213.916	-48.49
214.134	-52.44
214.352	-59.46
214.57	28.58
214.788	46.04
215.006	153.6
215.224	55.49
215.442	22.14
215.66	49.59
215.878	63.39
216.096	132.96
216.314	107.51
216.532	129.73
216.75	73.44
216.968	116.89
217.185	97.06
217.403	123.97
217.621	381.95
217.839	428.34
218.057	347.84
218.275	-64.18
218.492	-90.08
218.71	-18.99
218.928	55.88
219.146	76.73
219.363	106.54
219.581	124.78
219.799	148.56
220.017	135.84
220.234	155.41
220.452	204.98
220.67	212.35
220.887	182.93
221.105	207.74
221.323	614.36
221.54	-504.86
221.758	-64.46
221.976	-9.8
222.193	15.27
222.411	0.52
222.629	-12.71
222.846	-8.64
223.064	11.65
223.281	-2.65
223.499	16.73
223.716	80.51
223.934	103.6
224.151	127.45
224.369	66.19
224.586	47.11
224.804	-66.46
225.021	17.59
225.239	31.88
225.456	68.03
225.674	115.07
225.891	68.87
226.108	-39.17
226.326	-139.63
226.543	-347.32
226.76	-297.72
226.978	-161.03
227.195	-48.65
227.413	-27.81
227.63	-10.97
227.847	-38.83
228.064	-14.05
228.282	-5.21
228.499	9.27
228.716	9.42
228.934	7.63
229.151	15.1
229.368	17.55
229.585	20.54
229.802	18.54
230.02	18.33
230.237	21.81
230.454	17.38
230.671	18.63
230.888	16.77
231.105	23.68
231.323	20.49
231.54	13.42
231.757	15.19
231.974	7.99
232.191	13.55
232.408	7.51
232.625	-2.2
232.842	-4.06
233.059	-7.17
233.276	-20.7
233.493	-24.36
233.71	-3.3
233.927	-1.6
234.144	2.29
234.361	10.69
234.578	15.92
234.795	20.98
235.012	23.55
235.229	29.08
235.446	38.44
235.663	43.75
235.879	43.18
236.096	39.02
236.313	43.21
236.53	43.84
236.747	43.51
236.964	36.66
237.181	33.22
237.397	37.09
237.614	29.15
237.831	14.69
238.048	9.64
238.264	8.44
238.481	-6.43
238.698	-4.22
238.915	-11.35
239.131	-10.06
239.348	3.7
239.565	12.69
239.781	9.7
239.998	8.98
240.215	12.95
240.431	11.33
240.648	9.28
240.865	15.48
241.081	14.11
241.298	14.26
241.514	15.76
241.731	12.72
241.947	10.9
242.164	12.13
242.38	12.52
242.597	12.32
242.814	14.52
243.03	18.26
243.246	17.07
243.463	17.22
243.679	20.11
243.896	18.71
244.112	18.65
244.329	20.83
244.545	20.46
244.762	22.18
244.978	21.17
245.194	20.58
245.411	17.64
245.627	19.37
245.843	20.3
246.06	18.16
246.276	17.57
246.492	17.67
246.709	17.11
246.925	17.21
247.141	16.73
247.357	17.12
247.574	16.58
247.79	17.55
248.006	17.93
248.222	16.97
248.439	16.5
248.655	16.77
248.871	16.98
249.087	17.27
249.303	16.79
249.519	18
249.736	21.64
249.952	22.6
250.168	20.11
250.384	19.98
250.6	19.88
250.816	20.59
251.032	20.4
251.248	18.23
251.464	17.28
251.68	16.07
251.896	14.12
252.112	9.69
252.328	7.5
252.544	8.42
252.76	7.49
252.976	7.72
253.192	8.13
253.408	6.8
253.624	10.89
253.84	10.63
254.056	10.23
254.272	9.03
254.487	10.92
254.703	14.41
254.919	14.02
255.135	12.49
255.351	15.21
255.567	15.89
255.782	20.1
255.998	16.79
256.214	16.05
256.43	18.57
256.646	21.43
256.861	16.47
257.077	14.43
257.293	14.23
257.508	15.69
257.724	11
257.94	8.15
258.155	3.37
258.371	4.89
258.587	7.18
258.802	9.77
259.018	10.69
259.234	12.42
259.449	12.63
259.665	12.13
259.88	11.48
260.096	12.14
260.312	12.63
260.527	14.02
260.743	13.77
260.958	12.63
261.174	11.16
261.389	11.1
261.605	9.74
261.82	9.9
262.036	10.87
262.251	11.56
262.466	11.34
262.682	10.17
262.897	9.49
263.113	9.15
263.328	10.01
263.543	11.87
263.759	9.72
263.974	9.15
264.189	5.98
264.405	1.56
264.62	-1.21
264.835	-3.65
265.051	-0.75
265.266	-0.07
265.481	-4.64
265.696	-5.32
265.912	-5.62
266.127	-3.01
266.342	0.74
266.557	2.46
266.773	4.03
266.988	7.92
267.203	8.93
267.418	7.04
267.633	8.32
267.848	13.07
268.064	14.38
268.279	13.81
268.494	12.76
268.709	12.21
268.924	13.29
269.139	14.33
269.354	12.33
269.569	14.31
269.784	15.35
269.999	13.22
270.214	11.59
270.429	11.59
270.644	11.13
270.859	10.38
271.074	11.12
271.289	12.12
271.504	11.75
271.719	12.53
271.934	12.21
272.149	11.48
272.363	12.45
272.578	13.29
272.793	12.42
273.008	11.47
273.223	12.03
273.438	11.83
273.653	9.86
273.867	9.07
274.082	7.8
274.297	5.99
274.512	6.61
274.726	4.1
274.941	2.88
275.156	3.12
275.371	3.17
275.585	2.62
275.8	3.24
276.015	5.23
276.229	5.69
276.444	5.63
276.659	5.88
276.873	3.62
277.088	5.94
277.302	4.44
277.517	4.58
277.732	6.91
277.946	7.63
278.161	8.51
278.375	5.56
278.59	8.54
278.804	8.07
279.019	7.58
279.233	10.2
279.448	8.84
279.662	9.27
279.877	11.22
280.091	12.26
280.306	14.61
280.52	10.56
280.735	12.23
280.949	10.08
281.163	11.16
281.378	11.02
281.592	10.18
281.806	11.63
282.021	10.47
282.235	8.82
282.449	8.66
282.664	7.96
282.878	10.08
283.092	9.27
283.307	10.05
283.521	10.3
283.735	11.54
283.949	11.41
284.164	11.11
284.378	12.29
284.592	12.34
284.806	10.43
285.02	10.18
285.234	10.9
285.449	10.48
285.663	9.77
285.877	9.47
286.091	8.61
286.305	8.17
286.519	7.37
286.733	8.15
286.947	7.19
287.161	8.49
287.375	8.48
287.589	7.63
287.803	8.42
288.017	9.18
288.231	7.78
288.445	9.52
288.659	11.53
288.873	11.66
289.087	11.85
289.301	13.25
289.515	12.33
289.729	11.16
289.943	12.69
290.157	12.93
290.371	12.61
290.584	13.73
290.798	13.96
291.012	12.54
291.226	12.64
291.44	13.06
291.654	11.72
291.867	11.48
292.081	11.69
292.295	8.46
292.509	8.79
292.722	8.76
292.936	8.06
293.15	5.97
293.364	6.32
293.577	6.3
293.791	4.76
294.005	6.34
294.218	6.53
294.432	7.77
294.645	8.59
294.859	8.5
295.073	7.14
295.286	7.97
295.5	8.3
295.713	8.05
295.927	9.39
296.14	9.33
296.354	8.74
296.568	9.63
296.781	11.02
296.994	11.43
297.208	12.28
297.421	13.58
297.635	12.5
297.848	12.53
298.062	12.94
298.275	13.46
298.489	13.84
298.702	14.39
298.915	14.16
299.129	11.51
299.342	10.74
299.555	10.09
299.769	8.7
299.982	11.33
300.195	10.17
300.409	9.57
300.622	8.2
300.835	7.95
301.048	7.48
301.262	6.51
301.475	8.07
301.688	10.16
301.901	9.33
302.115	10.78
302.328	9.32
302.541	11.81
302.754	11.45
302.967	12.89
303.18	14.62
303.393	14.35
303.607	15.08
303.82	14.53
304.033	15.09
304.246	15.44
304.459	16.86
304.672	17.98
304.885	15.65
305.098	17.56
305.311	15.92
305.524	14.08
305.737	14.84
305.95	16.37
306.163	18.32
306.376	15.96
306.589	15.93
306.802	13.6
307.015	11.67
307.228	12.46
307.44	12.66
307.653	13.51
307.866	15.24
308.079	15.25
308.292	14.01
308.505	13.97
308.718	14.96
308.93	16.64
309.143	16.14
309.356	17.33
309.569	16.88
309.781	15.05
309.994	15.13
310.207	14.05
310.42	15.28
310.632	15.79
310.845	14.95
311.058	14.77
311.27	12.5
311.483	11.79
311.696	10.64
311.908	11.28
312.121	11.18
312.333	10.26
312.546	10.77
312.759	9.88
312.971	9.56
313.184	6.18
313.396	5.92
313.609	7.57
313.821	8.8
314.034	7.69
314.246	6.29
314.459	7.34
314.671	6.92
314.884	4.56
315.096	3.48
315.309	3.43
315.521	7.44
315.733	5.59
315.946	5.04
316.158	5.84
316.371	9.01
316.583	10.26
316.795	9.37
317.008	9.58
317.22	12.14
317.432	12.66
317.644	11.34
317.857	10.48
318.069	9.99
318.281	10.08
318.494	10.44
318.706	10.9
318.918	11.77
319.13	10.64
319.342	9.36
319.555	9.17
319.767	6.3
319.979	5.91
320.191	6.73
320.403	9.36
320.615	7.6
320.827	8.09
321.039	6.45
321.252	5.5
321.464	7.38
321.676	10.64
321.888	7.95
322.1	12.51
322.312	14.43
322.524	14.51
322.736	11.3
322.948	11.59
323.16	9.28
323.372	9.54
323.584	8.45
323.796	10.24
324.007	9.56
324.219	11.12
324.431	10.98
324.643	9.8
324.855	9.47
325.067	11.8
325.279	11.69
325.491	13.44
325.702	14.52
325.914	16.05
326.126	15.37
326.338	15.16
326.55	16.5
326.761	14.61
326.973	13.94
327.185	12.44
327.396	11.94
327.608	13.37
327.82	12.36
328.032	12.97
328.243	13.72
328.455	13.44
328.666	12.58
328.878	11.88
329.09	12.75
329.301	14.33
329.513	17.26
329.725	20.29
329.936	21.07
330.148	21.39
330.359	21.24
330.571	20.22
330.782	18.97
330.994	20.29
331.205	19.43
331.417	20.78
331.628	20.42
331.84	20.58
332.051	18.88
332.262	17.48
332.474	18.5
332.685	16.78
332.897	17.27
333.108	20.4
333.319	20.5
333.531	22.84
333.742	22.71
333.953	21.68
334.165	20.63
334.376	21.73
334.587	22.28
334.799	22.18
335.01	22.86
335.221	24.48
335.432	23.07
335.644	22.72
335.855	21.86
336.066	22.49
336.277	24.16
336.488	24.19
336.7	23.67
336.911	23.47
337.122	23.77
337.333	23.67
337.544	23.26
337.755	23.03
337.966	23.65
338.177	23.77
338.388	23.66
338.599	24.7
338.811	23.01
339.022	22.19
339.233	22.93
339.444	21.59
339.655	22.49
339.866	21.86
340.076	21.92
340.287	21.8
340.498	20.92
340.709	19.39
340.92	17.5
341.131	19.42
341.342	19.97
341.553	18.83
341.764	20.88
341.975	20.05
342.185	20.63
342.396	20.11
342.607	20.88
342.818	20.21
343.029	21.38
343.239	21.42
343.45	20.35
343.661	19.42
343.872	19.15
344.082	18.19
344.293	17.83
344.504	17.3
344.714	18.64
344.925	17.6
345.136	17.91
345.346	17.74
345.557	19.38
345.768	20.33
345.978	21.54
346.189	22.64
346.399	23.77
346.61	24.79
346.821	25.12
347.031	25.27
347.242	26.29
347.452	25.2
347.663	25.65
347.873	24.92
348.084	24.47
348.294	22.84
348.504	21.79
348.715	21.03
348.925	18.5
349.136	17.67
349.346	15.68
349.557	14.47
349.767	16.25
349.977	16.02
350.188	15.25
350.398	15.37
350.608	16.25
350.819	16.38
351.029	15.28
351.239	16.99
351.449	17.33
351.66	18.75
351.87	18.13
352.08	19.94
352.29	20.27
352.501	19.72
352.711	19.5
352.921	20.66
353.131	20.49
353.341	20.34
353.552	20.92
353.762	20.02
353.972	19.32
354.182	19.87
354.392	19.27
354.602	18.54
354.812	19.45
355.022	20.35
355.232	19.67
355.442	19.71
355.652	20.12
355.862	20.2
356.072	21
356.282	20.4
356.492	19.36
356.702	18.56
356.912	17.49
357.122	16.43
357.332	16.52
357.542	15.96
357.752	16.43
357.962	15.76
358.171	16.81
358.381	16.34
358.591	17.1
358.801	18.44
359.011	19.33
359.221	21.03
359.43	21.76
359.64	21.59
359.85	22.21
360.06	22.1
360.269	22.77
360.479	21.35
360.689	21.74
360.899	21.39
361.108	21.68
361.318	21.01
361.528	20.42
361.737	21.37
361.947	20.89
362.156	20.64
362.366	21.06
362.576	21.17
362.785	21.77
362.995	21.34
363.204	21.69
363.414	21.14
363.623	21.98
363.833	21.5
364.042	20.72
364.252	20.76
364.461	20.34
364.671	20.66
364.88	20.71
365.09	20.07
365.299	20.16
365.509	20.01
365.718	20.29
365.927	18.77
366.137	19.69
366.346	18.93
366.555	18.89
366.765	19.76
366.974	18.66
367.183	17.78
367.393	17.26
367.602	18.25
367.811	17.61
368.021	17.35
368.23	18.45
368.439	18.11
368.648	18.4
368.857	17.92
369.067	17.01
369.276	16.9
369.485	16.76
369.694	17.01
369.903	15.75
370.112	16.03
370.321	16.04
370.531	16.05
370.74	15.28
370.949	16.2
371.158	16.82
371.367	16.98
371.576	17.54
371.785	18.36
371.994	18.32
372.203	19.48
372.412	20.14
372.621	20.03
372.83	19.63
373.039	19.93
373.248	18.7
373.457	18.8
373.666	18.88
373.874	18.27
374.083	17.37
374.292	17.36
374.501	16.71
374.71	15.74
374.919	15.54
375.128	15.72
375.336	15.79
375.545	15.95
375.754	16.57
375.963	15.65
376.171	16.11
376.38	16.78
376.589	16.4
376.798	16
377.006	16.72
377.215	16.67
377.424	16.26
377.632	15.97
377.841	15.84
378.05	14.88
378.258	15.71
378.467	15.51
378.675	15.15
378.884	15.59
379.093	15.59
379.301	14.85
379.51	14.56
379.718	14.34
379.927	14.74
380.135	14.92
380.344	15.1
380.552	13.34
380.761	13.76
380.969	13.67
381.177	13.15
381.386	13.28
381.594	13.47
381.803	13.02
382.011	13.08
382.219	12.63
382.428	12.8
382.636	12.06
382.845	13.32
383.053	12.74
383.261	12.47
383.469	12.75
383.678	12.33
383.886	11.94
384.094	12.56
384.302	12.68
384.511	13.02
384.719	12.14
384.927	12.84
385.135	13.09
385.343	13.04
385.552	13.2
385.76	13.23
385.968	12.85
386.176	12.65
386.384	12.19
386.592	11.84
386.8	11.52
387.008	11.67
387.216	11.41
387.424	11.3
387.633	11.13
387.841	10.79
388.049	10.47
388.257	10.78
388.465	11.23
388.672	11.47
388.88	11.57
389.088	11.53
389.296	11.62
389.504	11.89
389.712	11.54
389.92	11.71
390.128	11.86
390.336	12.05
390.544	12.09
390.751	12.5
390.959	12.2
391.167	12.22
391.375	11.95
391.583	12.06
391.79	11.7
391.998	12.03
392.206	11.87
392.414	11.98
392.621	11.77
392.829	11.79
393.037	11.41
393.244	11.65
393.452	11.19
393.66	11.19
393.867	11.22
394.075	10.96
394.283	10.41
394.49	10.4
394.698	10.28
394.905	10.19
395.113	10.13
395.32	9.83
395.528	9.39
395.735	9.86
395.943	9.99
396.15	9.97
396.358	9.94
396.565	10.06
396.773	10.22
396.98	9.72
397.188	9.9
397.395	9.76
397.602	10.08
397.81	10.08
398.017	10.4
398.225	10.62
398.432	10.35
398.639	10.67
398.847	10.55
399.054	10.13
399.261	10.39
399.468	10.45
399.676	10.42
399.883	10.05
400.09	10.39
400.297	10.12
400.505	9.99
400.712	10.11
400.919	10.33
401.126	10.47
401.333	10.66
401.54	10.62
401.748	10.45
401.955	10.27
402.162	10.38
402.369	10.4
402.576	10.37
402.783	10.26
402.99	10.18
403.197	10.01
403.404	10.47
403.611	10.55
403.818	10.86
404.025	10.8
404.232	11.07
404.439	11.2
404.646	11
404.853	10.97
405.06	10.94
405.267	11.24
405.474	11.4
405.681	10.82
405.887	10.59
406.094	10.43
406.301	10.65
406.508	10.59
406.715	10.44
406.922	10.36
407.128	10.31
407.335	10.36
407.542	10.23
407.749	9.93
407.955	10.19
408.162	9.94
408.369	9.75
408.575	9.69
408.782	9.3
408.989	9.39
409.195	9.04
409.402	8.93
409.609	8.9
409.815	8.86
410.022	8.76
410.228	9.11
410.435	9.28
410.642	9.36
410.848	8.93
411.055	9.1
411.261	8.94
411.468	9.45
411.674	9.65
411.881	9.77
412.087	9.69
412.294	9.89
412.5	9.38
412.706	9.78
412.913	9.61
413.119	10.03
413.326	9.9
413.532	9.86
413.738	9.9
413.945	10.03
414.151	10.08
414.357	9.94
414.564	10.02
414.77	9.96
414.976	9.62
415.182	9.94
415.389	9.49
415.595	9.68
415.801	9.85
416.007	9.9
416.214	9.44
416.42	9.15
416.626	9.22
416.832	9.26
417.038	9.33
417.244	9.39
417.45	9.24
417.657	9.57
417.863	9.74
418.069	9.79
418.275	9.66
418.481	9.74
418.687	9.85
418.893	10.06
419.099	9.99
419.305	9.75
419.511	9.59
419.717	9.66
419.923	9.62
420.129	9.57
420.335	9.61
420.541	9.45
420.746	9.49
420.952	9.4
421.158	9.26
421.364	9.09
421.57	9.17
421.776	9.26
421.982	9.08
422.187	8.98
422.393	9.07
422.599	8.89
422.805	9.17
423.01	9.18
423.216	9.26
423.422	9.26
423.628	9.36
423.833	9.62
424.039	9.64
424.245	9.81
424.45	9.91
424.656	9.67
424.862	9.65
425.067	9.44
425.273	9.48
425.478	9.45
425.684	9.39
425.889	9.42
426.095	9.22
426.301	9.12
426.506	9.06
426.712	9.01
426.917	9.22
427.123	9.34
427.328	9.37
427.533	9.07
427.739	9.16
427.944	9.12
428.15	9.18
428.355	9.28
428.561	9.67
428.766	9.61
428.971	9.52
429.177	9.34
429.382	9.14
429.587	9.31
429.793	9.44
429.998	9.39
430.203	9.3
430.408	8.99
430.614	8.81
430.819	8.64
431.024	8.79
431.229	8.68
431.434	8.55
431.64	8.71
431.845	8.83
432.05	8.96
432.255	8.84
432.46	8.76
432.665	8.83
432.87	9.06
433.076	9.04
433.281	9.15
433.486	9.35
433.691	9.58
433.896	9.57
434.101	9.59
434.306	9.63
434.511	9.7
434.716	9.91
434.921	9.88
435.126	9.64
435.331	9.8
435.535	9.73
435.74	9.81
435.945	9.72
436.15	9.6
436.355	9.27
436.56	9.37
436.765	9.47
436.97	9.52
437.174	9.7
437.379	9.98
437.584	9.76
437.789	9.5
437.993	9.44
438.198	9.29
438.403	9.57
438.608	9.79
438.812	9.71
439.017	9.77
439.222	9.65
439.426	9.68
439.631	9.64
439.836	9.72
440.04	9.86
440.245	9.93
440.45	9.97
440.654	9.76
440.859	9.79
441.063	9.68
441.268	9.62
441.472	9.67
441.677	9.54
441.881	9.26
442.086	9.12
442.29	9.1
442.495	8.94
442.699	8.97
442.904	9.1
443.108	8.91
443.312	8.77
443.517	8.74
443.721	8.73
443.925	8.83
444.13	9.13
444.334	9.05
444.538	8.98
444.743	8.99
444.947	9.24
445.151	9.02
445.356	8.93
445.56	9.02
445.764	9.04
445.968	8.94
446.173	8.83
446.377	8.91
446.581	9.04
446.785	9.02
446.989	8.99
447.193	8.6
447.398	8.64
447.602	8.8
447.806	8.74
448.01	8.62
448.214	8.66
448.418	8.71
448.622	8.72
448.826	8.47
449.03	8.51
449.234	8.53
449.438	8.52
449.642	8.62
449.846	8.44
450.05	8.52
450.254	8.43
450.458	8.45
450.662	8.41
450.866	8.03
451.069	8.33
451.273	8.59
451.477	8.63
451.681	9.05
451.885	9.16
452.089	9.29
452.292	9.02
452.496	9.17
452.7	9.12
452.904	9.12
453.107	9.25
453.311	9.3
453.515	9
453.719	8.9
453.922	8.8
454.126	8.58
454.33	8.74
454.533	9.1
454.737	9.01
454.94	9.14
455.144	9.08
455.348	8.92
455.551	8.65
455.755	8.76
455.958	8.76
456.162	8.91
456.365	8.91
456.569	8.65
456.772	8.66
456.976	8.7
457.179	8.58
457.383	8.51
457.586	8.61
457.79	8.74
457.993	8.57
458.196	8.59
458.4	8.5
458.603	8.55
458.807	8.63
459.01	8.56
459.213	8.64
459.417	8.81
459.62	8.78
459.823	8.66
460.026	8.74
460.23	8.77
460.433	8.78
