Data from 2937865_Reflection_3.txt Node
Date: Wed Jul 15 15:13:17 EDT 2015
User: robert
Spectrometer: USB4E03001
Autoset integration time: false
Trigger mode: 4
Integration Time (sec): 1.000000E-1
Scans to average: 10
Electric dark correction enabled: true
Nonlinearity correction enabled: false
Boxcar width: 5
Stray light correction enabled: false
XAxis mode: Wavelengths
Stop averaging: false
Number of Pixels in Spectrum: 3648
>>>>>Begin Spectral Data<<<<<
177.566	25.59
177.785	21.95
178.005	1024.27
178.225	-777.78
178.445	595.33
178.665	146.35
178.885	178.21
179.105	148.38
179.324	103.85
179.544	73.26
179.764	71.33
179.984	24.85
180.204	25.32
180.423	4.46
180.643	-152.61
180.863	-285.14
181.083	-27.08
181.302	-36.6
181.522	61.64
181.742	61.31
181.961	116.19
182.181	142.33
182.401	187.26
182.621	140.49
182.84	49.79
183.06	45.81
183.279	63.04
183.499	93.94
183.719	143.02
183.938	215.21
184.158	170
184.377	158.9
184.597	132.04
184.816	117.69
185.036	157.74
185.256	234.79
185.475	173.8
185.695	138.13
185.914	118.72
186.134	107.49
186.353	106.17
186.572	78.72
186.792	89.16
187.011	9.29
187.231	-556.16
187.45	88.94
187.67	119.02
187.889	161.39
188.108	187.51
188.328	258.16
188.547	239.95
188.766	197.8
188.986	248.33
189.205	187.3
189.424	154.45
189.644	152.22
189.863	183.39
190.082	137.21
190.302	125
190.521	135.42
190.74	131.4
190.959	90.43
191.178	55.6
191.398	42.83
191.617	15.19
191.836	-7.03
192.055	-91.78
192.274	-45.8
192.494	-1747.91
192.713	-43.22
192.932	-108.67
193.151	-12.51
193.37	56.76
193.589	-196.64
193.808	42.54
194.027	104.4
194.246	26.24
194.465	103.94
194.685	143.07
194.904	99.76
195.123	72.9
195.342	108.5
195.561	23.44
195.78	68.03
195.999	39.71
196.218	236.06
196.436	1048.68
196.655	182.45
196.874	286.94
197.093	243.02
197.312	245.03
197.531	210.13
197.75	278.36
197.969	284.45
198.188	164.72
198.407	222.16
198.625	183.18
198.844	183.25
199.063	319.75
199.282	21120
199.501	384.91
199.719	262.63
199.938	461.35
200.157	233.71
200.376	62.8
200.594	141.19
200.813	95.92
201.032	83.27
201.251	89.88
201.469	84.44
201.688	79.16
201.907	76.36
202.125	58.34
202.344	69.65
202.563	72.37
202.781	82.97
203	82.27
203.218	89.78
203.437	130.14
203.656	123.05
203.874	152.51
204.093	109.62
204.311	102.87
204.53	110.95
204.748	101
204.967	114.53
205.185	93.08
205.404	12.41
205.622	-30.34
205.841	19.14
206.059	-20.4
206.278	-71.17
206.496	67.59
206.715	180.05
206.933	63.62
207.151	57.26
207.37	136.73
207.588	-13.95
207.806	251.14
208.025	-17784.21
208.243	-427.9
208.461	286.28
208.68	340.51
208.898	134.13
209.116	213.89
209.335	128.92
209.553	111.77
209.771	146.07
209.989	140.83
210.208	208.49
210.426	136.19
210.644	180.8
210.862	153.04
211.081	127.45
211.299	124.23
211.517	130.8
211.735	133.82
211.953	114.12
212.171	109.53
212.39	72.46
212.608	45.32
212.826	31.74
213.044	42.99
213.262	155.94
213.48	110.22
213.698	125
213.916	-116.94
214.134	43.68
214.352	51.13
214.57	66.49
214.788	92.97
215.006	91.85
215.224	129.53
215.442	68.59
215.66	19
215.878	-5.55
216.096	-6.51
216.314	0.55
216.532	-0.41
216.75	18.74
216.968	-28.23
217.185	-15.68
217.403	-42.03
217.621	3.54
217.839	22.95
218.057	31.3
218.275	10.35
218.492	11.93
218.71	30.02
218.928	25.36
219.146	25.6
219.363	41.43
219.581	35.25
219.799	40.87
220.017	6.6
220.234	16.14
220.452	20.05
220.67	23.75
220.887	48.88
221.105	45.68
221.323	65.54
221.54	59.9
221.758	56.76
221.976	21.51
222.193	28.75
222.411	43.01
222.629	36.9
222.846	34.56
223.064	38.25
223.281	42.81
223.499	19.03
223.716	12.44
223.934	17.61
224.151	9.89
224.369	53.99
224.586	81.76
224.804	72.27
225.021	59.37
225.239	62.12
225.456	53.43
225.674	46.55
225.891	58.42
226.108	35.93
226.326	40.48
226.543	39.02
226.76	37.06
226.978	14.84
227.195	15.98
227.413	14.77
227.63	13.15
227.847	16.02
228.064	11.19
228.282	8.06
228.499	8.71
228.716	8.44
228.934	11.95
229.151	11.55
229.368	16.33
229.585	16.54
229.802	15.14
230.02	15.76
230.237	15.87
230.454	18.21
230.671	19.99
230.888	22.75
231.105	21.48
231.323	16.02
231.54	15.6
231.757	15.48
231.974	15.02
232.191	17.55
232.408	14.45
232.625	8.6
232.842	5.15
233.059	6.12
233.276	-0.08
233.493	-7.45
233.71	-7.04
233.927	-5.89
234.144	-13.77
234.361	-10.5
234.578	-14.56
234.795	-9.82
235.012	5.47
235.229	12.86
235.446	14.85
235.663	19.18
235.879	22.99
236.096	22.53
236.313	21.44
236.53	20.94
236.747	19.23
236.964	18.87
237.181	17.54
237.397	14.2
237.614	10.1
237.831	6.34
238.048	10.64
238.264	16.38
238.481	18.33
238.698	17.23
238.915	21.17
239.131	19.22
239.348	19.71
239.565	23.25
239.781	18.33
239.998	13.1
240.215	17.61
240.431	8.78
240.648	8.19
240.865	10.17
241.081	11.72
241.298	12.27
241.514	16.23
241.731	17.54
241.947	17.39
242.164	16.88
242.38	16.91
242.597	16.25
242.814	17.71
243.03	20.43
243.246	21.52
243.463	20.1
243.679	21.07
243.896	20.23
244.112	17.56
244.329	16.88
244.545	18.72
244.762	20.01
244.978	19.51
245.194	20.73
245.411	16.78
245.627	16.58
245.843	18.54
246.06	15.78
246.276	14.73
246.492	16.6
246.709	16.05
246.925	16.53
247.141	16.74
247.357	16.2
247.574	15.57
247.79	15.5
248.006	15.08
248.222	13.89
248.439	14.17
248.655	14.53
248.871	14.34
249.087	14.37
249.303	12.91
249.519	12.31
249.736	12.97
249.952	13.12
250.168	12.89
250.384	13.44
250.6	13.74
250.816	16
251.032	14.53
251.248	14.79
251.464	15.12
251.68	16.82
251.896	15.27
252.112	13.68
252.328	12.78
252.544	11.73
252.76	10.34
252.976	11.16
253.192	9.17
253.408	9.4
253.624	6.69
253.84	6.51
254.056	2.85
254.272	4.26
254.487	5.82
254.703	10.18
254.919	11.14
255.135	15.43
255.351	14.91
255.567	16.82
255.782	16.84
255.998	19.89
256.214	18.06
256.43	18.3
256.646	18.43
256.861	15.63
257.077	13.83
257.293	13.09
257.508	10.8
257.724	11.35
257.94	9.67
258.155	8.46
258.371	8.02
258.587	8.67
258.802	9.34
259.018	9.59
259.234	9.83
259.449	9.96
259.665	9.7
259.88	9.82
260.096	10.3
260.312	10.04
260.527	10.83
260.743	10.41
260.958	10.22
261.174	9.47
261.389	8.88
261.605	7.99
261.82	7.78
262.036	8.63
262.251	6.99
262.466	6.67
262.682	5.63
262.897	5.7
263.113	5.57
263.328	5.73
263.543	7.42
263.759	6.89
263.974	9.53
264.189	11.4
264.405	9.55
264.62	12.52
264.835	11.88
265.051	14.56
265.266	12.43
265.481	11.6
265.696	11.63
265.912	11
266.127	11.09
266.342	11.83
266.557	9.06
266.773	9.97
266.988	10.06
267.203	10.02
267.418	10.42
267.633	11.79
267.848	12.45
268.064	12.02
268.279	12.82
268.494	13.48
268.709	11.84
268.924	12.57
269.139	12.76
269.354	10.96
269.569	9.83
269.784	8.23
269.999	7.28
270.214	7.7
270.429	8.67
270.644	8.32
270.859	7.79
271.074	7.22
271.289	6.45
271.504	6.63
271.719	6.71
271.934	7.05
272.149	8.05
272.363	7.66
272.578	6.47
272.793	5.92
273.008	7.11
273.223	6.67
273.438	7.4
273.653	7.98
273.867	6.78
274.082	7.25
274.297	9.36
274.512	8.59
274.726	10.03
274.941	10.86
275.156	11.48
275.371	8.79
275.585	9.76
275.8	9.09
276.015	8.18
276.229	9.74
276.444	10.91
276.659	9.71
276.873	10.68
277.088	8.93
277.302	10.58
277.517	9.71
277.732	10.24
277.946	11.5
278.161	13.36
278.375	13.29
278.59	13.54
278.804	13.86
279.019	12.98
279.233	11.11
279.448	12.96
279.662	11.19
279.877	12.33
280.091	12.93
280.306	11.89
280.52	12.75
280.735	12.85
280.949	13.22
281.163	12.7
281.378	13.39
281.592	15.01
281.806	12.56
282.021	13.82
282.235	13.62
282.449	14.66
282.664	14.82
282.878	13.68
283.092	14.16
283.307	14.63
283.521	12.68
283.735	12.27
283.949	12.15
284.164	14.89
284.378	13.74
284.592	13.85
284.806	12.51
285.02	11.4
285.234	11.09
285.449	10.09
285.663	10.16
285.877	11.4
286.091	11.3
286.305	10.14
286.519	9.93
286.733	10.18
286.947	9.16
287.161	9.43
287.375	10.58
287.589	10.82
287.803	11.02
288.017	9.98
288.231	9.04
288.445	8.93
288.659	9.29
288.873	9.19
289.087	8.73
289.301	10.07
289.515	9.83
289.729	8.83
289.943	7.82
290.157	7.26
290.371	6.61
290.584	7.13
290.798	7.86
291.012	7.81
291.226	7.45
291.44	8.96
291.654	9.03
291.867	10.35
292.081	11.86
292.295	13.18
292.509	14.74
292.722	17.32
292.936	17.55
293.15	16.19
293.364	16.25
293.577	14.73
293.791	13.91
294.005	14.54
294.218	15.12
294.432	14.85
294.645	15.03
294.859	15.46
295.073	13.27
295.286	13.71
295.5	14.91
295.713	16.08
295.927	16.88
296.14	17.25
296.354	16.4
296.568	15.38
296.781	14.22
296.994	15.45
297.208	15.19
297.421	15.31
297.635	15.33
297.848	14.54
298.062	14.16
298.275	14
298.489	13.62
298.702	13.43
298.915	13.25
299.129	14.18
299.342	13.69
299.555	14.64
299.769	16.06
299.982	17.97
300.195	18.91
300.409	19.35
300.622	21.37
300.835	23.45
301.048	24.93
301.262	26.05
301.475	24.85
301.688	23.82
301.901	23.38
302.115	22.05
302.328	22
302.541	22.29
302.754	21.8
302.967	21.36
303.18	19.83
303.393	18.72
303.607	17.7
303.82	19.6
304.033	19.61
304.246	20
304.459	21.23
304.672	20.49
304.885	20
305.098	21.45
305.311	20.77
305.524	20.66
305.737	20.93
305.95	20.82
306.163	20.32
306.376	21.42
306.589	20.5
306.802	19.36
307.015	19
307.228	18.47
307.44	16.72
307.653	16.93
307.866	14.8
308.079	15.4
308.292	16.24
308.505	17.45
308.718	16.54
308.93	16.6
309.143	17.77
309.356	17.19
309.569	18.88
309.781	18.89
309.994	18.96
310.207	21.29
310.42	20.68
310.632	20.07
310.845	20.39
311.058	20.39
311.27	20.3
311.483	20.39
311.696	20.33
311.908	19.35
312.121	19.38
312.333	19.55
312.546	17.73
312.759	18.41
312.971	18.53
313.184	18.87
313.396	18.14
313.609	19.53
313.821	19.39
314.034	20.53
314.246	22.76
314.459	23.16
314.671	22.52
314.884	24.07
315.096	24.41
315.309	25.01
315.521	23.68
315.733	24.85
315.946	22.56
316.158	23.03
316.371	23.07
316.583	21.02
316.795	20.23
317.008	20.82
317.22	20.74
317.432	20.59
317.644	21.08
317.857	21.09
318.069	19.75
318.281	21.31
318.494	21.26
318.706	20.94
318.918	22.67
319.13	23.6
319.342	22.22
319.555	21.33
319.767	21.29
319.979	21.59
320.191	21.64
320.403	21.31
320.615	22.22
320.827	22.13
321.039	21.22
321.252	18.99
321.464	19.81
321.676	22.37
321.888	23.67
322.1	22.56
322.312	21.08
322.524	20.74
322.736	23.79
322.948	23.73
323.16	23.92
323.372	24.77
323.584	26.1
323.796	25.3
324.007	25.06
324.219	25.88
324.431	27.48
324.643	28.42
324.855	29.03
325.067	28.38
325.279	28.23
325.491	27.66
325.702	28.1
325.914	28.26
326.126	29.57
326.338	28.88
326.55	28.52
326.761	28.77
326.973	29.61
327.185	31.47
327.396	32.23
327.608	32.56
327.82	34.14
328.032	35.43
328.243	34.36
328.455	36.39
328.666	39.27
328.878	40.48
329.09	42.46
329.301	43.74
329.513	44.12
329.725	45.35
329.936	46.09
330.148	45.22
330.359	45.29
330.571	48.84
330.782	49.13
330.994	48.75
331.205	49.63
331.417	50.24
331.628	51.36
331.84	53.12
332.051	53.29
332.262	55.98
332.474	56.64
332.685	58.7
332.897	60.16
333.108	61.67
333.319	61.53
333.531	61.09
333.742	60.56
333.953	61
334.165	60.4
334.376	61.52
334.587	62.43
334.799	63.87
335.01	64.07
335.221	63.83
335.432	64.73
335.644	66.27
335.855	69.1
336.066	70.02
336.277	70.46
336.488	70.46
336.7	70.85
336.911	70.65
337.122	71.84
337.333	72.24
337.544	72.93
337.755	71.48
337.966	71.83
338.177	69.91
338.388	70.59
338.599	70.1
338.811	71.83
339.022	71.13
339.233	72.21
339.444	73.21
339.655	72.49
339.866	73.04
340.076	72.66
340.287	72.56
340.498	74.11
340.709	73.41
340.92	75.26
341.131	74.37
341.342	75.56
341.553	74.64
341.764	74.82
341.975	74.85
342.185	74.17
342.396	75.87
342.607	76.73
342.818	76.48
343.029	76.91
343.239	77.09
343.45	77.71
343.661	78.1
343.872	77.54
344.082	78.08
344.293	79.13
344.504	79.26
344.714	78.91
344.925	77.84
345.136	77.61
345.346	78.26
345.557	78.24
345.768	78.66
345.978	78.81
346.189	80.31
346.399	80.06
346.61	79.8
346.821	80.29
347.031	79.64
347.242	80.36
347.452	80.69
347.663	80.44
347.873	80.24
348.084	79.67
348.294	79.9
348.504	79.66
348.715	80.42
348.925	80.87
349.136	80.62
349.346	80.78
349.557	79.78
349.767	80.6
349.977	79.45
350.188	78.39
350.398	78.64
350.608	78.52
350.819	78.96
351.029	77.77
351.239	77.85
351.449	77.38
351.66	77.65
351.87	79.09
352.08	78.86
352.29	79.85
352.501	80.29
352.711	80.69
352.921	79.94
353.131	79.87
353.341	80.28
353.552	79.19
353.762	79.83
353.972	79.9
354.182	78.67
354.392	79.11
354.602	79.25
354.812	79
355.022	78.54
355.232	79.12
355.442	77.42
355.652	77.15
355.862	77.57
356.072	77.48
356.282	77.68
356.492	77.95
356.702	77.4
356.912	77.28
357.122	77.37
357.332	77.31
357.542	77.82
357.752	78.7
357.962	78.8
358.171	78.78
358.381	79.04
358.591	79.2
358.801	79.23
359.011	79.79
359.221	79.8
359.43	80.48
359.64	80.75
359.85	79.49
360.06	79.01
360.269	78.28
360.479	77.88
360.689	77.53
360.899	76.99
361.108	76.93
361.318	75.5
361.528	74.84
361.737	74.35
361.947	73.54
362.156	73.94
362.366	73.71
362.576	73.45
362.785	73.71
362.995	74.05
363.204	73.95
363.414	73.36
363.623	74.18
363.833	74.03
364.042	73.24
364.252	73.37
364.461	72.66
364.671	73.03
364.88	73.55
365.09	72.9
365.299	71.66
365.509	71.46
365.718	73.07
365.927	72
366.137	71.9
366.346	73.17
366.555	72.74
366.765	72.61
366.974	71.96
367.183	72.13
367.393	72.68
367.602	72.72
367.811	71.65
368.021	70.39
368.23	71.1
368.439	71.38
368.648	69.58
368.857	69.98
369.067	69.04
369.276	69.54
369.485	68.55
369.694	68.23
369.903	67.96
370.112	68.5
370.321	68.67
370.531	67.6
370.74	66.92
370.949	66.9
371.158	65.85
371.367	66.4
371.576	65.66
371.785	65.4
371.994	65.2
372.203	64.6
372.412	64.04
372.621	62.49
372.83	63.31
373.039	63.66
373.248	63.47
373.457	63.66
373.666	63.07
373.874	62.99
374.083	62.57
374.292	61.94
374.501	62.24
374.71	61.86
374.919	62.71
375.128	61.36
375.336	60.27
375.545	60.01
375.754	59.4
375.963	59.15
376.171	58.37
376.38	58.27
376.589	57.48
376.798	56.61
377.006	56.3
377.215	55.87
377.424	55.66
377.632	56.4
377.841	56.53
378.05	56.86
378.258	56.67
378.467	56.8
378.675	56.23
378.884	56.38
379.093	56.18
379.301	56.54
379.51	56.1
379.718	55.74
379.927	54.39
380.135	54.24
380.344	53.54
380.552	53.08
380.761	52.49
380.969	52.63
381.177	52.56
381.386	52.88
381.594	52.26
381.803	52.1
382.011	51.91
382.219	52
382.428	51.18
382.636	50.88
382.845	50.44
383.053	49.75
383.261	48.95
383.469	48.44
383.678	48.27
383.886	47.82
384.094	47.32
384.302	47.26
384.511	46.75
384.719	46.49
384.927	46.09
385.135	46.14
385.343	46.06
385.552	46.07
385.76	45.59
385.968	44.56
386.176	44.04
386.384	43.61
386.592	43.01
386.8	42.61
387.008	42.13
387.216	42.17
387.424	41.9
387.633	41.62
387.841	40.92
388.049	40.26
388.257	40.03
388.465	39.93
388.672	39.73
388.88	39.97
389.088	39.63
389.296	39.97
389.504	39.37
389.712	39.3
389.92	39.46
390.128	39.34
390.336	39.64
390.544	39.55
390.751	39.33
390.959	38.98
391.167	38.33
391.375	38.41
391.583	37.39
391.79	37.06
391.998	36.42
392.206	36.1
392.414	36.15
392.621	36
392.829	35.96
393.037	35.73
393.244	35.51
393.452	35.67
393.66	35.34
393.867	35.5
394.075	35.43
394.283	35.79
394.49	35.44
394.698	35.2
394.905	35.08
395.113	34.6
395.32	34.68
395.528	34.85
395.735	34.52
395.943	34.7
396.15	34.85
396.358	34.68
396.565	34.51
396.773	34.51
396.98	34.15
397.188	33.97
397.395	34.39
397.602	34.26
397.81	34.19
398.017	34.39
398.225	34.29
398.432	33.87
398.639	34.13
398.847	33.86
399.054	33.88
399.261	34.07
399.468	33.94
399.676	33.52
399.883	33.37
400.09	33.34
400.297	33.06
400.505	33.11
400.712	33.3
400.919	32.86
401.126	32.66
401.333	32.49
401.54	32.47
401.748	32.54
401.955	32.65
402.162	32.39
402.369	32.36
402.576	31.95
402.783	31.35
402.99	31.03
403.197	31.04
403.404	31.24
403.611	31.28
403.818	31.12
404.025	30.88
404.232	30.62
404.439	30.83
404.646	30.82
404.853	30.93
405.06	30.99
405.267	30.88
405.474	30.86
405.681	30.42
405.887	30.3
406.094	30.3
406.301	30.38
406.508	30.2
406.715	30.25
406.922	29.89
407.128	30.05
407.335	30.24
407.542	30.42
407.749	30.46
407.955	30.74
408.162	30.65
408.369	30.69
408.575	30.42
408.782	30.82
408.989	30.57
409.195	30.87
409.402	30.81
409.609	30.57
409.815	30.51
410.022	30.56
410.228	30.6
410.435	30.53
410.642	30.57
410.848	30.87
411.055	30.54
411.261	30.53
411.468	30.22
411.674	30.12
411.881	30.21
412.087	30.16
412.294	30.08
412.5	29.89
412.706	29.85
412.913	29.72
413.119	29.34
413.326	29.25
413.532	29.09
413.738	29.06
413.945	28.84
414.151	28.5
414.357	28.39
414.564	28.17
414.77	28.34
414.976	28.25
415.182	27.99
415.389	28.28
415.595	28.19
415.801	28.2
416.007	28.25
416.214	28.53
416.42	28.5
416.626	28.55
416.832	28.36
417.038	28.14
417.244	28.03
417.45	28.15
417.657	27.92
417.863	27.99
418.069	28.06
418.275	27.97
418.481	27.85
418.687	27.92
418.893	27.85
419.099	27.83
419.305	27.62
419.511	27.77
419.717	27.7
419.923	27.62
420.129	27.53
420.335	27.27
420.541	27.16
420.746	26.95
420.952	26.92
421.158	26.83
421.364	26.93
421.57	26.98
421.776	26.82
421.982	26.67
422.187	26.59
422.393	26.43
422.599	26.55
422.805	26.6
423.01	26.57
423.216	26.46
423.422	26.43
423.628	26.35
423.833	26.44
424.039	26.3
424.245	26.26
424.45	26.23
424.656	26.37
424.862	26.33
425.067	26.28
425.273	26.28
425.478	26.16
425.684	26.06
425.889	26.06
426.095	25.87
426.301	26
426.506	25.95
426.712	26
426.917	25.97
427.123	26.14
427.328	26.1
427.533	26.09
427.739	26.17
427.944	26.27
428.15	26.29
428.355	26.43
428.561	26.44
428.766	26.52
428.971	26.55
429.177	26.46
429.382	26.12
429.587	25.88
429.793	25.94
429.998	25.9
430.203	25.89
430.408	25.68
430.614	25.53
430.819	25.41
431.024	25.62
431.229	25.49
431.434	25.38
431.64	25.41
431.845	25.66
432.05	25.44
432.255	25.5
432.46	25.51
432.665	25.78
432.87	25.8
433.076	25.83
433.281	25.75
433.486	25.72
433.691	25.72
433.896	25.66
434.101	25.78
434.306	25.87
434.511	25.93
434.716	25.93
434.921	25.83
435.126	25.96
435.331	25.81
435.535	25.75
435.74	25.72
435.945	25.6
436.15	25.53
436.355	25.34
436.56	25.37
436.765	25.23
436.97	25.1
437.174	24.93
437.379	24.74
437.584	24.96
437.789	24.93
437.993	25.08
438.198	25.15
438.403	25.31
438.608	25.12
438.812	25.2
439.017	25.26
439.222	25.36
439.426	25.32
439.631	25.39
439.836	25.26
440.04	25.17
440.245	25.07
440.45	25.12
440.654	25.02
440.859	25.13
441.063	25.1
441.268	24.95
441.472	24.89
441.677	25.04
441.881	24.84
442.086	24.95
442.29	25.01
442.495	25.01
442.699	25.02
442.904	25.1
443.108	25.05
443.312	24.96
443.517	25.07
443.721	25.04
443.925	24.9
444.13	24.88
444.334	24.83
444.538	24.78
444.743	24.78
444.947	24.82
445.151	24.8
445.356	24.86
445.56	24.74
445.764	24.73
445.968	24.66
446.173	24.73
446.377	24.67
446.581	24.66
446.785	24.68
446.989	24.56
447.193	24.38
447.398	24.27
447.602	24.22
447.806	24.45
448.01	24.38
448.214	24.37
448.418	24.22
448.622	24.34
448.826	24.3
449.03	24.16
449.234	24.24
449.438	24.26
449.642	24.19
449.846	24.21
450.05	24.02
450.254	24.24
450.458	24.39
450.662	24.31
450.866	24.35
451.069	24.25
451.273	24.29
451.477	24.3
451.681	24.52
451.885	24.6
452.089	24.44
452.292	24.25
452.496	24.07
452.7	23.97
452.904	24.12
453.107	23.89
453.311	23.96
453.515	23.73
453.719	23.58
453.922	23.49
454.126	23.42
454.33	23.25
454.533	23.38
454.737	23.27
454.94	23.16
455.144	23.1
455.348	23.42
455.551	23.56
455.755	23.73
455.958	23.88
456.162	23.93
456.365	23.98
456.569	24.12
456.772	24.18
456.976	24.33
457.179	24.34
457.383	24.35
