Data from 2937836_Reflection_3.txt Node
Date: Wed Jul 15 16:30:40 EDT 2015
User: robert
Spectrometer: USB4E03001
Autoset integration time: false
Trigger mode: 4
Integration Time (sec): 1.000000E-1
Scans to average: 10
Electric dark correction enabled: true
Nonlinearity correction enabled: false
Boxcar width: 5
Stray light correction enabled: false
XAxis mode: Wavelengths
Stop averaging: false
Number of Pixels in Spectrum: 3648
>>>>>Begin Spectral Data<<<<<
177.566	242.08
177.785	298.82
178.005	-174.91
178.225	2.21
178.445	57.97
178.665	185.82
178.885	78.48
179.105	110.08
179.324	84.26
179.544	81.33
179.764	91.45
179.984	29.29
180.204	87.01
180.423	158.79
180.643	180.03
180.863	171.05
181.083	295.89
181.302	-990.84
181.522	-1117.73
181.742	168.08
181.961	146.06
182.181	80.34
182.401	93.59
182.621	518.8
182.84	90.45
183.06	49.04
183.279	64.92
183.499	77.66
183.719	60.25
183.938	71.64
184.158	82.84
184.377	97.74
184.597	66.15
184.816	37.43
185.036	56.9
185.256	63.13
185.475	68.27
185.695	55.67
185.914	41.84
186.134	72.95
186.353	73.12
186.572	94.24
186.792	96.26
187.011	114.07
187.231	120.29
187.45	138.85
187.67	128.83
187.889	125.22
188.108	140.39
188.328	175.16
188.547	246.85
188.766	159.41
188.986	119.02
189.205	139.37
189.424	151.38
189.644	144.21
189.863	119.23
190.082	124.5
190.302	127.44
190.521	148.84
190.74	156.35
190.959	141.59
191.178	214.72
191.398	487.92
191.617	232.33
191.836	148.71
192.055	279.4
192.274	318.88
192.494	317.08
192.713	197.63
192.932	321.25
193.151	199.13
193.37	120.24
193.589	83.07
193.808	91.6
194.027	78.53
194.246	57.64
194.465	58.79
194.685	37.99
194.904	44.82
195.123	80.15
195.342	53.24
195.561	60.64
195.78	62.12
195.999	86.43
196.218	85.61
196.436	242
196.655	274.18
196.874	242.58
197.093	-3961.54
197.312	-192.38
197.531	280.93
197.75	-854.51
197.969	-233.81
198.188	-549.14
198.407	625.15
198.625	259.93
198.844	145.45
199.063	122.89
199.282	94.39
199.501	83.14
199.719	73.58
199.938	88.34
200.157	91.27
200.376	95.69
200.594	99
200.813	90.94
201.032	92.07
201.251	104.15
201.469	116.47
201.688	126.9
201.907	131.62
202.125	131.83
202.344	118.85
202.563	117.7
202.781	105.17
203	100.73
203.218	115.75
203.437	112.47
203.656	107.4
203.874	107.91
204.093	120.81
204.311	126.04
204.53	135.84
204.748	129.64
204.967	114.16
205.185	118.18
205.404	129.87
205.622	161.66
205.841	144.98
206.059	152.12
206.278	118.27
206.496	108.85
206.715	84.46
206.933	18.29
207.151	11.17
207.37	348.08
207.588	-61.79
207.806	104.79
208.025	-14.06
208.243	-22.25
208.461	155.52
208.68	432.04
208.898	538.85
209.116	561.39
209.335	263.97
209.553	369.67
209.771	326.82
209.989	271.18
210.208	205.94
210.426	157.45
210.644	256.19
210.862	207.07
211.081	164.63
211.299	128.66
211.517	127.42
211.735	115.1
211.953	111.56
212.171	123.99
212.39	110.27
212.608	118.04
212.826	132.75
213.044	137.64
213.262	121.8
213.48	137.17
213.698	166.73
213.916	150.51
214.134	149.17
214.352	159.29
214.57	135.68
214.788	153.97
215.006	191.93
215.224	159.43
215.442	130.27
215.66	144.26
215.878	132.08
216.096	138.57
216.314	139.3
216.532	154.45
216.75	138.03
216.968	118.88
217.185	102.18
217.403	61
217.621	82.5
217.839	79.16
218.057	50.74
218.275	68.22
218.492	65.28
218.71	62.3
218.928	49.8
219.146	49.5
219.363	76.62
219.581	100.27
219.799	123.15
220.017	135.58
220.234	117.39
220.452	113.53
220.67	97.89
220.887	103.13
221.105	109.34
221.323	97.09
221.54	88.93
221.758	97.66
221.976	103.18
222.193	98.14
222.411	64.21
222.629	66.12
222.846	80.21
223.064	54.88
223.281	48.27
223.499	58.55
223.716	59.45
223.934	56.02
224.151	45.84
224.369	34
224.586	34.49
224.804	43.19
225.021	51.16
225.239	47.72
225.456	61.06
225.674	62.52
225.891	52.28
226.108	46.36
226.326	41.04
226.543	40.88
226.76	44.46
226.978	34.75
227.195	30.26
227.413	22.75
227.63	25.89
227.847	18.69
228.064	15.15
228.282	15.09
228.499	18.52
228.716	20.63
228.934	18.8
229.151	14.69
229.368	14.77
229.585	14.69
229.802	13.26
230.02	10.26
230.237	11.06
230.454	10.28
230.671	11.86
230.888	9.82
231.105	8.52
231.323	10.01
231.54	13.52
231.757	14.28
231.974	13.65
232.191	22.81
232.408	21.77
232.625	24.55
232.842	31.3
233.059	25.53
233.276	34.1
233.493	31.46
233.71	19.05
233.927	18.45
234.144	17.05
234.361	22.04
234.578	21.92
234.795	25.96
235.012	24.79
235.229	21.36
235.446	22.05
235.663	19.27
235.879	24.78
236.096	31.87
236.313	30.68
236.53	38.8
236.747	40.9
236.964	37.29
237.181	35.33
237.397	36.59
237.614	35.44
237.831	41.18
238.048	39.31
238.264	35.34
238.481	33.81
238.698	32.04
238.915	31.03
239.131	24.86
239.348	23.33
239.565	20.29
239.781	19.34
239.998	20.2
240.215	16.71
240.431	14.35
240.648	18.39
240.865	19.47
241.081	22.71
241.298	20.12
241.514	19.72
241.731	20.49
241.947	20.15
242.164	18.71
242.38	18.79
242.597	20.36
242.814	22.17
243.03	22.19
243.246	21.86
243.463	20.26
243.679	20.23
243.896	21.7
244.112	23.33
244.329	24.73
244.545	23.77
244.762	22.2
244.978	18.61
245.194	15.64
245.411	13.56
245.627	12.88
245.843	11.04
246.06	11.99
246.276	11.37
246.492	10.08
246.709	9.28
246.925	10.64
247.141	11.36
247.357	11.98
247.574	11.72
247.79	10.92
248.006	11.53
248.222	12.29
248.439	12.26
248.655	11.43
248.871	11.15
249.087	12.4
249.303	11.27
249.519	9.73
249.736	10.53
249.952	12.63
250.168	12.52
250.384	12.38
250.6	10.72
250.816	9.76
251.032	9.6
251.248	11.5
251.464	9.45
251.68	11.24
251.896	12.65
252.112	12.12
252.328	12.25
252.544	13.73
252.76	10.83
252.976	11.82
253.192	12.97
253.408	13.83
253.624	12.36
253.84	13.8
254.056	12.87
254.272	13.77
254.487	12.04
254.703	13.9
254.919	12.59
255.135	14.32
255.351	13.31
255.567	14.47
255.782	17.07
255.998	15.63
256.214	12.96
256.43	15.42
256.646	15.06
256.861	15.4
257.077	12.42
257.293	11.82
257.508	11.45
257.724	11.74
257.94	9.33
258.155	6.56
258.371	7.05
258.587	8.25
258.802	7.15
259.018	7.66
259.234	7.75
259.449	6.57
259.665	7.53
259.88	8.01
260.096	8.5
260.312	8.12
260.527	9.2
260.743	9.33
260.958	9.66
261.174	9.91
261.389	10.29
261.605	11.22
261.82	13.48
262.036	14.36
262.251	15.17
262.466	13.81
262.682	15.37
262.897	14.75
263.113	14.14
263.328	13.74
263.543	13.34
263.759	14.24
263.974	13.98
264.189	12.82
264.405	9.21
264.62	8.45
264.835	9.64
265.051	9.7
265.266	12.93
265.481	15.26
265.696	15.07
265.912	17.66
266.127	15.49
266.342	12.6
266.557	12.84
266.773	13.58
266.988	13.06
267.203	13.66
267.418	13.4
267.633	11.62
267.848	11.89
268.064	11.77
268.279	12.4
268.494	12.52
268.709	15.22
268.924	13.92
269.139	13.61
269.354	13.41
269.569	12.54
269.784	12.56
269.999	11.5
270.214	10.72
270.429	11.31
270.644	10.93
270.859	10.7
271.074	10.01
271.289	11.17
271.504	13.56
271.719	14.21
271.934	13.45
272.149	13.62
272.363	14.76
272.578	15.41
272.793	15.32
273.008	13.35
273.223	13.83
273.438	14.1
273.653	12.96
273.867	11.56
274.082	10.95
274.297	12.82
274.512	11.4
274.726	10.83
274.941	9.6
275.156	8
275.371	8.26
275.585	8.72
275.8	7.25
276.015	8.44
276.229	7.06
276.444	7.42
276.659	7.54
276.873	9.74
277.088	8.55
277.302	8.56
277.517	10.52
277.732	10.13
277.946	8.13
278.161	9.22
278.375	6.54
278.59	8.04
278.804	7.82
279.019	7.82
279.233	6.47
279.448	7.06
279.662	7.46
279.877	7.09
280.091	9.34
280.306	10.85
280.52	10.81
280.735	11.62
280.949	13.26
281.163	14.25
281.378	14.01
281.592	14.17
281.806	14.42
282.021	14.95
282.235	15.39
282.449	14.13
282.664	12.52
282.878	12.32
283.092	14.28
283.307	14.9
283.521	13.55
283.735	13.99
283.949	13.92
284.164	13.21
284.378	12.3
284.592	11.51
284.806	11.68
285.02	11.56
285.234	11.06
285.449	9.25
285.663	7.88
285.877	9.73
286.091	8.73
286.305	8.8
286.519	9.25
286.733	8.26
286.947	7.61
287.161	7.07
287.375	7.4
287.589	8.11
287.803	10.26
288.017	8.99
288.231	7.76
288.445	8.67
288.659	10.43
288.873	11.18
289.087	13.09
289.301	13.92
289.515	13.8
289.729	14.62
289.943	14.66
290.157	13.39
290.371	14.68
290.584	15.08
290.798	14.97
291.012	14.32
291.226	13.52
291.44	12.1
291.654	10.63
291.867	9.96
292.081	10.48
292.295	10.56
292.509	11.53
292.722	11.97
292.936	11.42
293.15	10.48
293.364	9.82
293.577	10.18
293.791	12.82
294.005	14.88
294.218	16.18
294.432	14.92
294.645	15.69
294.859	14.9
295.073	14.65
295.286	15.25
295.5	16.38
295.713	16.46
295.927	16.76
296.14	15.1
296.354	13.49
296.568	14.83
296.781	14.68
296.994	14.25
297.208	13.83
297.421	13.46
297.635	12.48
297.848	12.1
298.062	11.75
298.275	13.02
298.489	13.19
298.702	14.43
298.915	12.3
299.129	12.79
299.342	13.31
299.555	12.74
299.769	14.56
299.982	15.57
300.195	14.97
300.409	14.38
300.622	11.36
300.835	12.6
301.048	12.64
301.262	14.35
301.475	15.62
301.688	15.31
301.901	17.59
302.115	14.67
302.328	12.54
302.541	13.57
302.754	15.33
302.967	16.81
303.18	15.7
303.393	16.75
303.607	17.06
303.82	16.98
304.033	15.57
304.246	14.96
304.459	17.25
304.672	19.08
304.885	18.85
305.098	18.05
305.311	18.12
305.524	18.6
305.737	18.67
305.95	18.12
306.163	17.79
306.376	19.04
306.589	19.71
306.802	19.54
307.015	20.77
307.228	22.08
307.44	22.98
307.653	23.15
307.866	23.35
308.079	23.31
308.292	22.08
308.505	22.96
308.718	22.57
308.93	21.63
309.143	20.73
309.356	20.62
309.569	19.91
309.781	19.93
309.994	18.77
310.207	17.75
310.42	17.35
310.632	18.45
310.845	17.64
311.058	17.74
311.27	17.95
311.483	17.88
311.696	17.34
311.908	17.79
312.121	16.49
312.333	16.88
312.546	17.55
312.759	17.39
312.971	16.5
313.184	15.07
313.396	16.02
313.609	15.38
313.821	14.6
314.034	14.73
314.246	14.46
314.459	14.85
314.671	15.85
314.884	16.8
315.096	17.02
315.309	16.8
315.521	17.7
315.733	16.78
315.946	15.87
316.158	16.09
316.371	15.78
316.583	14.21
316.795	14.91
317.008	14.87
317.22	13.35
317.432	12.15
317.644	13.44
317.857	15.22
318.069	16.4
318.281	20.02
318.494	19.53
318.706	19.91
318.918	20.71
319.13	19.3
319.342	17.93
319.555	19.2
319.767	20.57
319.979	21.01
320.191	19.58
320.403	18.01
320.615	14.62
320.827	16.48
321.039	16.58
321.252	17.34
321.464	17.73
321.676	18.61
321.888	17.89
322.1	18.05
322.312	17.69
322.524	18.91
322.736	20.13
322.948	21.38
323.16	20.23
323.372	20.48
323.584	20.79
323.796	20.4
324.007	19.12
324.219	19.51
324.431	20.84
324.643	19.63
324.855	18.58
325.067	18.45
325.279	18.92
325.491	19.69
325.702	19.5
325.914	19.7
326.126	21.09
326.338	22.17
326.55	23.04
326.761	21.06
326.973	23.59
327.185	23.58
327.396	23.51
327.608	23.38
327.82	24.69
328.032	24.01
328.243	23.87
328.455	24.8
328.666	26.41
328.878	27.29
329.09	29.09
329.301	29.23
329.513	31.03
329.725	31.4
329.936	31.27
330.148	30.2
330.359	31.68
330.571	32.04
330.782	31.63
330.994	31.73
331.205	31.49
331.417	32.87
331.628	32.51
331.84	33.97
332.051	34.44
332.262	37.29
332.474	38.29
332.685	40.27
332.897	40.97
333.108	43.76
333.319	44.41
333.531	45.04
333.742	44.92
333.953	45.85
334.165	46.42
334.376	46.57
334.587	46.97
334.799	48.46
335.01	48.52
335.221	49.5
335.432	49.31
335.644	48.64
335.855	48.39
336.066	48.66
336.277	48.74
336.488	48.41
336.7	50.43
336.911	50.87
337.122	51.48
337.333	51.48
337.544	50.07
337.755	49.62
337.966	51.06
338.177	52.51
338.388	52.04
338.599	52.13
338.811	52.98
339.022	52.26
339.233	51.85
339.444	52.06
339.655	53.17
339.866	55.07
340.076	54.3
340.287	54.38
340.498	54.24
340.709	55.21
340.92	57.05
341.131	57.36
341.342	57.88
341.553	59.31
341.764	58.91
341.975	57.83
342.185	57.88
342.396	59.82
342.607	60.87
342.818	62.16
343.029	61.29
343.239	59.06
343.45	58.85
343.661	57.72
343.872	56.38
344.082	55.9
344.293	55.69
344.504	55.3
344.714	54.85
344.925	55.23
345.136	53.77
345.346	55.81
345.557	57.17
345.768	56.79
345.978	57.73
346.189	57.82
346.399	58.57
346.61	58.7
346.821	59.09
347.031	59.25
347.242	58.24
347.452	59.78
347.663	59.37
347.873	59.29
348.084	59.08
348.294	58.54
348.504	58.44
348.715	58.76
348.925	60.04
349.136	59.26
349.346	58.94
349.557	59.23
349.767	58.53
349.977	57.64
350.188	58.26
350.398	58.94
350.608	60.21
350.819	60.61
351.029	60.12
351.239	59.59
351.449	60.14
351.66	58.88
351.87	58.37
352.08	58.01
352.29	58.76
352.501	57.8
352.711	57.44
352.921	58.06
353.131	57.37
353.341	57.38
353.552	57.61
353.762	57.32
353.972	58.07
354.182	59.33
354.392	60.34
354.602	60.16
354.812	60.03
355.022	60.82
355.232	59.3
355.442	59.15
355.652	59.59
355.862	58.88
356.072	60.94
356.282	61.19
356.492	59.58
356.702	59.06
356.912	58.65
357.122	59
357.332	58.87
357.542	58.83
357.752	59.48
357.962	59.02
358.171	59.01
358.381	57.57
358.591	56.85
358.801	56.95
359.011	56.33
359.221	56.35
359.43	57.05
359.64	56.29
359.85	56.89
360.06	56.74
360.269	55.92
360.479	56.7
360.689	56.53
360.899	57.68
361.108	58.14
361.318	58.81
361.528	58.46
361.737	57.83
361.947	58.26
362.156	57.84
362.366	58.17
362.576	58.5
362.785	57.49
362.995	57.66
363.204	57.92
363.414	56.98
363.623	56.74
363.833	56.75
364.042	57.17
364.252	56.51
364.461	56.66
364.671	55.91
364.88	56.54
365.09	57.38
365.299	56.84
365.509	55.53
365.718	56.55
365.927	55.55
366.137	54.85
366.346	54.42
366.555	54.49
366.765	53.99
366.974	54.28
367.183	54.31
367.393	53.93
367.602	53.35
367.811	53.37
368.021	53.56
368.23	54.59
368.439	54.83
368.648	54.64
368.857	54.79
369.067	53.7
369.276	52.38
369.485	51.59
369.694	51.72
369.903	52.88
370.112	53.11
370.321	53.13
370.531	52.12
370.74	52.02
370.949	52.36
371.158	51.92
371.367	52.29
371.576	53.35
371.785	52.93
371.994	52.88
372.203	52.5
372.412	51.88
372.621	51.12
372.83	51.07
373.039	51.74
373.248	50.82
373.457	50.71
373.666	51.03
373.874	49.87
374.083	50.43
374.292	50.97
374.501	50.83
374.71	51.15
374.919	51.72
375.128	51.61
375.336	50.71
375.545	50.7
375.754	50.28
375.963	50.39
376.171	51.44
376.38	50.19
376.589	49.55
376.798	49.77
377.006	49.64
377.215	48.54
377.424	48.82
377.632	48.43
377.841	48.4
378.05	48.22
378.258	47.48
378.467	46.54
378.675	46.78
378.884	46.48
379.093	45.94
379.301	45.78
379.51	45.74
379.718	45.21
379.927	45.76
380.135	45.68
380.344	46.21
380.552	45.96
380.761	46.16
380.969	46.06
381.177	46.3
381.386	45.6
381.594	45.49
381.803	45.33
382.011	45.41
382.219	44.8
382.428	44.42
382.636	43.48
382.845	43.62
383.053	43.18
383.261	43.04
383.469	42.67
383.678	42.71
383.886	42.56
384.094	42.66
384.302	41.71
384.511	42.08
384.719	42.18
384.927	42.36
385.135	42.32
385.343	42.31
385.552	41.8
385.76	41.51
385.968	40.82
386.176	40.53
386.384	40.37
386.592	40.72
386.8	40.12
387.008	39.76
387.216	39.68
387.424	39.81
387.633	39.85
387.841	40.1
388.049	39.95
388.257	40.51
388.465	40.05
388.672	39.61
388.88	39.2
389.088	39.4
389.296	39.2
389.504	38.87
389.712	38.31
389.92	37.82
390.128	37.65
390.336	37.31
390.544	36.93
390.751	36.81
390.959	36.86
391.167	36.78
391.375	36.3
391.583	36.58
391.79	36.73
391.998	36.44
392.206	36.18
392.414	36.36
392.621	36.66
392.829	36.67
393.037	37.07
393.244	36.8
393.452	36.73
393.66	36.78
393.867	36.7
394.075	36.63
394.283	36.93
394.49	36.69
394.698	36.49
394.905	35.94
395.113	35.75
395.32	35.5
395.528	35.66
395.735	36.18
395.943	36.28
396.15	35.91
396.358	35.44
396.565	35.46
396.773	35.58
396.98	35.88
397.188	35.94
397.395	35.85
397.602	35.83
397.81	35.83
398.017	35.51
398.225	35.18
398.432	35.15
398.639	35.49
398.847	35.14
399.054	35.47
399.261	34.78
399.468	34.76
399.676	35.34
399.883	35.45
400.09	35.24
400.297	35.06
400.505	35.15
400.712	35.53
400.919	35.16
401.126	35.27
401.333	35.37
401.54	35.66
401.748	35.89
401.955	35.37
402.162	35.16
402.369	35.69
402.576	35.79
402.783	35.9
402.99	35.51
403.197	35.95
403.404	36.05
403.611	35.84
403.818	35.79
404.025	35.58
404.232	35.8
404.439	35.91
404.646	35.42
404.853	35.6
405.06	35.39
405.267	35.5
405.474	35.26
405.681	35.35
405.887	35.33
406.094	35.43
406.301	35.55
406.508	35.62
406.715	35.49
406.922	35.48
407.128	35.46
407.335	35.61
407.542	35.19
407.749	35.08
407.955	34.57
408.162	34.66
408.369	34.56
408.575	34.7
408.782	34.36
408.989	34.08
409.195	34.31
409.402	34.16
409.609	34.04
409.815	34.28
410.022	34.48
410.228	34.63
410.435	34.68
410.642	34.45
410.848	34.41
411.055	34.76
411.261	34.92
411.468	34.7
411.674	34.54
411.881	34.85
412.087	34.74
412.294	34.85
412.5	35.04
412.706	34.92
412.913	35.03
413.119	35.15
413.326	34.54
413.532	34.78
413.738	34.77
413.945	34.79
414.151	34.56
414.357	34.82
414.564	34.41
414.77	34.39
414.976	34.12
415.182	34.32
415.389	34.28
415.595	34.43
415.801	34.47
416.007	34.77
416.214	34.33
416.42	34.16
416.626	34.06
416.832	34.2
417.038	34.09
417.244	33.97
417.45	33.76
417.657	33.34
417.863	33.51
418.069	33.34
418.275	32.95
418.481	33.14
418.687	33.5
418.893	33.25
419.099	33.12
419.305	33.31
419.511	33.31
419.717	33.3
419.923	33.38
420.129	33.34
420.335	33.3
420.541	33.28
420.746	33.31
420.952	33.07
421.158	33.03
421.364	33.04
421.57	32.88
421.776	32.94
421.982	33.11
422.187	33.19
422.393	33.1
422.599	32.95
422.805	33.16
423.01	33.06
423.216	32.91
423.422	32.97
423.628	32.98
423.833	33.01
424.039	33.01
424.245	32.74
424.45	32.64
424.656	32.58
424.862	32.68
425.067	32.42
425.273	32.49
425.478	32.59
425.684	32.53
425.889	32.46
426.095	32.26
426.301	32.3
426.506	32.55
426.712	32.35
426.917	32.46
427.123	32.34
427.328	32.47
427.533	32.39
427.739	32.54
427.944	32.77
428.15	32.88
428.355	32.98
428.561	32.91
428.766	32.73
428.971	32.86
429.177	32.73
429.382	32.69
429.587	32.8
429.793	32.71
429.998	32.52
430.203	32.11
430.408	31.82
430.614	31.92
430.819	31.93
431.024	31.66
431.229	31.74
431.434	31.78
431.64	32.18
431.845	32
432.05	32.09
432.255	32.05
432.46	32.31
432.665	32.43
432.87	32.32
433.076	32.15
433.281	32.26
433.486	32.35
433.691	32.44
433.896	32.18
434.101	32.24
434.306	32.42
434.511	32.52
434.716	32.6
434.921	32.51
435.126	32.63
435.331	32.82
435.535	32.76
435.74	32.87
435.945	32.75
436.15	32.7
436.355	32.57
436.56	32.39
436.765	32.2
436.97	32.15
437.174	32.23
437.379	32.36
437.584	32.32
437.789	32.64
437.993	32.22
438.198	32.33
438.403	32.33
438.608	32.4
438.812	32.3
439.017	32.54
439.222	32.48
439.426	32.5
439.631	32.09
439.836	31.99
440.04	31.91
440.245	32.09
440.45	32.08
440.654	32.16
440.859	32.11
441.063	32.2
441.268	32.17
441.472	32.21
441.677	32.3
441.881	32.37
442.086	32.35
442.29	32.15
442.495	32.17
442.699	32.22
442.904	32.22
443.108	32.19
443.312	32.3
443.517	32.18
443.721	32.04
443.925	31.96
444.13	32.03
444.334	32.12
444.538	32.26
444.743	32.2
444.947	32.24
445.151	32.15
445.356	32.33
445.56	32.36
445.764	32.35
445.968	32.31
446.173	32.26
446.377	32.29
446.581	32.39
446.785	32.37
446.989	32.54
447.193	32.32
447.398	32.37
447.602	32.22
447.806	32.14
448.01	32.18
448.214	32.17
448.418	32.11
448.622	32.15
448.826	32.06
449.03	31.99
449.234	31.63
449.438	31.67
449.642	31.66
449.846	31.7
450.05	31.56
450.254	31.46
450.458	31.52
450.662	31.53
450.866	31.69
451.069	31.49
451.273	31.52
451.477	31.61
451.681	31.57
451.885	31.52
452.089	31.58
452.292	31.61
452.496	31.75
452.7	31.85
452.904	32.02
453.107	31.78
453.311	31.8
453.515	31.84
453.719	31.96
453.922	31.99
454.126	31.95
454.33	32.09
454.533	32.23
454.737	32.1
454.94	31.96
455.144	31.82
455.348	31.79
455.551	32.08
455.755	32.01
455.958	32.03
456.162	32.1
