Data from 2937838_Reflection_1.txt Node
Date: Wed Jul 15 16:25:03 EDT 2015
User: robert
Spectrometer: USB4E03001
Autoset integration time: false
Trigger mode: 4
Integration Time (sec): 1.000000E-1
Scans to average: 10
Electric dark correction enabled: true
Nonlinearity correction enabled: false
Boxcar width: 5
Stray light correction enabled: false
XAxis mode: Wavelengths
Stop averaging: false
Number of Pixels in Spectrum: 3648
>>>>>Begin Spectral Data<<<<<
177.566	116.48
177.785	128.97
178.005	140.74
178.225	182.37
178.445	158.94
178.665	107.97
178.885	-682.2
179.105	141.15
179.324	78.01
179.544	44.01
179.764	27.12
179.984	-42.62
180.204	-70.21
180.423	-39.09
180.643	-136.07
180.863	-98.65
181.083	-143.39
181.302	-167.03
181.522	-318.57
181.742	-401.26
181.961	-826.91
182.181	447.08
182.401	365.36
182.621	449.08
182.84	194.72
183.06	136.1
183.279	131.12
183.499	132.03
183.719	186.81
183.938	161.08
184.158	140.15
184.377	1107.78
184.597	-1771.95
184.816	-888.34
185.036	-839.48
185.256	-153.09
185.475	-328.33
185.695	-477.39
185.914	-350.52
186.134	-12507.14
186.353	483.54
186.572	821.85
186.792	536.43
187.011	2581.36
187.231	187.94
187.45	208.82
187.67	142.83
187.889	243.48
188.108	328.74
188.328	167.25
188.547	-247.07
188.766	-583.28
188.986	1651.85
189.205	400
189.424	292.72
189.644	-44.68
189.863	-33.9
190.082	-116.26
190.302	39.76
190.521	45.59
190.74	-12.43
190.959	22.93
191.178	55.94
191.398	41.63
191.617	42.99
191.836	27.57
192.055	29.28
192.274	-17.96
192.494	38.3
192.713	-38.7
192.932	-18.36
193.151	9.66
193.37	30.54
193.589	78.52
193.808	85.93
194.027	79.9
194.246	98.76
194.465	87.19
194.685	112.42
194.904	126.24
195.123	146.84
195.342	191.71
195.561	168.84
195.78	-590.55
195.999	-143.28
196.218	-37.31
196.436	-7.97
196.655	61.73
196.874	30.24
197.093	8.74
197.312	-2.4
197.531	229.12
197.75	-141.75
197.969	-3111.94
198.188	288.96
198.407	150.87
198.625	135.22
198.844	119.65
199.063	179.7
199.282	269.22
199.501	-1459.14
199.719	-45.07
199.938	-52.65
200.157	-79.61
200.376	206.91
200.594	100.39
200.813	-4.47
201.032	0.49
201.251	25.57
201.469	13.26
201.688	-25.12
201.907	-64.19
202.125	-992.86
202.344	1017.5
202.563	1882.93
202.781	-2570.76
203	773.67
203.218	367.5
203.437	666.2
203.656	6068.85
203.874	-1189.48
204.093	1340.35
204.311	-22847.06
204.53	-345.95
204.748	55.34
204.967	112.46
205.185	96.05
205.404	9.1
205.622	33.98
205.841	87.17
206.059	93.58
206.278	131.27
206.496	136.3
206.715	184.92
206.933	91.12
207.151	38.45
207.37	10.97
207.588	1.55
207.806	-36.66
208.025	-31.92
208.243	-4791.16
208.461	-984.82
208.68	2214.79
208.898	-236.28
209.116	-707.66
209.335	-449.11
209.553	4223.03
209.771	-541.59
209.989	-114.75
210.208	-145.26
210.426	-392.52
210.644	-92.12
210.862	114.09
211.081	-159.39
211.299	1310
211.517	91.16
211.735	-105.35
211.953	237.27
212.171	53.33
212.39	-861.19
212.608	-94.21
212.826	362.54
213.044	111.53
213.262	-174.3
213.48	178.1
213.698	237.76
213.916	97.73
214.134	680.68
214.352	304.13
214.57	240.4
214.788	158.55
215.006	145.75
215.224	122.81
215.442	148.5
215.66	715.44
215.878	213.07
216.096	282.49
216.314	-732.86
216.532	-1245.31
216.75	7.65
216.968	106.88
217.185	100.59
217.403	106.95
217.621	78.23
217.839	52.99
218.057	97.7
218.275	-190.29
218.492	53.56
218.71	52.5
218.928	75.44
219.146	61.31
219.363	48.52
219.581	-2.26
219.799	-20.32
220.017	43.79
220.234	87.23
220.452	97.67
220.67	74.23
220.887	93.47
221.105	121.94
221.323	151.86
221.54	124.06
221.758	105.27
221.976	138.9
222.193	135.77
222.411	82.37
222.629	62.65
222.846	84.55
223.064	75.84
223.281	77.13
223.499	54.66
223.716	42.71
223.934	29.55
224.151	41.26
224.369	33.72
224.586	47.76
224.804	46.54
225.021	63.31
225.239	43.78
225.456	37.75
225.674	43.43
225.891	46.12
226.108	48.34
226.326	44.7
226.543	38.4
226.76	31.42
226.978	17.88
227.195	29.74
227.413	25.18
227.63	16.12
227.847	28.39
228.064	21.91
228.282	18.89
228.499	21.77
228.716	22.46
228.934	21.61
229.151	18.15
229.368	23.29
229.585	20.8
229.802	17.51
230.02	18.59
230.237	14.27
230.454	13.41
230.671	16.94
230.888	14.83
231.105	12.65
231.323	13.4
231.54	10.21
231.757	1.82
231.974	7.97
232.191	14.28
232.408	17.43
232.625	19.38
232.842	19.25
233.059	14.99
233.276	15.91
233.493	14.3
233.71	11.82
233.927	18.49
234.144	16.86
234.361	7.71
234.578	3.35
234.795	12.95
235.012	12.38
235.229	14.71
235.446	15.75
235.663	16.26
235.879	19.58
236.096	16.44
236.313	13.01
236.53	19.05
236.747	19.9
236.964	14.83
237.181	-4.92
237.397	-15.54
237.614	-16.41
237.831	-15.94
238.048	-10.14
238.264	-0.45
238.481	-0.33
238.698	7.42
238.915	6.78
239.131	12.69
239.348	18.44
239.565	22.7
239.781	26.57
239.998	27.81
240.215	29.07
240.431	23.43
240.648	18.62
240.865	18.3
241.081	16.64
241.298	17.98
241.514	15.97
241.731	15.71
241.947	13.49
242.164	13.94
242.38	14.33
242.597	12.92
242.814	12.2
243.03	11.42
243.246	11.16
243.463	10.13
243.679	8.66
243.896	8.06
244.112	8.6
244.329	9.6
244.545	10.02
244.762	7.28
244.978	7.4
245.194	9.73
245.411	10.42
245.627	11.81
245.843	13.32
246.06	13
246.276	12.24
246.492	11.53
246.709	11.02
246.925	10.44
247.141	11.73
247.357	11.86
247.574	11.73
247.79	11.93
248.006	11.92
248.222	11.73
248.439	11.04
248.655	10.87
248.871	10.71
249.087	10.47
249.303	11.3
249.519	11.82
249.736	13.21
249.952	13.1
250.168	13.99
250.384	15.57
250.6	16.67
250.816	18.11
251.032	20.5
251.248	17.94
251.464	21.27
251.68	19.4
251.896	18.27
252.112	18.15
252.328	18.3
252.544	18.52
252.76	17.63
252.976	15.4
253.192	14.82
253.408	14.2
253.624	17.64
253.84	16.4
254.056	13.77
254.272	16.08
254.487	10.47
254.703	9.91
254.919	7.4
255.135	3.43
255.351	8.73
255.567	7.02
255.782	3.7
255.998	2.5
256.214	5.05
256.43	11.5
256.646	8.08
256.861	9.65
257.077	12.71
257.293	16.97
257.508	16.07
257.724	13.75
257.94	12.77
258.155	11.75
258.371	9.78
258.587	9.43
258.802	8.19
259.018	7.31
259.234	8.13
259.449	7.89
259.665	6.02
259.88	7.49
260.096	7.71
260.312	7.83
260.527	8.61
260.743	8.91
260.958	7.87
261.174	7.78
261.389	7.72
261.605	7.02
261.82	6.36
262.036	5.31
262.251	4.32
262.466	3.71
262.682	2.76
262.897	2.12
263.113	2.64
263.328	1.84
263.543	0.06
263.759	2.91
263.974	3.52
264.189	2.78
264.405	3.27
264.62	5.56
264.835	5.27
265.051	6.44
265.266	9.02
265.481	7.91
265.696	9.73
265.912	11.44
266.127	11.04
266.342	10.5
266.557	10.61
266.773	11.48
266.988	8.76
267.203	9
267.418	8.85
267.633	7.85
267.848	8.07
268.064	9.26
268.279	9.25
268.494	8.03
268.709	8.03
268.924	7.09
269.139	7.46
269.354	8.36
269.569	7.47
269.784	8.63
269.999	9.6
270.214	9.17
270.429	8.43
270.644	8.7
270.859	8.02
271.074	8.43
271.289	9.21
271.504	9.76
271.719	9.01
271.934	8.87
272.149	8.52
272.363	7.14
272.578	8.66
272.793	8.94
273.008	8.56
273.223	8.88
273.438	8.77
273.653	8.9
273.867	7.34
274.082	8.2
274.297	7.76
274.512	7.48
274.726	7.63
274.941	6.36
275.156	6.24
275.371	6.25
275.585	5.98
275.8	5.58
276.015	6.09
276.229	8.35
276.444	9.02
276.659	10.61
276.873	11.33
277.088	11.22
277.302	11.31
277.517	10.9
277.732	10.09
277.946	11.42
278.161	12.43
278.375	11.18
278.59	10.87
278.804	10.23
279.019	9.33
279.233	8.53
279.448	9.04
279.662	9.03
279.877	7.88
280.091	10.17
280.306	10.66
280.52	11.02
280.735	10.71
280.949	10.04
281.163	9.59
281.378	8.64
281.592	7.93
281.806	7.97
282.021	7.9
282.235	9.13
282.449	8.41
282.664	7.37
282.878	7.46
283.092	8.57
283.307	7.83
283.521	8.32
283.735	9.72
283.949	8.91
284.164	9.25
284.378	8.81
284.592	9.26
284.806	8.7
285.02	8.83
285.234	8.1
285.449	7.13
285.663	6.98
285.877	5.79
286.091	6.43
286.305	9.44
286.519	9.85
286.733	10.42
286.947	9.1
287.161	9.41
287.375	8.04
287.589	8.02
287.803	8.41
288.017	8.51
288.231	10.51
288.445	8.61
288.659	6.41
288.873	5.32
289.087	4.23
289.301	4.91
289.515	5.9
289.729	6.23
289.943	5.95
290.157	6.61
290.371	7.49
290.584	6.25
290.798	7.37
291.012	7.56
291.226	8.11
291.44	8.7
291.654	8.39
291.867	7.83
292.081	9.13
292.295	9.27
292.509	8.66
292.722	9.15
292.936	9.53
293.15	8.06
293.364	8.78
293.577	8.37
293.791	9.92
294.005	10.74
294.218	10.81
294.432	11.63
294.645	11.35
294.859	11.85
295.073	11.48
295.286	11.33
295.5	10.91
295.713	10.74
295.927	9.98
296.14	9.03
296.354	9.2
296.568	8.8
296.781	8.56
296.994	8.39
297.208	7.7
297.421	7.12
297.635	6.94
297.848	8.19
298.062	7.49
298.275	7.62
298.489	7.43
298.702	7.52
298.915	7.12
299.129	6.37
299.342	6.44
299.555	7.72
299.769	7.76
299.982	6.78
300.195	5.37
300.409	5.79
300.622	7.31
300.835	7.25
301.048	7.02
301.262	8.25
301.475	9.31
301.688	8.42
301.901	7.05
302.115	7.89
302.328	9.37
302.541	10.39
302.754	11.04
302.967	9.88
303.18	9.47
303.393	8.9
303.607	8.12
303.82	7.63
304.033	8.66
304.246	9.18
304.459	8.56
304.672	8.8
304.885	8.15
305.098	7.79
305.311	6.68
305.524	7.41
305.737	6.61
305.95	5.93
306.163	5.98
306.376	6.35
306.589	5.56
306.802	4.95
307.015	5.16
307.228	6.83
307.44	6.74
307.653	7.96
307.866	8.84
308.079	7.28
308.292	7.12
308.505	6.56
308.718	7.29
308.93	7.99
309.143	8.15
309.356	7.22
309.569	5.93
309.781	5.83
309.994	6.25
310.207	5.63
310.42	7.87
310.632	8.26
310.845	8.34
311.058	8.5
311.27	8.38
311.483	9.5
311.696	10.81
311.908	12.1
312.121	10.83
312.333	10.66
312.546	10.71
312.759	11.62
312.971	12.02
313.184	13.15
313.396	11.53
313.609	12.17
313.821	11.11
314.034	10.58
314.246	10.39
314.459	11.69
314.671	12
314.884	11.99
315.096	10.73
315.309	10.1
315.521	9.02
315.733	9.53
315.946	9.27
316.158	9.68
316.371	9.5
316.583	8.56
316.795	9.4
317.008	8.4
317.22	8.78
317.432	9.63
317.644	11.05
317.857	11.33
318.069	12.28
318.281	12.93
318.494	11.94
318.706	12.38
318.918	10.94
319.13	10.22
319.342	9.96
319.555	7.61
319.767	8.66
319.979	8.81
320.191	9.25
320.403	8.5
320.615	6.36
320.827	9.19
321.039	8.8
321.252	9.4
321.464	9.47
321.676	11.61
321.888	13.96
322.1	11.74
322.312	12.35
322.524	13.21
322.736	12.97
322.948	14.82
323.16	14.41
323.372	15.14
323.584	16.36
323.796	16.71
324.007	16.28
324.219	15.8
324.431	15.55
324.643	15.2
324.855	14.32
325.067	15.01
325.279	14.15
325.491	13.72
325.702	11.85
325.914	11.3
326.126	11.6
326.338	11.78
326.55	12.07
326.761	11.86
326.973	12.3
327.185	11.74
327.396	11.37
327.608	11.74
327.82	11.94
328.032	13.02
328.243	13.5
328.455	12.01
328.666	12.92
328.878	13.21
329.09	13.68
329.301	13
329.513	14.82
329.725	13.39
329.936	13.12
330.148	11.78
330.359	11.43
330.571	12.39
330.782	13.16
330.994	11.74
331.205	11.98
331.417	12.74
331.628	12.85
331.84	9.93
332.051	12.31
332.262	12.04
332.474	12.26
332.685	12.27
332.897	10.8
333.108	12.83
333.319	12.64
333.531	13.15
333.742	12.98
333.953	13
334.165	13.87
334.376	14.81
334.587	14.7
334.799	13.94
335.01	14.56
335.221	15.65
335.432	15.03
335.644	14.23
335.855	13.63
336.066	13.97
336.277	13.79
336.488	13.99
336.7	13.46
336.911	13.71
337.122	14.42
337.333	14.55
337.544	12.36
337.755	11.94
337.966	12.42
338.177	11.94
338.388	11.32
338.599	11.1
338.811	11.29
339.022	10.16
339.233	10.25
339.444	10.26
339.655	9.89
339.866	11.73
340.076	11.3
340.287	11.33
340.498	10.82
340.709	10.65
340.92	11.25
341.131	10.79
341.342	11.18
341.553	10.49
341.764	10.17
341.975	9.78
342.185	9.57
342.396	10.53
342.607	11.2
342.818	12
343.029	11.94
343.239	11.44
343.45	12.09
343.661	11.76
343.872	12.54
344.082	13.47
344.293	13.46
344.504	13.47
344.714	11.74
344.925	11.42
345.136	10.86
345.346	10.64
345.557	11.59
345.768	11.46
345.978	11.64
346.189	10.94
346.399	10.87
346.61	10.34
346.821	10.03
347.031	10.3
347.242	9.69
347.452	10.72
347.663	10.36
347.873	8.82
348.084	8.91
348.294	8.18
348.504	8.87
348.715	10.01
348.925	11.2
349.136	12
349.346	11.85
349.557	12.57
349.767	11.6
349.977	12.05
350.188	12.3
350.398	11.93
350.608	12.17
350.819	12.31
351.029	11.95
351.239	12.4
351.449	12.54
351.66	13.8
351.87	13.16
352.08	13.21
352.29	12.91
352.501	13.29
352.711	13.29
352.921	13.18
353.131	13.97
353.341	13.76
353.552	13.22
353.762	12.59
353.972	12
354.182	12.04
354.392	12.62
354.602	13.48
354.812	12.37
355.022	12.46
355.232	12.99
355.442	12.33
355.652	11.12
355.862	10.88
356.072	10.56
356.282	10.87
356.492	11.37
356.702	10.41
356.912	10.09
357.122	10.5
357.332	10.92
357.542	10.8
357.752	10.56
357.962	10.73
358.171	10.88
358.381	10.93
358.591	11.26
358.801	11.46
359.011	12.26
359.221	13.25
359.43	13.13
359.64	12.93
359.85	13.11
360.06	13.34
360.269	14.47
360.479	14.46
360.689	13.61
360.899	12.79
361.108	12.7
361.318	11.85
361.528	10.43
361.737	10.63
361.947	9.99
362.156	10.17
362.366	9.91
362.576	8.26
362.785	8.16
362.995	8.66
363.204	8.64
363.414	8.82
363.623	9.74
363.833	9.91
364.042	9.71
364.252	10.66
364.461	10.15
364.671	9.74
364.88	10.89
365.09	11.08
365.299	12.16
365.509	12.2
365.718	11.76
365.927	11.75
366.137	11.95
366.346	12.26
366.555	11.63
366.765	11.9
366.974	11.89
367.183	12.12
367.393	11.03
367.602	10.26
367.811	10.61
368.021	9.61
368.23	8.93
368.439	9.46
368.648	9.58
368.857	10.11
369.067	9.19
369.276	8.8
369.485	8.35
369.694	9.17
369.903	8.74
370.112	7.95
370.321	8.46
370.531	9.52
370.74	9.31
370.949	8.84
371.158	8.74
371.367	9.64
371.576	10.37
371.785	9.79
371.994	10.09
372.203	10.65
372.412	11.41
372.621	10.85
372.83	10.2
373.039	10.5
373.248	10.22
373.457	10.13
373.666	9.39
373.874	8.87
374.083	8.91
374.292	8.36
374.501	7.47
374.71	6.5
374.919	7.2
375.128	7.26
375.336	6.55
375.545	7.2
375.754	6.81
375.963	6.94
376.171	7.34
376.38	7.49
376.589	7.25
376.798	7.79
377.006	7.83
377.215	8.88
377.424	8.56
377.632	8.96
377.841	8.67
378.05	8.64
378.258	8.57
378.467	8.5
378.675	8.57
378.884	8.94
379.093	8.51
379.301	8.58
379.51	6.89
379.718	6.98
379.927	6.59
380.135	6.19
380.344	6.65
380.552	6.05
380.761	6.68
380.969	6.63
381.177	6.58
381.386	6.94
381.594	8.09
381.803	9.06
382.011	9.05
382.219	9.01
382.428	9.41
382.636	9.26
382.845	10.44
383.053	9.57
383.261	9.61
383.469	9.89
383.678	9.8
383.886	8.97
384.094	8.77
384.302	8.9
384.511	9.13
384.719	8.74
384.927	8.54
385.135	8.3
385.343	8.51
385.552	8.76
385.76	8.39
385.968	7.88
386.176	7.67
386.384	7.74
386.592	7.98
386.8	7.63
387.008	7.97
387.216	7.48
387.424	7.07
387.633	6.97
387.841	6.77
388.049	7.01
388.257	7.51
388.465	8.1
388.672	7.68
388.88	7.01
389.088	7.27
389.296	7.44
389.504	7.56
389.712	7.87
389.92	7.84
390.128	7.25
390.336	7.18
390.544	7.13
390.751	6.79
390.959	6.51
391.167	6.83
391.375	6.93
391.583	6.69
391.79	6.93
391.998	6.7
392.206	6.46
392.414	6.72
392.621	6.67
392.829	6.52
393.037	6.38
393.244	6.43
393.452	6.55
393.66	6.27
393.867	6.38
394.075	6.48
394.283	6.55
394.49	6.79
394.698	7.12
394.905	7.16
395.113	7.18
395.32	7.03
395.528	7.38
395.735	7.09
395.943	7.43
396.15	7.29
396.358	6.96
396.565	6.93
396.773	6.86
396.98	6.57
397.188	6.29
397.395	6.4
397.602	6.67
397.81	6.79
398.017	6.45
398.225	6.11
398.432	6.23
398.639	6.16
398.847	6.2
399.054	6.18
399.261	6.37
399.468	6.72
399.676	6.6
399.883	6.42
400.09	6.38
400.297	6.58
400.505	6.64
400.712	6.76
400.919	7.18
401.126	7.17
401.333	7.38
401.54	7.39
401.748	7.12
401.955	7.36
402.162	7.27
402.369	6.96
402.576	6.91
402.783	6.5
402.99	6.86
403.197	7.02
403.404	6.79
403.611	6.6
403.818	6.38
404.025	6.25
404.232	5.95
404.439	6.01
404.646	6.27
404.853	6.44
405.06	6.94
405.267	6.38
405.474	6.03
405.681	6.07
405.887	6.12
406.094	6.18
406.301	6.4
406.508	6.8
406.715	6.94
406.922	6.88
407.128	6.77
407.335	6.38
407.542	6.28
407.749	6.28
407.955	6.41
408.162	6.2
408.369	6.2
408.575	6.24
408.782	5.96
408.989	6.05
409.195	5.76
409.402	5.65
409.609	5.78
409.815	5.93
410.022	6.15
410.228	6.05
410.435	6.02
410.642	5.83
410.848	5.89
411.055	5.86
411.261	5.74
411.468	5.76
411.674	5.92
411.881	6.04
412.087	6.12
412.294	5.72
412.5	6
412.706	6.13
412.913	6.44
413.119	6.52
413.326	6.61
413.532	7
413.738	6.88
413.945	6.78
414.151	6.57
414.357	6.51
414.564	6.62
414.77	6.45
414.976	6.69
415.182	6.47
415.389	6.3
415.595	6.24
415.801	6.03
416.007	6.17
416.214	6.25
416.42	6.24
416.626	6.55
416.832	6.6
417.038	6.4
417.244	6.44
417.45	6.47
417.657	6.38
417.863	6.22
418.069	5.96
418.275	6.02
418.481	5.84
418.687	6.01
418.893	5.84
419.099	5.8
419.305	6.04
419.511	5.81
419.717	5.74
419.923	5.81
420.129	5.95
420.335	6.14
420.541	6.24
420.746	6.31
420.952	6.15
421.158	6.13
421.364	6.16
421.57	6.04
421.776	6
421.982	6.12
422.187	6.04
422.393	5.98
422.599	5.78
422.805	5.61
423.01	5.61
423.216	5.73
423.422	5.7
423.628	5.83
423.833	5.81
424.039	5.8
424.245	5.68
424.45	5.78
424.656	5.88
424.862	5.92
425.067	5.95
425.273	6.03
425.478	6.1
425.684	5.91
425.889	5.66
426.095	5.79
426.301	5.95
426.506	6.05
426.712	5.99
426.917	5.82
427.123	5.94
427.328	5.89
427.533	5.94
427.739	5.89
427.944	6.19
428.15	6.33
428.355	5.89
428.561	5.75
428.766	5.66
428.971	5.82
429.177	5.73
429.382	5.59
429.587	5.44
429.793	5.35
429.998	5.21
430.203	5.14
430.408	5.36
430.614	5.76
430.819	5.62
431.024	5.53
431.229	5.33
431.434	5.44
431.64	5.55
431.845	5.66
432.05	5.73
432.255	5.64
432.46	5.6
432.665	5.19
432.87	5.06
433.076	5.13
433.281	5.26
433.486	5.17
433.691	5.26
433.896	5.33
434.101	5.57
434.306	5.43
434.511	5.56
434.716	5.69
434.921	5.98
435.126	6.22
435.331	6.41
435.535	6.41
435.74	6.49
435.945	6.44
436.15	6.51
436.355	6.4
436.56	6.65
436.765	6.52
436.97	6.22
437.174	6.11
437.379	5.84
437.584	5.95
437.789	5.87
437.993	5.73
438.198	5.58
438.403	5.44
438.608	5.4
438.812	5.05
439.017	5.17
439.222	5.33
439.426	5.25
439.631	5.16
439.836	4.95
440.04	5.02
440.245	4.96
440.45	5.07
440.654	5.23
440.859	5.22
441.063	5.44
441.268	5.32
441.472	5.35
441.677	5.51
441.881	5.77
442.086	5.89
442.29	5.86
442.495	5.99
442.699	6.15
442.904	6.06
443.108	5.92
443.312	6
443.517	5.95
443.721	5.89
443.925	5.79
444.13	5.56
444.334	5.49
444.538	5.51
444.743	5.56
444.947	5.31
445.151	5.28
445.356	5.37
445.56	5.27
445.764	5.36
445.968	5.29
446.173	5.4
446.377	5.43
446.581	5.4
446.785	5.4
446.989	5.26
447.193	5.41
447.398	5.4
447.602	5.4
447.806	5.4
448.01	5.41
448.214	5.54
448.418	5.45
448.622	5.48
448.826	5.46
449.03	5.49
449.234	5.47
449.438	5.39
449.642	5.36
449.846	5.32
450.05	5.41
450.254	5.35
450.458	5.02
450.662	4.89
450.866	4.92
451.069	5.18
451.273	5.15
451.477	5.51
451.681	5.56
451.885	5.58
452.089	5.7
452.292	5.38
452.496	5.45
452.7	5.67
452.904	5.76
453.107	5.76
453.311	5.47
453.515	5.48
453.719	5.26
453.922	5.33
454.126	5.27
454.33	5.07
454.533	5.19
454.737	5.08
454.94	5.07
455.144	5
455.348	4.88
455.551	4.98
455.755	4.95
455.958	5.18
456.162	4.99
456.365	5.01
456.569	5.35
456.772	5.34
456.976	5.63
457.179	5.57
457.383	5.67
457.586	5.7
457.79	5.76
457.993	5.77
458.196	5.64
458.4	5.63
458.603	5.79
458.807	5.47
459.01	5.44
459.213	5.26
459.417	5.32
459.62	5.31
459.823	5.35
460.026	5.24
460.23	5.25
460.433	5.15
460.636	5.07
460.839	4.93
461.042	5.09
461.246	5.16
461.449	5.2
461.652	5.26
461.855	5.24
462.058	5.03
462.261	5.15
462.464	5.05
462.668	5.3
462.871	5.31
463.074	5.2
463.277	5.1
463.48	5.16
463.683	5.18
463.886	5.04
464.089	4.96
464.292	5.13
464.495	5.05
464.698	5.09
464.901	5.09
465.104	5.29
