Data from 2937866_Reflection_2.txt Node
Date: Wed Jul 15 15:10:40 EDT 2015
User: robert
Spectrometer: USB4E03001
Autoset integration time: false
Trigger mode: 4
Integration Time (sec): 1.000000E-1
Scans to average: 10
Electric dark correction enabled: true
Nonlinearity correction enabled: false
Boxcar width: 5
Stray light correction enabled: false
XAxis mode: Wavelengths
Stop averaging: false
Number of Pixels in Spectrum: 3648
>>>>>Begin Spectral Data<<<<<
177.566	58.14
177.785	7.92
178.005	-636.76
178.225	93.99
178.445	-3.5
178.665	177.49
178.885	131.61
179.105	382.73
179.324	-14.14
179.544	-24.93
179.764	-31.6
179.984	5.67
180.204	12.94
180.423	-3.35
180.643	-1.88
180.863	-43.83
181.083	-73.59
181.302	-146.45
181.522	-45.34
181.742	-116.13
181.961	-535.31
182.181	141.19
182.401	66.86
182.621	32.67
182.84	-10.22
183.06	30.48
183.279	-15.61
183.499	-1.86
183.719	-8.84
183.938	-17.3
184.158	-24.06
184.377	-22.23
184.597	10.06
184.816	8.41
185.036	-77.25
185.256	-94.32
185.475	-5.69
185.695	30.69
185.914	45.62
186.134	12.24
186.353	-26.67
186.572	-49.38
186.792	-34.91
187.011	16.21
187.231	59.04
187.45	28.92
187.67	-14
187.889	28.45
188.108	104.7
188.328	-13.36
188.547	-7.26
188.766	-147.88
188.986	-167.27
189.205	-13.77
189.424	53.11
189.644	71.67
189.863	288.88
190.082	228.51
190.302	-20500
190.521	-992.88
190.74	-95.13
190.959	-139.17
191.178	-60.22
191.398	-115.68
191.617	-11.72
191.836	-24.96
192.055	-63.51
192.274	-50.07
192.494	-35.06
192.713	-17.89
192.932	23.82
193.151	54.16
193.37	41.62
193.589	58.52
193.808	517.42
194.027	-31.79
194.246	-15.99
194.465	-25
194.685	-47.42
194.904	-54.6
195.123	-37.11
195.342	14.82
195.561	4.34
195.78	13.74
195.999	19.59
196.218	29.14
196.436	50.27
196.655	61.4
196.874	30.58
197.093	23.04
197.312	57.94
197.531	52.14
197.75	25.94
197.969	21.85
198.188	20.89
198.407	27.38
198.625	-19.79
198.844	-132.56
199.063	-125.34
199.282	-598.18
199.501	-221.93
199.719	-126.44
199.938	-258.74
200.157	-765.64
200.376	-197.06
200.594	-55.78
200.813	-215.07
201.032	-270.92
201.251	385.33
201.469	-168.59
201.688	160.66
201.907	227.7
202.125	207.43
202.344	283.24
202.563	197.71
202.781	222.66
203	220.55
203.218	358.04
203.437	308.44
203.656	1687.1
203.874	-1255.01
204.093	-390.03
204.311	-183.77
204.53	-146.29
204.748	-113.84
204.967	-135.81
205.185	-101.75
205.404	-77.21
205.622	-95.32
205.841	-110.15
206.059	-449.26
206.278	8770.31
206.496	1306.34
206.715	725.68
206.933	5121.36
207.151	1220.47
207.37	15.88
207.588	-166.07
207.806	8.69
208.025	-6.19
208.243	673.21
208.461	393.09
208.68	121.14
208.898	346.87
209.116	333.3
209.335	-166.92
209.553	-79.2
209.771	-246.78
209.989	134.89
210.208	166.22
210.426	242.22
210.644	121.12
210.862	414.1
211.081	103.56
211.299	865.88
211.517	-71.99
211.735	44.15
211.953	82.12
212.171	120.79
212.39	169.68
212.608	399.95
212.826	391.68
213.044	2304.17
213.262	-921.71
213.48	2769.38
213.698	-478.62
213.916	-135.8
214.134	-124.44
214.352	-163.58
214.57	10.69
214.788	37.55
215.006	93.52
215.224	24.55
215.442	20.55
215.66	175.57
215.878	85.43
216.096	112.74
216.314	124.12
216.532	143.5
216.75	92.57
216.968	108.64
217.185	93.84
217.403	105.13
217.621	439.92
217.839	355.36
218.057	294.38
218.275	-68.73
218.492	-484.16
218.71	-120.97
218.928	-81.53
219.146	11.26
219.363	41.05
219.581	57.12
219.799	95.06
220.017	94.62
220.234	91.96
220.452	122.8
220.67	99.72
220.887	94.09
221.105	71.88
221.323	220.81
221.54	-51.51
221.758	61.91
221.976	96.6
222.193	139.65
222.411	106.89
222.629	103.93
222.846	132.9
223.064	111
223.281	75.28
223.499	102.46
223.716	144.73
223.934	131.59
224.151	186.06
224.369	149.42
224.586	181.08
224.804	183.67
225.021	422.82
225.239	102.01
225.456	57.37
225.674	86.51
225.891	15.04
226.108	-63.32
226.326	-92.66
226.543	-425.73
226.76	-532.57
226.978	-309.01
227.195	-137.08
227.413	-52.78
227.63	-26.06
227.847	-45.73
228.064	-13.37
228.282	-6.21
228.499	4.5
228.716	8.8
228.934	15.91
229.151	20.87
229.368	23.59
229.585	28.91
229.802	23.39
230.02	23.14
230.237	22.69
230.454	16.87
230.671	18.47
230.888	18.49
231.105	21.53
231.323	17.72
231.54	8.68
231.757	7.68
231.974	-2.95
232.191	1.13
232.408	-2.94
232.625	-2.76
232.842	3.05
233.059	11.2
233.276	4.38
233.493	-3.59
233.71	-2.26
233.927	6.75
234.144	20.04
234.361	31.27
234.578	34.85
234.795	39.35
235.012	41.78
235.229	48.7
235.446	43.14
235.663	45.94
235.879	51.04
236.096	50.49
236.313	52.22
236.53	54.58
236.747	48.75
236.964	38.79
237.181	37.87
237.397	34.88
237.614	30.01
237.831	25.87
238.048	20.4
238.264	8.09
238.481	5.73
238.698	15.66
238.915	5.9
239.131	11.03
239.348	25.27
239.565	28.13
239.781	27.81
239.998	21.79
240.215	22.15
240.431	19.47
240.648	23.56
240.865	25.35
241.081	19.84
241.298	18.45
241.514	15.68
241.731	13.59
241.947	13.47
242.164	14.9
242.38	15.69
242.597	17.43
242.814	18.41
243.03	20.18
243.246	18.46
243.463	18.31
243.679	19.65
243.896	19.6
244.112	19.94
244.329	19.67
244.545	16.34
244.762	17.8
244.978	16.23
245.194	16.4
245.411	13.13
245.627	14.39
245.843	15.3
246.06	13.81
246.276	15.83
246.492	16.09
246.709	16.04
246.925	17.93
247.141	19.04
247.357	19.51
247.574	20.17
247.79	20.4
248.006	20.35
248.222	19.37
248.439	18.43
248.655	17.02
248.871	17.09
249.087	17.56
249.303	13.83
249.519	10.69
249.736	10.52
249.952	8.5
250.168	4.91
250.384	2.59
250.6	2.7
250.816	5.8
251.032	8.86
251.248	7.93
251.464	7
251.68	11.41
251.896	9.17
252.112	7.59
252.328	6.61
252.544	9.84
252.76	11.57
252.976	11.1
253.192	11.45
253.408	10.62
253.624	13.72
253.84	16.64
254.056	16
254.272	18.42
254.487	18.06
254.703	20.94
254.919	19.66
255.135	16.49
255.351	22.49
255.567	21.47
255.782	17.72
255.998	13.13
256.214	8
256.43	7.29
256.646	11.5
256.861	10.79
257.077	4.78
257.293	6.03
257.508	9.16
257.724	2.04
257.94	5.23
258.155	5.01
258.371	4.66
258.587	8.31
258.802	12.31
259.018	12.76
259.234	14.38
259.449	16.75
259.665	15.37
259.88	15.27
260.096	15.93
260.312	16.15
260.527	16.87
260.743	17.63
260.958	16.29
261.174	14.76
261.389	14.66
261.605	14.27
261.82	12.72
262.036	13.57
262.251	14.34
262.466	14.57
262.682	12.06
262.897	11.75
263.113	11.67
263.328	13.21
263.543	15.79
263.759	12.66
263.974	12.01
264.189	10.78
264.405	9.2
264.62	7.7
264.835	6.62
265.051	7.83
265.266	8.29
265.481	7.73
265.696	7.72
265.912	6.98
266.127	8.26
266.342	8.73
266.557	9.42
266.773	9.84
266.988	10.2
267.203	11.64
267.418	10.37
267.633	11.99
267.848	12.42
268.064	11.04
268.279	10.44
268.494	10.28
268.709	8.75
268.924	10.57
269.139	10.46
269.354	9.56
269.569	9.62
269.784	11.05
269.999	9.21
270.214	8.99
270.429	11.58
270.644	10.66
270.859	9.97
271.074	12.99
271.289	13.06
271.504	13.5
271.719	12.43
271.934	11.74
272.149	11.17
272.363	12.33
272.578	12.7
272.793	11.43
273.008	11.62
273.223	12.07
273.438	11.03
273.653	9.86
273.867	9.47
274.082	9.13
274.297	9.47
274.512	10.66
274.726	8.46
274.941	7.99
275.156	9.57
275.371	8.05
275.585	9.62
275.8	9.05
276.015	8.09
276.229	7.06
276.444	8.81
276.659	6.78
276.873	6.72
277.088	7.27
277.302	5.49
277.517	5.45
277.732	8.66
277.946	6.29
278.161	7.75
278.375	6.85
278.59	10.58
278.804	9.99
279.019	11.71
279.233	10.95
279.448	9.82
279.662	11.31
279.877	10.65
280.091	10.5
280.306	12.3
280.52	10.55
280.735	11.95
280.949	10.95
281.163	11.59
281.378	11.91
281.592	10.79
281.806	14.24
282.021	13.57
282.235	13.62
282.449	14.78
282.664	14.9
282.878	14.96
283.092	15.83
283.307	16.7
283.521	16.39
283.735	16.16
283.949	18.92
284.164	16.39
284.378	17
284.592	16.16
284.806	13.31
285.02	13.09
285.234	14.18
285.449	13.33
285.663	11.66
285.877	11.42
286.091	11.76
286.305	10.99
286.519	10
286.733	10.62
286.947	9.81
287.161	11.02
287.375	9.52
287.589	8.64
287.803	8.73
288.017	8.76
288.231	7.74
288.445	7.05
288.659	7.63
288.873	9.48
289.087	8.01
289.301	10.13
289.515	11.35
289.729	11.64
289.943	12.81
290.157	14.04
290.371	15.54
290.584	17.18
290.798	16.91
291.012	16.07
291.226	16.67
291.44	16.57
291.654	15.38
291.867	14.06
292.081	15.53
292.295	14.27
292.509	12.86
292.722	13.54
292.936	13.4
293.15	13.27
293.364	14.47
293.577	12.85
293.791	13.4
294.005	16.49
294.218	16.11
294.432	16.03
294.645	17.27
294.859	17.83
295.073	15.06
295.286	14.91
295.5	15.83
295.713	14.87
295.927	16.87
296.14	17.14
296.354	15.6
296.568	16.35
296.781	16.88
296.994	17.32
297.208	17.08
297.421	17.86
297.635	17.38
297.848	17.25
298.062	17.19
298.275	17.72
298.489	17.47
298.702	18.69
298.915	18.7
299.129	17
299.342	15.15
299.555	14.51
299.769	12.94
299.982	14.25
300.195	14.16
300.409	13.78
300.622	12.68
300.835	11.05
301.048	8.05
301.262	6.85
301.475	8.73
301.688	10.28
301.901	13.61
302.115	13.76
302.328	13.36
302.541	13.52
302.754	12.82
302.967	13.53
303.18	16.66
303.393	17.52
303.607	19.01
303.82	19.09
304.033	19.67
304.246	16.98
304.459	18.9
304.672	19.37
304.885	19.02
305.098	19.42
305.311	17.19
305.524	15.48
305.737	14.39
305.95	14.62
306.163	14.38
306.376	13
306.589	12.55
306.802	10.27
307.015	10.51
307.228	10.01
307.44	10.38
307.653	12.99
307.866	13.98
308.079	13.67
308.292	12.79
308.505	11.89
308.718	12.46
308.93	15.11
309.143	17.57
309.356	16.28
309.569	15.23
309.781	17.14
309.994	17.93
310.207	18.12
310.42	18.78
310.632	19.39
310.845	19.94
311.058	19.48
311.27	17.68
311.483	15.05
311.696	15.71
311.908	16.92
312.121	15.82
312.333	13.8
312.546	13.83
312.759	13.26
312.971	11.99
313.184	9.77
313.396	7.77
313.609	9.17
313.821	11.34
314.034	10.87
314.246	10.28
314.459	10.81
314.671	9.17
314.884	8.34
315.096	9.88
315.309	9.72
315.521	11.45
315.733	12.95
315.946	14.67
316.158	15.59
316.371	16.59
316.583	15.99
316.795	11.73
317.008	14.73
317.22	15.42
317.432	15.47
317.644	16.14
317.857	16.24
318.069	15.6
318.281	13.97
318.494	14.96
318.706	15.35
318.918	16.8
319.13	18.31
319.342	17.31
319.555	15.49
319.767	15.27
319.979	13.63
320.191	13.43
320.403	14.36
320.615	13.55
320.827	15.14
321.039	13.01
321.252	12.03
321.464	13.26
321.676	13.79
321.888	14.01
322.1	14.5
322.312	17.3
322.524	18.43
322.736	17.26
322.948	17.77
323.16	13.05
323.372	13.96
323.584	12.69
323.796	11.35
324.007	10.94
324.219	12.11
324.431	13.73
324.643	12.51
324.855	12.42
325.067	13.67
325.279	13.05
325.491	15.13
325.702	15.28
325.914	18.57
326.126	19.45
326.338	19.92
326.55	20.65
326.761	20.04
326.973	20.52
327.185	20.51
327.396	18.82
327.608	20.09
327.82	19.01
328.032	20.04
328.243	19.31
328.455	20.65
328.666	21.07
328.878	20.78
329.09	19.78
329.301	20.93
329.513	21.13
329.725	22.51
329.936	20.72
330.148	21.28
330.359	19.88
330.571	17.99
330.782	16.54
330.994	15.42
331.205	15.5
331.417	15.15
331.628	13.14
331.84	14.38
332.051	16.02
332.262	17.37
332.474	16.12
332.685	16.14
332.897	18.08
333.108	19.43
333.319	17.84
333.531	18.09
333.742	20.45
333.953	20.09
334.165	20.11
334.376	19.2
334.587	19.26
334.799	19.96
335.01	20.68
335.221	21.43
335.432	21.01
335.644	22.82
335.855	22.73
336.066	21.01
336.277	21.84
336.488	20.64
336.7	20.68
336.911	20.6
337.122	20.83
337.333	20.34
337.544	19.85
337.755	20.59
337.966	20.46
338.177	21.61
338.388	21.91
338.599	22.82
338.811	22.22
339.022	21.71
339.233	21.52
339.444	21.34
339.655	22.33
339.866	22.02
340.076	20.95
340.287	22.34
340.498	20.13
340.709	19.53
340.92	18.71
341.131	19.13
341.342	19.48
341.553	20.56
341.764	21.14
341.975	20.12
342.185	19.54
342.396	20.53
342.607	20.06
342.818	20.8
343.029	21
343.239	20.89
343.45	20.07
343.661	19.45
343.872	17.62
344.082	17.89
344.293	18.31
344.504	19.11
344.714	18.79
344.925	17.58
345.136	17.67
345.346	16.79
345.557	17.57
345.768	18.26
345.978	18.86
346.189	19.81
346.399	20.71
346.61	21.73
346.821	20.72
347.031	20.42
347.242	22
347.452	20.11
347.663	20.75
347.873	19.72
348.084	20.75
348.294	22.08
348.504	20.48
348.715	17.64
348.925	15.65
349.136	16.56
349.346	16.08
349.557	14.81
349.767	16.91
349.977	18.1
350.188	18.35
350.398	16.6
350.608	15.32
350.819	15.04
351.029	16.04
351.239	17.25
351.449	16.47
351.66	16.5
351.87	15.48
352.08	14.81
352.29	14.4
352.501	14.45
352.711	15.18
352.921	16.73
353.131	17.08
353.341	16.06
353.552	15.8
353.762	16.32
353.972	16.63
354.182	18.89
354.392	19.34
354.602	19.63
354.812	20.02
355.022	20.25
355.232	20.11
355.442	20.99
355.652	22.59
355.862	22.47
356.072	22.81
356.282	22.94
356.492	21.45
356.702	20.83
356.912	19.64
357.122	19.37
357.332	20.37
357.542	19.25
357.752	18.54
357.962	18.39
358.171	19.1
358.381	18.32
358.591	18.03
358.801	17.99
359.011	19.26
359.221	19.86
359.43	19.99
359.64	19.67
359.85	19.42
360.06	19.07
360.269	19.34
360.479	18.31
360.689	18.55
360.899	18.36
361.108	18.95
361.318	18.69
361.528	18.4
361.737	18.7
361.947	17.93
362.156	17.48
362.366	17.76
362.576	17.43
362.785	18.03
362.995	18.3
363.204	17.31
363.414	16.46
363.623	17.02
363.833	17.39
364.042	16.76
364.252	16.47
364.461	16.73
364.671	16.64
364.88	16.88
365.09	16.8
365.299	16.08
365.509	15.87
365.718	16.71
365.927	15.38
366.137	14.62
366.346	13.82
366.555	13.93
366.765	15.34
366.974	15.7
367.183	14.68
367.393	13.53
367.602	13.66
367.811	14.94
368.021	14.72
368.23	16.05
368.439	16
368.648	16.73
368.857	17.46
369.067	16.75
369.276	17.38
369.485	18.41
369.694	18.63
369.903	19.13
370.112	18.9
370.321	17.96
370.531	17.4
370.74	18.11
370.949	17.95
371.158	16.97
371.367	16.91
371.576	16.78
371.785	15.9
371.994	16.64
372.203	15.91
372.412	15.99
372.621	16.74
372.83	15.82
373.039	15.74
373.248	14.73
373.457	15.32
373.666	15.25
373.874	14.63
374.083	14.69
374.292	14.22
374.501	14.47
374.71	13.74
374.919	12.73
375.128	13.06
375.336	12.45
375.545	13.01
375.754	13.14
375.963	12.6
376.171	13.6
376.38	14.2
376.589	13.21
376.798	13.04
377.006	13.92
377.215	14.2
377.424	13.62
377.632	14.04
377.841	14.29
378.05	14.11
378.258	14.6
378.467	13.97
378.675	12.5
378.884	13.89
379.093	13.87
379.301	13.37
379.51	13.26
379.718	13.6
379.927	13.4
380.135	13.66
380.344	13.33
380.552	12.83
380.761	12.81
380.969	13.78
381.177	13.17
381.386	12.94
381.594	12.87
381.803	13.14
382.011	12.63
382.219	11.98
382.428	11.88
382.636	12.1
382.845	11.8
383.053	11.27
383.261	10.6
383.469	10.54
383.678	10.47
383.886	10.77
384.094	10.97
384.302	11.33
384.511	11.96
384.719	12.08
384.927	11.82
385.135	12.06
385.343	12.56
385.552	12.8
385.76	13.15
385.968	13.02
386.176	12.7
386.384	12.09
386.592	11.86
386.8	11.91
387.008	11.28
387.216	11.47
387.424	11.81
387.633	11.45
387.841	11.23
388.049	10.47
388.257	10.48
388.465	10.9
388.672	11.29
388.88	11.53
389.088	11.42
389.296	11.25
389.504	10.99
389.712	10.71
389.92	10.87
390.128	11.01
390.336	11.32
390.544	11.51
390.751	11.58
390.959	11.08
391.167	10.91
391.375	10.51
391.583	10.52
391.79	10.65
391.998	10.45
392.206	10.03
392.414	9.83
392.621	9.43
392.829	9.16
393.037	9.26
393.244	9.62
393.452	9.68
393.66	9.7
393.867	9.91
394.075	9.78
394.283	9.7
394.49	10.02
394.698	9.95
394.905	9.96
395.113	10.51
395.32	9.83
395.528	9.37
395.735	9.09
395.943	9.3
396.15	9.32
396.358	9.22
396.565	9.06
396.773	8.85
396.98	9.06
397.188	9.33
397.395	8.84
397.602	9.33
397.81	9.64
398.017	9.79
398.225	9.91
398.432	9.74
398.639	9.83
398.847	10.13
399.054	9.95
399.261	9.59
399.468	9.69
399.676	9.95
399.883	9.98
400.09	10.13
400.297	10.08
400.505	9.53
400.712	9.68
400.919	9.45
401.126	9.23
401.333	9.57
401.54	9.51
401.748	9.4
401.955	8.94
402.162	8.47
402.369	8.08
402.576	8.06
402.783	8.53
402.99	7.93
403.197	7.82
403.404	8.08
403.611	8.02
403.818	8.36
404.025	8.02
404.232	8.52
404.439	8.65
404.646	8.83
404.853	9.16
405.06	8.88
405.267	9.39
405.474	9.83
405.681	10.02
405.887	9.91
406.094	9.77
406.301	10.15
406.508	9.81
406.715	9.78
406.922	9.85
407.128	9.4
407.335	9.7
407.542	9.67
407.749	9.46
407.955	9.25
408.162	8.85
408.369	8.82
408.575	8.97
408.782	8.85
408.989	8.87
409.195	8.75
409.402	8.75
409.609	8.81
409.815	8.56
410.022	8.5
410.228	8.66
410.435	9.16
410.642	9.22
410.848	8.84
411.055	8.99
411.261	8.69
411.468	8.72
411.674	9.08
411.881	8.83
412.087	9.07
412.294	9.32
412.5	8.98
412.706	8.92
412.913	8.76
413.119	9.21
413.326	8.94
413.532	8.95
413.738	8.78
413.945	8.6
414.151	8.61
414.357	8.6
414.564	8.67
414.77	8.79
414.976	8.83
415.182	9.21
415.389	8.96
415.595	9.05
415.801	9.19
416.007	9.49
416.214	9.17
416.42	9.23
416.626	9.25
416.832	9.19
417.038	9.19
417.244	9.25
417.45	8.98
417.657	8.89
417.863	9.15
418.069	9.3
418.275	9.04
418.481	9.19
418.687	9.1
418.893	9.23
419.099	9.13
419.305	9.01
419.511	8.84
419.717	8.94
419.923	9.2
420.129	9.13
420.335	9.15
420.541	9.2
420.746	9.2
420.952	9.07
421.158	8.9
421.364	9
421.57	8.96
421.776	9.14
421.982	9.06
422.187	8.78
422.393	8.83
422.599	8.73
422.805	8.94
423.01	9
423.216	9.28
423.422	9.38
423.628	9.34
423.833	9.49
424.039	9.44
424.245	9.53
424.45	9.61
424.656	9.45
424.862	9.32
425.067	9.18
425.273	9.12
425.478	8.97
425.684	8.99
425.889	8.8
426.095	8.75
426.301	8.61
426.506	8.62
426.712	8.43
426.917	8.79
427.123	9.07
427.328	9.06
427.533	9.04
427.739	9.12
427.944	8.91
428.15	9.21
428.355	8.95
428.561	9.26
428.766	9.15
428.971	9.47
429.177	9.08
429.382	9.06
429.587	9.05
429.793	9.32
429.998	9.28
430.203	9.15
430.408	8.95
430.614	9.25
430.819	9.17
431.024	9.4
431.229	9.1
431.434	9.33
431.64	9.13
431.845	9.32
432.05	9.29
432.255	9.13
432.46	9.2
432.665	9.2
432.87	9.09
433.076	8.93
433.281	8.71
433.486	8.93
433.691	8.97
433.896	9.06
434.101	8.61
434.306	8.52
434.511	8.67
434.716	8.85
434.921	8.82
435.126	8.9
435.331	9.1
435.535	9.26
435.74	9.11
435.945	8.92
436.15	8.76
436.355	9.04
436.56	9.18
436.765	9.27
436.97	9.25
437.174	9.34
437.379	9.48
437.584	9.25
437.789	9
437.993	8.91
438.198	9
438.403	9.26
438.608	9.29
438.812	9.31
439.017	9.14
439.222	9.12
439.426	9.05
439.631	8.9
439.836	8.94
440.04	8.94
440.245	9.13
440.45	9.14
440.654	8.99
440.859	8.94
441.063	8.84
441.268	8.71
441.472	8.65
441.677	8.54
441.881	8.47
442.086	8.41
442.29	8.77
442.495	8.67
442.699	8.72
442.904	9
443.108	8.91
443.312	8.62
443.517	8.72
443.721	8.66
443.925	8.8
444.13	9.03
444.334	9.06
444.538	8.74
444.743	8.76
444.947	8.6
445.151	8.21
445.356	8.29
445.56	8.39
445.764	8.58
445.968	8.61
446.173	8.54
446.377	8.52
446.581	8.58
446.785	8.75
446.989	8.71
447.193	8.73
447.398	8.81
447.602	8.87
447.806	8.86
448.01	8.7
448.214	8.52
448.418	8.6
448.622	8.59
448.826	8.59
449.03	8.36
449.234	8.51
449.438	8.34
449.642	8.2
449.846	8.04
450.05	8.07
450.254	8.03
450.458	8.24
450.662	8.24
450.866	8.06
451.069	7.98
451.273	8.39
451.477	8.37
451.681	8.7
451.885	8.9
452.089	8.97
452.292	8.84
452.496	8.84
452.7	8.67
452.904	8.56
453.107	8.53
453.311	8.44
453.515	8.19
453.719	7.93
453.922	7.7
454.126	7.66
454.33	7.93
454.533	8.11
454.737	8.15
454.94	8.4
455.144	8.5
455.348	8.42
455.551	8.29
455.755	8.16
455.958	8.54
456.162	8.84
456.365	8.8
456.569	8.41
456.772	8.6
456.976	8.56
457.179	8.48
457.383	8.48
457.586	8.63
457.79	8.82
457.993	8.78
458.196	8.45
458.4	8.48
458.603	8.54
458.807	8.56
459.01	8.4
459.213	8.44
459.417	8.51
459.62	8.28
459.823	8.21
460.026	8.25
460.23	8.25
460.433	8.39
460.636	8.18
460.839	8.17
