Data from 2937835_Reflection_3.txt Node
Date: Wed Jul 15 16:33:23 EDT 2015
User: robert
Spectrometer: USB4E03001
Autoset integration time: false
Trigger mode: 4
Integration Time (sec): 1.000000E-1
Scans to average: 10
Electric dark correction enabled: true
Nonlinearity correction enabled: false
Boxcar width: 5
Stray light correction enabled: false
XAxis mode: Wavelengths
Stop averaging: false
Number of Pixels in Spectrum: 3648
>>>>>Begin Spectral Data<<<<<
177.566	-56.74
177.785	-221.18
178.005	202.14
178.225	243.29
178.445	207.97
178.665	407.69
178.885	133.24
179.105	49.27
179.324	46.71
179.544	57.32
179.764	70.91
179.984	24.41
180.204	332.91
180.423	188.16
180.643	152.21
180.863	149.01
181.083	147.28
181.302	423.44
181.522	812.71
181.742	-188.38
181.961	-106.09
182.181	-70.77
182.401	-173.08
182.621	-1210.83
182.84	-136.04
183.06	-102.61
183.279	-37.31
183.499	-64.16
183.719	-28.94
183.938	-15.63
184.158	13.45
184.377	-0.21
184.597	4.34
184.816	13.06
185.036	6.27
185.256	-20.07
185.475	4.76
185.695	-18.16
185.914	23.71
186.134	44.87
186.353	43.97
186.572	47.97
186.792	30.48
187.011	39.29
187.231	60.23
187.45	43.7
187.67	59.8
187.889	68.42
188.108	56.05
188.328	63.03
188.547	72.83
188.766	39.76
188.986	31.38
189.205	37.28
189.424	46.14
189.644	35.5
189.863	41.58
190.082	46.28
190.302	48.56
190.521	64.89
190.74	42.62
190.959	22.05
191.178	-6.89
191.398	-124.23
191.617	-64.54
191.836	-115.45
192.055	-204.47
192.274	-196.7
192.494	-208.2
192.713	-212.77
192.932	-533.83
193.151	-261.96
193.37	-102.03
193.589	-14.49
193.808	-17.08
194.027	-5.2
194.246	18.81
194.465	4.74
194.685	-27.02
194.904	-37.8
195.123	-32.38
195.342	13.99
195.561	55.84
195.78	46.21
195.999	22.45
196.218	17.05
196.436	-120.17
196.655	-99.25
196.874	-73.17
197.093	5218.46
197.312	226.85
197.531	-267.02
197.75	1399.78
197.969	633.63
198.188	924.33
198.407	-861.39
198.625	-246.85
198.844	-93.27
199.063	-76.87
199.282	-23.74
199.501	4.86
199.719	25.75
199.938	20.9
200.157	39.14
200.376	40.04
200.594	36.5
200.813	41.71
201.032	45.32
201.251	50.01
201.469	50.9
201.688	40.53
201.907	61.51
202.125	65.2
202.344	63.42
202.563	53.34
202.781	49.27
203	45.89
203.218	41.92
203.437	43.11
203.656	37.36
203.874	24.35
204.093	52.11
204.311	47.36
204.53	39.22
204.748	47.67
204.967	48.24
205.185	51.8
205.404	51.66
205.622	45.37
205.841	32.49
206.059	8.44
206.278	30.33
206.496	-6.38
206.715	-41.4
206.933	-175.42
207.151	-316.61
207.37	9523.08
207.588	863.21
207.806	-335.78
208.025	-448.41
208.243	-232.99
208.461	-13.57
208.68	12.45
208.898	134.77
209.116	169.88
209.335	29.28
209.553	0.68
209.771	19.71
209.989	77.11
210.208	65.09
210.426	77.49
210.644	106.19
210.862	75.44
211.081	63.39
211.299	41.33
211.517	61.09
211.735	71.17
211.953	68.09
212.171	39.37
212.39	26.73
212.608	13.69
212.826	32.28
213.044	31.67
213.262	19.83
213.48	28.19
213.698	40.04
213.916	16.89
214.134	27.34
214.352	16.38
214.57	58.32
214.788	64.84
215.006	102.8
215.224	67.65
215.442	52.88
215.66	57.34
215.878	42.26
216.096	32.71
216.314	39.44
216.532	50.53
216.75	57.54
216.968	28.24
217.185	18.38
217.403	2.12
217.621	10.51
217.839	-22.35
218.057	-2.56
218.275	3.43
218.492	13.68
218.71	-3.28
218.928	-16.49
219.146	-46.79
219.363	-39.18
219.581	6.48
219.799	-8.7
220.017	9.87
220.234	23.66
220.452	19.67
220.67	20.91
220.887	21.74
221.105	14.13
221.323	8.65
221.54	21.41
221.758	27.92
221.976	-0.13
222.193	-10.55
222.411	-15.02
222.629	-1.55
222.846	-18.81
223.064	-30.67
223.281	-19.06
223.499	-22.24
223.716	-0.11
223.934	-23.61
224.151	-45.96
224.369	-28.84
224.586	-11.12
224.804	-13.63
225.021	-27.35
225.239	-2.53
225.456	3.23
225.674	5.62
225.891	0.08
226.108	-17.98
226.326	-11.71
226.543	0.24
226.76	1.42
226.978	4.53
227.195	1.35
227.413	4.99
227.63	-1.57
227.847	0.07
228.064	-2.15
228.282	4.61
228.499	5.96
228.716	5.85
228.934	4.05
229.151	3.48
229.368	5.02
229.585	5.09
229.802	2.29
230.02	3.41
230.237	2.72
230.454	0.99
230.671	1.82
230.888	0.72
231.105	-1.16
231.323	-1.01
231.54	-1.47
231.757	-8.18
231.974	-11.37
232.191	-7.88
232.408	-11.71
232.625	-14.2
232.842	-9.13
233.059	-17.48
233.276	-8.41
233.493	-6.14
233.71	-14.42
233.927	-10.88
234.144	-8.46
234.361	-2.71
234.578	-5.75
234.795	0.07
235.012	2.88
235.229	2.18
235.446	0.42
235.663	0.57
235.879	5.13
236.096	7.82
236.313	11.07
236.53	17.79
236.747	19.77
236.964	30.49
237.181	22.14
237.397	16.95
237.614	13.78
237.831	15.47
238.048	15.17
238.264	9.48
238.481	11.15
238.698	6.82
238.915	3.5
239.131	0.44
239.348	-3.99
239.565	0.92
239.781	3.35
239.998	6.52
240.215	9.3
240.431	6.49
240.648	8.77
240.865	8.28
241.081	11.41
241.298	11.08
241.514	9.07
241.731	8.4
241.947	8.35
242.164	7.71
242.38	7.93
242.597	8.47
242.814	9.47
243.03	9.5
243.246	8.84
243.463	8.35
243.679	7.98
243.896	8.92
244.112	10.96
244.329	12.32
244.545	13.27
244.762	12.59
244.978	10.66
245.194	11.32
245.411	11.19
245.627	13.36
245.843	11.12
246.06	9.29
246.276	9.15
246.492	8.11
246.709	6.6
246.925	5.95
247.141	6.1
247.357	6.25
247.574	6.08
247.79	5.47
248.006	4.91
248.222	5.26
248.439	6.03
248.655	4.89
248.871	3.62
249.087	4.41
249.303	4.42
249.519	2.18
249.736	4.5
249.952	3.83
250.168	3.73
250.384	2.84
250.6	1.41
250.816	0.22
251.032	2.45
251.248	4.57
251.464	3.41
251.68	4.52
251.896	8.58
252.112	4.75
252.328	6.47
252.544	7.19
252.76	7.62
252.976	7.37
253.192	7.69
253.408	6.62
253.624	6.59
253.84	6.7
254.056	4.53
254.272	3.99
254.487	5.12
254.703	3.95
254.919	4.34
255.135	4.33
255.351	7.76
255.567	9.48
255.782	11.92
255.998	10.51
256.214	9.61
256.43	12.82
256.646	8.9
256.861	7.71
257.077	8.56
257.293	6.61
257.508	7.25
257.724	4.42
257.94	3.8
258.155	2.78
258.371	2.6
258.587	2.66
258.802	2.02
259.018	3.13
259.234	4.68
259.449	2.73
259.665	3.46
259.88	2.69
260.096	2.93
260.312	3.16
260.527	4.21
260.743	3.89
260.958	4.38
261.174	3.66
261.389	3.99
261.605	3.69
261.82	4.33
262.036	4.31
262.251	4.98
262.466	3.89
262.682	2.55
262.897	0.84
263.113	1.36
263.328	0.68
263.543	2.12
263.759	0.72
263.974	-0.82
264.189	-0.42
264.405	-1.6
264.62	-2.89
264.835	-1.16
265.051	0
265.266	2.17
265.481	3.24
265.696	1.54
265.912	2.41
266.127	2.04
266.342	1.72
266.557	2.56
266.773	2.46
266.988	3.06
267.203	3.72
267.418	3.49
267.633	1.91
267.848	3.62
268.064	5.34
268.279	6.37
268.494	7.23
268.709	7.88
268.924	6.85
269.139	7.69
269.354	7.17
269.569	7.18
269.784	7.41
269.999	6.94
270.214	6.25
270.429	7
270.644	7.14
270.859	7.42
271.074	7.08
271.289	7.47
271.504	7.92
271.719	9.33
271.934	7.94
272.149	6.93
272.363	8.16
272.578	8.75
272.793	8.82
273.008	6.91
273.223	6.69
273.438	7.61
273.653	7.45
273.867	6.45
274.082	4.68
274.297	6.72
274.512	7.38
274.726	6.85
274.941	4.46
275.156	2.83
275.371	4.28
275.585	4.15
275.8	2.12
276.015	3.59
276.229	4.57
276.444	5.83
276.659	4.61
276.873	4.72
277.088	4.65
277.302	3.92
277.517	4.94
277.732	3.72
277.946	2.2
278.161	2.99
278.375	0.09
278.59	-0.08
278.804	-0.71
279.019	0.37
279.233	0.68
279.448	-1.28
279.662	-0.53
279.877	0.17
280.091	-0.08
280.306	0.93
280.52	1.34
280.735	2.23
280.949	3.57
281.163	4.3
281.378	3.81
281.592	4.77
281.806	6.07
282.021	4.9
282.235	4.51
282.449	3.51
282.664	4.19
282.878	4.65
283.092	5.57
283.307	4.7
283.521	2.66
283.735	2.84
283.949	0.31
284.164	1.12
284.378	2.63
284.592	2.36
284.806	3.25
285.02	2.03
285.234	0.89
285.449	0.06
285.663	0.1
285.877	2.52
286.091	2.32
286.305	4.14
286.519	2.57
286.733	1.57
286.947	0.68
287.161	0.52
287.375	0.38
287.589	0.78
287.803	2.03
288.017	1.5
288.231	-0.19
288.445	-0.43
288.659	0.82
288.873	2.78
289.087	4.95
289.301	4.84
289.515	4.38
289.729	5.29
289.943	5.62
290.157	5.07
290.371	4.88
290.584	4.22
290.798	4.05
291.012	2.06
291.226	1.69
291.44	-0.47
291.654	-1.47
291.867	-1.95
292.081	-1.14
292.295	-1.67
292.509	-1.76
292.722	-1.35
292.936	-0.31
293.15	0.12
293.364	1.55
293.577	1.91
293.791	2.96
294.005	5.57
294.218	6.94
294.432	6.96
294.645	8.43
294.859	8.87
295.073	10.16
295.286	11.08
295.5	10.96
295.713	10.82
295.927	10.1
296.14	9.52
296.354	9.12
296.568	10.07
296.781	8.98
296.994	8.4
297.208	8.78
297.421	7.68
297.635	6.3
297.848	6.84
298.062	6.27
298.275	6.1
298.489	6.55
298.702	6.04
298.915	4.25
299.129	4.22
299.342	4.68
299.555	3.95
299.769	5.75
299.982	7.66
300.195	7.39
300.409	6.74
300.622	6.85
300.835	7.41
301.048	7.45
301.262	8.75
301.475	9.35
301.688	10.56
301.901	9.51
302.115	7.47
302.328	6.41
302.541	6.1
302.754	6.35
302.967	6.75
303.18	5.98
303.393	7.67
303.607	8.34
303.82	8.74
304.033	6.38
304.246	6.12
304.459	5.71
304.672	5.48
304.885	6.42
305.098	5.08
305.311	5.06
305.524	5.86
305.737	4.82
305.95	4.73
306.163	3.83
306.376	4.09
306.589	4.79
306.802	4.16
307.015	5.95
307.228	6.23
307.44	7.63
307.653	8.09
307.866	10.01
308.079	10.94
308.292	9.72
308.505	12.07
308.718	11.46
308.93	11.97
309.143	13.3
309.356	12.64
309.569	11.74
309.781	12.54
309.994	11.78
310.207	9.17
310.42	8.98
310.632	9.44
310.845	8.54
311.058	8.52
311.27	8.45
311.483	8.02
311.696	7.58
311.908	8.15
312.121	7.22
312.333	6.36
312.546	7.71
312.759	6.27
312.971	6.13
313.184	4.43
313.396	4.81
313.609	4.82
313.821	3.55
314.034	4.48
314.246	4.14
314.459	4.56
314.671	5.44
314.884	2.7
315.096	4.64
315.309	4.47
315.521	5.56
315.733	6.05
315.946	5.87
316.158	7.72
316.371	7.04
316.583	7.3
316.795	7.99
317.008	8.67
317.22	11.85
317.432	11.9
317.644	12.55
317.857	13.09
318.069	14.02
318.281	14.15
318.494	14.55
318.706	14.57
318.918	12.17
319.13	11.31
319.342	11.97
319.555	10.05
319.767	8.39
319.979	8.84
320.191	9.07
320.403	6.63
320.615	6.01
320.827	6.59
321.039	8.77
321.252	11.34
321.464	13.18
321.676	12.48
321.888	14.72
322.1	17.32
322.312	17.89
322.524	17.81
322.736	19.56
322.948	20.42
323.16	19.87
323.372	18.35
323.584	17.58
323.796	17.03
324.007	16.93
324.219	17.47
324.431	16.86
324.643	13.74
324.855	13.72
325.067	14.1
325.279	14.98
325.491	15.62
325.702	16.75
325.914	16.91
326.126	16.81
326.338	17.31
326.55	16.35
326.761	15.85
326.973	18.25
327.185	17.21
327.396	16.8
327.608	16.92
327.82	17.2
328.032	15.49
328.243	16.5
328.455	16.04
328.666	16.67
328.878	17.74
329.09	18.71
329.301	19.08
329.513	21.17
329.725	22.42
329.936	22.25
330.148	22.8
330.359	22.99
330.571	24.87
330.782	26.63
330.994	27.1
331.205	27.65
331.417	28.96
331.628	30.59
331.84	31.7
332.051	31.3
332.262	32.46
332.474	32.74
332.685	35.99
332.897	35.14
333.108	36.94
333.319	37.11
333.531	37
333.742	36.32
333.953	35.32
334.165	35.35
334.376	37.16
334.587	38.21
334.799	38.77
335.01	37.55
335.221	38.31
335.432	37.53
335.644	38.15
335.855	37.95
336.066	38.35
336.277	39.74
336.488	39.69
336.7	39.66
336.911	39.84
337.122	39.28
337.333	40.61
337.544	40.22
337.755	41.11
337.966	41.31
338.177	41.71
338.388	42.31
338.599	42.23
338.811	42.1
339.022	41.89
339.233	40.96
339.444	43.64
339.655	45.38
339.866	46.41
340.076	46.27
340.287	45.98
340.498	48.02
340.709	48.56
340.92	49.05
341.131	51.18
341.342	51.5
341.553	53.84
341.764	52.09
341.975	51.21
342.185	51.63
342.396	52.34
342.607	54.71
342.818	54.97
343.029	54.58
343.239	54.57
343.45	54.09
343.661	54.61
343.872	53.54
344.082	53.07
344.293	51.76
344.504	50.6
344.714	51.24
344.925	49.59
345.136	47.97
345.346	48.78
345.557	49.75
345.768	49.83
345.978	50.2
346.189	48.83
346.399	49.45
346.61	50.27
346.821	50.33
347.031	49.52
347.242	49.94
347.452	50.57
347.663	50.84
347.873	49.1
348.084	49.06
348.294	48.88
348.504	50.59
348.715	51.41
348.925	51.86
349.136	52.25
349.346	52.05
349.557	52.98
349.767	53.45
349.977	52.91
350.188	54.83
350.398	55.46
350.608	54.79
350.819	54.3
351.029	55.11
351.239	54.9
351.449	55.92
351.66	56.37
351.87	55.27
352.08	54.69
352.29	54.34
352.501	53
352.711	51.56
352.921	54.33
353.131	54.06
353.341	53.39
353.552	53.74
353.762	54.21
353.972	53.58
354.182	54.6
354.392	54.87
354.602	54.47
354.812	55.1
355.022	56.44
355.232	54.81
355.442	54.66
355.652	55.1
355.862	55.2
356.072	55.23
356.282	55.42
356.492	54.27
356.702	54.54
356.912	54.57
357.122	54.07
357.332	53.39
357.542	53.33
357.752	54.14
357.962	53.46
358.171	52.82
358.381	51.63
358.591	51.76
358.801	53.07
359.011	52.75
359.221	53.46
359.43	53.95
359.64	53.1
359.85	52.88
360.06	52.67
360.269	52.44
360.479	52.42
360.689	52.97
360.899	53.13
361.108	53.3
361.318	53.31
361.528	53.9
361.737	52.65
361.947	53.71
362.156	53.58
362.366	53.18
362.576	53.4
362.785	53.31
362.995	53.15
363.204	53.38
363.414	51.7
363.623	51.4
363.833	51.02
364.042	51.81
364.252	51.15
364.461	51.11
364.671	52.02
364.88	51.87
365.09	52.97
365.299	53.41
365.509	52.94
365.718	52.53
365.927	52.83
366.137	51.22
366.346	50.57
366.555	49.9
366.765	49.23
366.974	48.3
367.183	48.25
367.393	47.63
367.602	46.42
367.811	46.21
368.021	47.96
368.23	47.89
368.439	48.93
368.648	49.37
368.857	49.83
369.067	49.42
369.276	49.12
369.485	49.05
369.694	48.65
369.903	49.7
370.112	50.12
370.321	49.26
370.531	49
370.74	48.96
370.949	49.99
371.158	50.23
371.367	50.83
371.576	51.18
371.785	51.18
371.994	50.99
372.203	49.68
372.412	48.99
372.621	49.31
372.83	49.02
373.039	48.62
373.248	47.91
373.457	47.84
373.666	47.75
373.874	46.95
374.083	47.3
374.292	47.11
374.501	48.51
374.71	48.48
374.919	48.1
375.128	48.42
375.336	48.17
375.545	47.8
375.754	47.47
375.963	47.68
376.171	48.13
376.38	47.43
376.589	48
376.798	47.14
377.006	47.19
377.215	46.5
377.424	46.75
377.632	46.95
377.841	47
378.05	47.08
378.258	46.33
378.467	46.31
378.675	45.84
378.884	45.09
379.093	44.85
379.301	44.2
379.51	44.57
379.718	44.08
379.927	43.7
380.135	42.94
380.344	42.78
380.552	42.49
380.761	42.77
380.969	42.92
381.177	43.49
381.386	43.89
381.594	44.38
381.803	43.48
382.011	43.2
382.219	43.34
382.428	43.59
382.636	43.63
382.845	43.94
383.053	43.09
383.261	42.88
383.469	42
383.678	41.39
383.886	41.23
384.094	41.81
384.302	41.76
384.511	41.56
384.719	41.76
384.927	41.69
385.135	41.23
385.343	40.97
385.552	40.67
385.76	40.82
385.968	40.42
386.176	40.24
386.384	40.3
386.592	40.24
386.8	39.96
387.008	39.69
387.216	39.55
387.424	39.47
387.633	39.7
387.841	39.95
388.049	39.68
388.257	39.72
388.465	39.34
388.672	39.08
388.88	38.85
389.088	39.21
389.296	38.88
389.504	38.22
389.712	38.21
389.92	37.8
390.128	37.34
390.336	37.52
390.544	37.4
390.751	37.53
390.959	37.14
391.167	37.12
391.375	36.61
391.583	36.41
391.79	36.72
391.998	36.82
392.206	36.74
392.414	37.01
392.621	36.72
392.829	36.95
393.037	36.75
393.244	36.74
393.452	36.74
393.66	37.03
393.867	37.09
394.075	36.82
394.283	36.88
394.49	36.76
394.698	36.73
394.905	36.93
395.113	36.81
395.32	37.03
395.528	36.8
395.735	36.83
395.943	36.76
396.15	36.86
396.358	36.78
396.565	36.57
396.773	37
396.98	37.31
397.188	36.88
397.395	36.66
397.602	36.33
397.81	36.85
398.017	36.86
398.225	36.95
398.432	37.28
398.639	37.47
398.847	37.51
399.054	37.04
399.261	36.72
399.468	36.88
399.676	37.12
399.883	37.38
400.09	37.24
400.297	36.65
400.505	36.2
400.712	35.86
400.919	35.73
401.126	35.73
401.333	35.92
401.54	35.44
401.748	35.36
401.955	35.36
402.162	35.18
402.369	35.3
402.576	35.66
402.783	35.87
402.99	36.09
403.197	36.39
403.404	36.47
403.611	36.71
403.818	37
404.025	37.09
404.232	36.86
404.439	37.26
404.646	37.17
404.853	37.4
405.06	37.34
405.267	37.16
405.474	36.8
405.681	36.65
405.887	36.55
406.094	36.82
406.301	37.01
406.508	37.18
406.715	36.92
406.922	36.81
407.128	36.67
407.335	36.37
407.542	36.33
407.749	36.16
407.955	36.31
408.162	36.23
408.369	35.94
408.575	36.01
408.782	35.95
408.989	35.86
409.195	35.93
409.402	36.2
409.609	36.72
409.815	36.8
410.022	37.17
410.228	37.34
410.435	37.6
410.642	37.68
410.848	37.3
411.055	37.51
411.261	37.28
411.468	37.06
411.674	36.98
411.881	37.03
412.087	36.94
412.294	37.05
412.5	36.77
412.706	36.49
412.913	36.42
413.119	36.52
413.326	36.13
413.532	36.4
413.738	36.53
413.945	36.26
414.151	35.99
414.357	36.13
414.564	35.83
414.77	35.78
414.976	35.7
415.182	35.6
415.389	35.55
415.595	35.72
415.801	35.64
416.007	35.66
416.214	35.49
416.42	35.63
416.626	35.55
416.832	35.56
417.038	35.68
417.244	35.51
417.45	35.66
417.657	35.71
417.863	35.58
418.069	35.54
418.275	35.57
418.481	35.73
418.687	35.53
418.893	35.43
419.099	35.38
419.305	35.31
419.511	35.33
419.717	35.1
419.923	35.15
420.129	35.17
420.335	34.95
420.541	35.02
420.746	35
420.952	35
421.158	35.05
421.364	35.19
421.57	35.14
421.776	35.12
421.982	35.17
422.187	34.99
422.393	35.07
422.599	35.14
422.805	34.99
423.01	34.88
423.216	34.8
423.422	34.62
423.628	34.43
423.833	34.41
424.039	34.5
424.245	34.51
424.45	34.66
424.656	34.47
424.862	34.51
425.067	34.4
425.273	34.32
425.478	34.36
425.684	34.37
425.889	34.36
426.095	34.45
426.301	34.36
426.506	34.37
426.712	34.13
426.917	34.16
427.123	34.14
427.328	34.37
427.533	34.54
427.739	34.42
427.944	34.6
428.15	34.59
428.355	34.29
428.561	34.26
428.766	33.98
428.971	33.92
429.177	33.75
429.382	33.67
429.587	33.31
429.793	33.32
429.998	33.55
430.203	33.4
430.408	33.19
430.614	33.37
430.819	33.38
431.024	33.49
431.229	33.33
431.434	33.39
431.64	33.43
431.845	33.42
432.05	33.13
432.255	32.98
432.46	33.04
432.665	33.19
432.87	33.05
433.076	32.83
433.281	32.9
433.486	33.03
433.691	33.06
433.896	33.24
434.101	33.22
434.306	33.32
434.511	33.2
434.716	33.12
434.921	33.09
435.126	33.24
435.331	33.24
435.535	33.1
435.74	33.28
435.945	33.13
436.15	32.92
436.355	33.1
436.56	33.21
436.765	33.3
436.97	33.21
437.174	33.18
437.379	32.94
437.584	33.04
437.789	33.26
437.993	33.15
438.198	33.48
438.403	33.53
438.608	33.45
438.812	33.31
439.017	33.34
439.222	33.3
439.426	33.45
439.631	33.58
439.836	33.71
440.04	33.58
440.245	33.39
440.45	33.37
440.654	33.34
440.859	33.39
441.063	33.53
441.268	33.54
441.472	33.68
441.677	33.67
441.881	33.64
442.086	33.47
442.29	33.55
442.495	33.81
442.699	33.56
442.904	33.54
443.108	33.42
443.312	33.28
443.517	33.29
443.721	33.36
443.925	33.23
444.13	33.22
444.334	33.23
444.538	33.24
444.743	33.16
444.947	33.38
445.151	33.23
445.356	33.32
445.56	33.35
445.764	33.32
445.968	33.18
446.173	33.29
446.377	33.34
446.581	33.55
446.785	33.41
446.989	33.51
447.193	33.41
447.398	33.51
447.602	33.44
447.806	33.42
448.01	33.39
448.214	33.47
448.418	33.29
448.622	33.24
448.826	32.87
449.03	32.83
449.234	32.72
449.438	32.6
449.642	32.57
449.846	32.57
450.05	32.49
450.254	32.42
450.458	32.39
450.662	32.24
450.866	32.33
451.069	32.33
451.273	32.47
451.477	32.28
451.681	32.47
451.885	32.52
452.089	32.71
452.292	32.71
452.496	32.9
452.7	32.87
452.904	33.06
453.107	32.79
453.311	32.87
453.515	32.69
453.719	32.97
453.922	32.93
454.126	32.92
454.33	32.63
454.533	32.75
454.737	32.62
454.94	32.59
455.144	32.56
455.348	32.71
455.551	32.74
455.755	32.83
455.958	32.69
456.162	32.77
456.365	32.78
456.569	32.8
456.772	32.6
456.976	32.54
457.179	32.45
457.383	32.27
457.586	32.18
457.79	32.2
457.993	32.27
458.196	32.21
458.4	31.96
458.603	31.88
458.807	31.93
459.01	32.06
459.213	32.18
459.417	32.22
459.62	32.26
459.823	32.39
460.026	32.51
460.23	32.5
460.433	32.49
460.636	32.57
460.839	32.81
