Data from 2937835_Reflection_2.txt Node
Date: Wed Jul 15 16:33:10 EDT 2015
User: robert
Spectrometer: USB4E03001
Autoset integration time: false
Trigger mode: 4
Integration Time (sec): 1.000000E-1
Scans to average: 10
Electric dark correction enabled: true
Nonlinearity correction enabled: false
Boxcar width: 5
Stray light correction enabled: false
XAxis mode: Wavelengths
Stop averaging: false
Number of Pixels in Spectrum: 3648
>>>>>Begin Spectral Data<<<<<
177.566	187.87
177.785	186.63
178.005	-119.55
178.225	56.95
178.445	101.1
178.665	192.55
178.885	97.89
179.105	102.18
179.324	97.41
179.544	71.19
179.764	94.19
179.984	133.92
180.204	-315.13
180.423	-106.53
180.643	-11.4
180.863	4.8
181.083	-54.33
181.302	2063
181.522	1901
181.742	-334.17
181.961	-283.58
182.181	-122.61
182.401	-150.12
182.621	-1197.15
182.84	-123.85
183.06	-54.68
183.279	-19.52
183.499	-54.62
183.719	-12.68
183.938	-3.87
184.158	8.54
184.377	18.58
184.597	13.81
184.816	-8.53
185.036	-12.38
185.256	-25.25
185.475	-19.28
185.695	-18.8
185.914	25.94
186.134	50.33
186.353	48.59
186.572	44.97
186.792	18.25
187.011	37.26
187.231	56.98
187.45	71.22
187.67	97.8
187.889	79.79
188.108	78.07
188.328	98.58
188.547	144.34
188.766	114.42
188.986	94.23
189.205	98.16
189.424	90.32
189.644	70.68
189.863	64.23
190.082	44.89
190.302	22.73
190.521	37.55
190.74	5.24
190.959	-18.63
191.178	-84.22
191.398	-391.8
191.617	-157.41
191.836	-163.82
192.055	-122.08
192.274	-137.81
192.494	-106.72
192.713	-0.89
192.932	-139.18
193.151	34.74
193.37	40.17
193.589	58.59
193.808	51.64
194.027	46.32
194.246	37.87
194.465	32.79
194.685	26.2
194.904	36.7
195.123	40.55
195.342	72.36
195.561	64.65
195.78	76.41
195.999	96.97
196.218	109.16
196.436	314.55
196.655	183.75
196.874	162.02
197.093	-2215.38
197.312	-28.62
197.531	42.15
197.75	360.66
197.969	211.9
198.188	186.19
198.407	-271.6
198.625	3.82
198.844	19.75
199.063	20.14
199.282	3.87
199.501	7.36
199.719	20.01
199.938	9.31
200.157	19.79
200.376	8.38
200.594	-1.11
200.813	10.66
201.032	10.54
201.251	4.36
201.469	8.58
201.688	16.2
201.907	28.25
202.125	26.77
202.344	38.56
202.563	31.77
202.781	35.35
203	26.73
203.218	32.13
203.437	24.78
203.656	22.35
203.874	20.1
204.093	20.97
204.311	28.04
204.53	32.24
204.748	31.09
204.967	20.56
205.185	35.55
205.404	28.67
205.622	24.91
205.841	37.43
206.059	21.18
206.278	17.74
206.496	25.33
206.715	-17.44
206.933	-155.49
207.151	-381.93
207.37	8080.77
207.588	700.38
207.806	-320.97
208.025	-386.09
208.243	-289.45
208.461	-106.57
208.68	24.5
208.898	92.62
209.116	179.03
209.335	115.23
209.553	292.89
209.771	274.19
209.989	167.89
210.208	154.3
210.426	127.2
210.644	142.73
210.862	115.03
211.081	74.61
211.299	49.69
211.517	36.27
211.735	31.61
211.953	36.79
212.171	10.43
212.39	24.1
212.608	28.65
212.826	16.05
213.044	16.82
213.262	22.76
213.48	29.02
213.698	34.63
213.916	48.05
214.134	53.19
214.352	40.69
214.57	70.87
214.788	72.99
215.006	80.88
215.224	84.05
215.442	67.92
215.66	48.87
215.878	39.85
216.096	28.31
216.314	28.82
216.532	19.76
216.75	36.98
216.968	7.91
217.185	0.74
217.403	-9.59
217.621	2.63
217.839	-15.32
218.057	12.36
218.275	29.7
218.492	49.04
218.71	33.79
218.928	18.14
219.146	1.19
219.363	33.35
219.581	49.24
219.799	63.97
220.017	70.68
220.234	67.9
220.452	71.26
220.67	59.61
220.887	71.16
221.105	80.42
221.323	68.83
221.54	62.81
221.758	55.7
221.976	50.76
222.193	47.83
222.411	23.03
222.629	30.86
222.846	24.41
223.064	5.13
223.281	-4.66
223.499	-28.51
223.716	-2.36
223.934	-21.62
224.151	-38.69
224.369	-22.96
224.586	-31.9
224.804	-21.32
225.021	-17.04
225.239	-20.23
225.456	-7.9
225.674	-3.07
225.891	11.91
226.108	4.76
226.326	14.87
226.543	16.91
226.76	19.06
226.978	16.36
227.195	16.37
227.413	14.91
227.63	15.2
227.847	14.46
228.064	12.5
228.282	16.05
228.499	14.87
228.716	14.78
228.934	17.11
229.151	16.95
229.368	17.98
229.585	17.53
229.802	14.42
230.02	14.16
230.237	12.14
230.454	11.52
230.671	10.35
230.888	10.04
231.105	10.47
231.323	11.5
231.54	12.82
231.757	9.07
231.974	7.17
232.191	13.25
232.408	9.22
232.625	16.35
232.842	12.72
233.059	5.99
233.276	10.64
233.493	6.74
233.71	-4.06
233.927	-2.05
234.144	3.12
234.361	3.63
234.578	0.44
234.795	9.27
235.012	4.38
235.229	5
235.446	7.3
235.663	8.69
235.879	7.89
236.096	15.23
236.313	12.22
236.53	18.34
236.747	24.31
236.964	26.17
237.181	22.21
237.397	26.72
237.614	26.35
237.831	24.55
238.048	22.85
238.264	23.25
238.481	18.96
238.698	16.63
238.915	9.81
239.131	10.56
239.348	7.86
239.565	8.29
239.781	5.26
239.998	7.88
240.215	12.46
240.431	17.58
240.648	18.79
240.865	18.82
241.081	19.37
241.298	20.88
241.514	14.78
241.731	16.98
241.947	15.47
242.164	16.55
242.38	16.99
242.597	18.18
242.814	16.02
243.03	15.83
243.246	16.71
243.463	17.78
243.679	15.92
243.896	18.57
244.112	19.96
244.329	21.51
244.545	19.98
244.762	18.59
244.978	14.55
245.194	13.5
245.411	13.01
245.627	9.92
245.843	8.22
246.06	9.25
246.276	8.73
246.492	7.84
246.709	7.43
246.925	7.2
247.141	9.17
247.357	9.25
247.574	9.84
247.79	9.93
248.006	10.61
248.222	10.86
248.439	11.25
248.655	11.3
248.871	10.16
249.087	10.91
249.303	11.76
249.519	9.81
249.736	12.61
249.952	13
250.168	12.76
250.384	11.41
250.6	10.11
250.816	9.85
251.032	8.73
251.248	9.91
251.464	9
251.68	9.01
251.896	10.15
252.112	9.1
252.328	10.31
252.544	10.46
252.76	10.69
252.976	11.1
253.192	11.08
253.408	10.91
253.624	11.67
253.84	13.32
254.056	13.04
254.272	12.97
254.487	9.08
254.703	7.61
254.919	9.43
255.135	13.38
255.351	13.77
255.567	15.18
255.782	18.88
255.998	16.55
256.214	12.94
256.43	15.39
256.646	13.21
256.861	14.6
257.077	14.07
257.293	12.19
257.508	10.22
257.724	10.66
257.94	8.32
258.155	6.54
258.371	8.8
258.587	8.95
258.802	8.21
259.018	9.29
259.234	10.66
259.449	9.81
259.665	9.17
259.88	8.3
260.096	7.7
260.312	8.4
260.527	8.97
260.743	8.1
260.958	8.17
261.174	7.49
261.389	7.04
261.605	5.55
261.82	5.83
262.036	7.32
262.251	8.74
262.466	8.28
262.682	7.3
262.897	5.13
263.113	6.08
263.328	7.09
263.543	7.76
263.759	7.58
263.974	7.48
264.189	8.8
264.405	6.68
264.62	3.96
264.835	6.07
265.051	7.49
265.266	11.71
265.481	11.2
265.696	10.48
265.912	12.64
266.127	12.6
266.342	12.14
266.557	12.03
266.773	12.63
266.988	13.83
267.203	13.15
267.418	11.79
267.633	10.24
267.848	10.53
268.064	11.02
268.279	11.13
268.494	11.75
268.709	13.22
268.924	10.43
269.139	9.59
269.354	9.38
269.569	7.84
269.784	7.72
269.999	6.17
270.214	4.96
270.429	4.45
270.644	3.39
270.859	3.81
271.074	3.2
271.289	4.51
271.504	5.39
271.719	6.53
271.934	7.45
272.149	8.59
272.363	10.82
272.578	11.9
272.793	11.87
273.008	11.33
273.223	10.74
273.438	10.63
273.653	11.49
273.867	10.21
274.082	9.74
274.297	10.75
274.512	9.67
274.726	7.96
274.941	7.84
275.156	7.1
275.371	7.24
275.585	6.66
275.8	6.1
276.015	6.58
276.229	7.28
276.444	8.55
276.659	8.44
276.873	8.71
277.088	8.64
277.302	8.14
277.517	10.95
277.732	11.96
277.946	11.35
278.161	11.47
278.375	8.41
278.59	8.03
278.804	5.73
279.019	6.91
279.233	6.82
279.448	5.5
279.662	5.57
279.877	2.55
280.091	1.89
280.306	2.59
280.52	3.05
280.735	3.59
280.949	4.85
281.163	5.32
281.378	4.42
281.592	6.69
281.806	8.36
282.021	7.25
282.235	7.87
282.449	8.71
282.664	8.97
282.878	9.77
283.092	11.5
283.307	12.43
283.521	12.34
283.735	11.67
283.949	10.76
284.164	11.07
284.378	11.96
284.592	11.55
284.806	11.05
285.02	9.44
285.234	8.32
285.449	7.12
285.663	6.39
285.877	7.17
286.091	7.54
286.305	7.45
286.519	7.22
286.733	5.81
286.947	5.66
287.161	5.42
287.375	7.26
287.589	8.61
287.803	9.32
288.017	8.1
288.231	7.2
288.445	7.19
288.659	7.01
288.873	8.83
289.087	11.01
289.301	11.21
289.515	10.01
289.729	9.88
289.943	9.74
290.157	9.62
290.371	10.58
290.584	10.08
290.798	8.19
291.012	6.07
291.226	4.2
291.44	2.42
291.654	2.42
291.867	2.85
292.081	4.3
292.295	3.3
292.509	4.57
292.722	4.9
292.936	4.63
293.15	7.04
293.364	9.89
293.577	10.12
293.791	11.85
294.005	13.03
294.218	13.52
294.432	11.83
294.645	12.39
294.859	11.5
295.073	11.61
295.286	12.78
295.5	12.93
295.713	12.69
295.927	12.54
296.14	11.45
296.354	9.94
296.568	10.19
296.781	10.56
296.994	9.83
297.208	9.53
297.421	8.83
297.635	8.05
297.848	7.93
298.062	7.17
298.275	6.91
298.489	6.85
298.702	7.1
298.915	6.26
299.129	4.41
299.342	6.46
299.555	4.71
299.769	6.42
299.982	6.75
300.195	7.07
300.409	6.73
300.622	6.37
300.835	7.57
301.048	7.07
301.262	6.72
301.475	8.71
301.688	7.44
301.901	8.83
302.115	7.26
302.328	6.63
302.541	5.6
302.754	7.07
302.967	7.64
303.18	6.88
303.393	7.86
303.607	9.08
303.82	10.67
304.033	8.96
304.246	8.95
304.459	8.67
304.672	8.71
304.885	9.6
305.098	8.85
305.311	9.65
305.524	9.6
305.737	9.34
305.95	9.82
306.163	8.08
306.376	10.11
306.589	9.55
306.802	10.15
307.015	13.08
307.228	11.84
307.44	11.77
307.653	12.19
307.866	13.24
308.079	13.95
308.292	11.68
308.505	12.32
308.718	10.25
308.93	10.55
309.143	10.36
309.356	8.87
309.569	9.97
309.781	10.81
309.994	10.91
310.207	9.35
310.42	8.19
310.632	9.24
310.845	7.52
311.058	8.24
311.27	7.99
311.483	8.01
311.696	7.92
311.908	7.77
312.121	7.15
312.333	5.73
312.546	6.97
312.759	7.05
312.971	7.25
313.184	6.32
313.396	6.24
313.609	6.67
313.821	4.79
314.034	3.7
314.246	4.03
314.459	4.07
314.671	5.15
314.884	3.93
315.096	4.23
315.309	4.41
315.521	5.28
315.733	6.53
315.946	6.65
316.158	8.48
316.371	8.91
316.583	6.96
316.795	6.54
317.008	5.76
317.22	6.93
317.432	7.09
317.644	7.59
317.857	8.88
318.069	8.8
318.281	8.49
318.494	8.13
318.706	8.72
318.918	10.92
319.13	10.43
319.342	11.17
319.555	12.09
319.767	12.37
319.979	11.65
320.191	11.95
320.403	11.01
320.615	11.65
320.827	12.37
321.039	12.84
321.252	11.84
321.464	12.21
321.676	11.38
321.888	10.12
322.1	11.81
322.312	14.11
322.524	13.89
322.736	14.37
322.948	13.18
323.16	13.53
323.372	13.44
323.584	13.76
323.796	14.57
324.007	14.12
324.219	13.66
324.431	12.85
324.643	10.51
324.855	9.7
325.067	8.96
325.279	9.71
325.491	7.68
325.702	7.19
325.914	6.95
326.126	6.49
326.338	7.24
326.55	7.86
326.761	7.21
326.973	7.79
327.185	7.45
327.396	6.72
327.608	6.61
327.82	9.01
328.032	6.3
328.243	7.72
328.455	8.62
328.666	7.13
328.878	7.75
329.09	8.65
329.301	8.56
329.513	9.06
329.725	10.17
329.936	10.65
330.148	9.07
330.359	10.43
330.571	9.29
330.782	8.9
330.994	8.77
331.205	8.26
331.417	7.42
331.628	7.27
331.84	8.69
332.051	8.55
332.262	8.06
332.474	9.6
332.685	11.8
332.897	11.11
333.108	10.46
333.319	10.73
333.531	9.41
333.742	10.68
333.953	9.77
334.165	8.56
334.376	8.11
334.587	10.49
334.799	10.33
335.01	9.03
335.221	9.85
335.432	11.23
335.644	12.36
335.855	14.16
336.066	12.27
336.277	13.04
336.488	13.8
336.7	15.14
336.911	15.22
337.122	15.05
337.333	15.68
337.544	14.5
337.755	13.41
337.966	13.44
338.177	12.68
338.388	13.91
338.599	13.39
338.811	11.86
339.022	10.6
339.233	8.38
339.444	8.13
339.655	9.77
339.866	11.15
340.076	12.29
340.287	11.85
340.498	12.06
340.709	11.94
340.92	13.6
341.131	15.87
341.342	16.68
341.553	17.66
341.764	18.03
341.975	17.19
342.185	16.79
342.396	17.92
342.607	18.89
342.818	18.88
343.029	19.52
343.239	18.39
343.45	18.38
343.661	18.37
343.872	18
344.082	17.31
344.293	16.63
344.504	17.54
344.714	14.99
344.925	13.89
345.136	14.36
345.346	13.31
345.557	13.32
345.768	13.26
345.978	13.31
346.189	12.02
346.399	12.05
346.61	11.83
346.821	11.1
347.031	11.78
347.242	11.15
347.452	9.32
347.663	10.53
347.873	10.51
348.084	11.04
348.294	10.55
348.504	12.11
348.715	12.48
348.925	11.71
349.136	11.75
349.346	11.36
349.557	12.87
349.767	15.04
349.977	13.94
350.188	14.96
350.398	14.19
350.608	15.38
350.819	14.36
351.029	15.02
351.239	16.92
351.449	16.98
351.66	17.36
351.87	16.92
352.08	16.34
352.29	16.43
352.501	15.87
352.711	15.53
352.921	15.4
353.131	16.5
353.341	16.3
353.552	16.13
353.762	16.42
353.972	17.43
354.182	18.31
354.392	17.82
354.602	17.1
354.812	17.11
355.022	16.55
355.232	15.62
355.442	15.29
355.652	15.37
355.862	13.88
356.072	13.43
356.282	12.6
356.492	11.16
356.702	10.32
356.912	11.29
357.122	11.17
357.332	11.85
357.542	13.12
357.752	13.09
357.962	12.39
358.171	12.86
358.381	12.3
358.591	11.87
358.801	12.56
359.011	12.88
359.221	12.44
359.43	13.02
359.64	12.13
359.85	10.15
360.06	9.58
360.269	9.18
360.479	10.05
360.689	10.97
360.899	11.9
361.108	12.87
361.318	13.13
361.528	13.66
361.737	13.17
361.947	13.56
362.156	14.75
362.366	15.46
362.576	16.57
362.785	15.8
362.995	15.88
363.204	15.84
363.414	14.79
363.623	14.87
363.833	14.64
364.042	14.85
364.252	14.72
364.461	14.36
364.671	14.43
364.88	13.63
365.09	14.99
365.299	15.19
365.509	15.23
365.718	15.52
365.927	15.23
366.137	14.73
366.346	13.76
366.555	13.94
366.765	13.6
366.974	13.62
367.183	13.48
367.393	12.09
367.602	11.12
367.811	10.48
368.021	9.72
368.23	9.97
368.439	9.84
368.648	10.66
368.857	10.93
369.067	10.36
369.276	9.03
369.485	9.37
369.694	9.31
369.903	9.3
370.112	9.38
370.321	10.29
370.531	9.97
370.74	10.13
370.949	10.34
371.158	10.01
371.367	10.89
371.576	11.69
371.785	11.79
371.994	11.79
372.203	12.17
372.412	12.38
372.621	12.21
372.83	13.21
373.039	13.09
373.248	12.5
373.457	12.22
373.666	12.12
373.874	11.99
374.083	11.95
374.292	12.26
374.501	12.11
374.71	11.75
374.919	12.03
375.128	11.21
375.336	10.58
375.545	11.11
375.754	10.69
375.963	10.41
376.171	10.08
376.38	9.87
376.589	9.74
376.798	9.74
377.006	10.47
377.215	9.75
377.424	9.74
377.632	10.99
377.841	10.59
378.05	11.83
378.258	11.36
378.467	11.51
378.675	11.74
378.884	11.94
379.093	12.13
379.301	11.16
379.51	11.25
379.718	11.41
379.927	10.78
380.135	11.35
380.344	10.91
380.552	11.48
380.761	11.56
380.969	11.41
381.177	11.45
381.386	10.96
381.594	11.78
381.803	11.54
382.011	11.4
382.219	11.35
382.428	10.95
382.636	10.89
382.845	10.83
383.053	10.63
383.261	10.36
383.469	10.45
383.678	10.42
383.886	10.07
384.094	9.74
384.302	9.68
384.511	9.85
384.719	10.08
384.927	9.77
385.135	9.35
385.343	9.66
385.552	9.3
385.76	8.99
385.968	8.98
386.176	8.69
386.384	9.39
386.592	9.65
386.8	9.55
387.008	9.3
387.216	9.41
387.424	9.68
387.633	9.28
387.841	9.82
388.049	9.72
388.257	10.38
388.465	10.19
388.672	9.94
388.88	9.77
389.088	10.01
389.296	10.18
389.504	9.57
389.712	9.49
389.92	9.55
390.128	8.96
390.336	8.91
390.544	8.2
390.751	8.32
390.959	8.26
391.167	8.05
391.375	7.87
391.583	7.92
391.79	8.71
391.998	8.78
392.206	8.75
392.414	8.79
392.621	8.8
392.829	8.82
393.037	8.92
393.244	9.02
393.452	9.14
393.66	8.62
393.867	8.32
394.075	7.79
394.283	7.92
394.49	8.06
394.698	8.28
394.905	8.35
395.113	8.18
395.32	8.24
395.528	7.95
395.735	7.71
395.943	7.87
396.15	7.77
396.358	7.86
396.565	7.58
396.773	7.03
396.98	7.21
397.188	6.52
397.395	6.67
397.602	6.4
397.81	6.31
398.017	6.21
398.225	6.76
398.432	6.76
398.639	6.92
398.847	6.59
399.054	6.56
399.261	6.06
399.468	6.61
399.676	6.88
399.883	6.96
400.09	6.96
400.297	6.62
400.505	6.39
400.712	6.59
400.919	6.37
401.126	6.6
401.333	7
401.54	7.45
401.748	7.4
401.955	6.87
402.162	6.73
402.369	7
402.576	7
402.783	6.99
402.99	6.89
403.197	7.02
403.404	7.17
403.611	6.98
403.818	7.1
404.025	7.11
404.232	7.41
404.439	7.52
404.646	7.22
404.853	7.61
405.06	7.44
405.267	7.6
405.474	7.42
405.681	7.4
405.887	7.62
406.094	7.31
406.301	7.35
406.508	7.25
406.715	7.25
406.922	7.25
407.128	7.29
407.335	7.18
407.542	6.69
407.749	6.79
407.955	6.66
408.162	6.97
408.369	7.19
408.575	7.07
408.782	6.72
408.989	6.7
409.195	7.1
409.402	6.97
409.609	6.96
409.815	7.22
410.022	7.32
410.228	7.39
410.435	7.06
410.642	6.72
410.848	6.76
411.055	7.27
411.261	7.24
411.468	6.69
411.674	6.76
411.881	6.93
412.087	6.82
412.294	6.99
412.5	7.13
412.706	7.06
412.913	7.16
413.119	7.2
413.326	6.96
413.532	7.14
413.738	7.36
413.945	7.41
414.151	7.21
414.357	7.16
414.564	6.65
414.77	6.43
414.976	6.41
415.182	6.38
415.389	6.63
415.595	6.74
415.801	6.58
416.007	6.57
416.214	6.43
416.42	6.58
416.626	6.75
416.832	7.06
417.038	7.28
417.244	7.26
417.45	7.3
417.657	7.13
417.863	7.07
418.069	7.1
418.275	7.05
418.481	7.05
418.687	7.14
418.893	7.07
419.099	7
419.305	6.82
419.511	6.88
419.717	6.95
419.923	7.01
420.129	7.04
420.335	6.98
420.541	7.18
420.746	7.39
420.952	7.39
421.158	7.4
421.364	7.45
421.57	7.51
421.776	7.45
421.982	7.35
422.187	7.26
422.393	7.22
422.599	7.27
422.805	7.14
423.01	6.87
423.216	6.81
423.422	6.68
423.628	6.62
423.833	6.56
424.039	6.55
424.245	6.65
424.45	6.72
424.656	6.71
424.862	6.72
425.067	6.73
425.273	6.87
425.478	7.02
425.684	7.19
425.889	7.19
426.095	7.28
426.301	7.32
426.506	7.27
426.712	7.21
426.917	7.13
427.123	7.09
427.328	7.29
427.533	7.32
427.739	7.16
427.944	7.34
428.15	7.37
428.355	7.15
428.561	7.32
428.766	7.42
428.971	7.31
429.177	7.41
429.382	7.42
429.587	7.14
429.793	7.16
429.998	7.14
430.203	6.82
430.408	6.86
430.614	7.08
430.819	6.87
431.024	6.58
431.229	6.84
431.434	7.12
431.64	7.04
431.845	6.99
432.05	6.88
432.255	6.9
432.46	6.96
432.665	6.88
432.87	6.86
433.076	6.81
433.281	7.02
433.486	6.87
433.691	6.66
433.896	6.69
434.101	6.7
434.306	6.72
434.511	6.78
434.716	6.69
434.921	6.69
435.126	6.61
435.331	6.66
435.535	6.31
435.74	6.35
435.945	6.29
436.15	6.21
436.355	6.06
436.56	5.99
436.765	5.89
436.97	6.03
437.174	6.05
437.379	6.14
437.584	6.1
437.789	6.4
437.993	6.23
438.198	6.37
438.403	6.47
438.608	6.59
438.812	6.53
439.017	6.58
439.222	6.47
439.426	6.46
439.631	6.33
439.836	6.33
440.04	6.34
440.245	6.45
440.45	6.46
440.654	6.38
440.859	6.52
441.063	6.59
441.268	6.54
441.472	6.44
441.677	6.46
441.881	6.58
442.086	6.56
442.29	6.53
442.495	6.62
442.699	6.49
442.904	6.51
443.108	6.19
443.312	6.22
443.517	6.27
443.721	6.29
443.925	6.13
444.13	6.14
444.334	6.16
444.538	6.24
444.743	6.09
444.947	6.16
445.151	6.06
445.356	6.23
445.56	6.17
445.764	6.07
445.968	6.1
446.173	6.11
446.377	6.2
446.581	6.36
446.785	6.23
446.989	6.36
447.193	6.34
447.398	6.39
447.602	6.34
447.806	6.34
448.01	6.36
448.214	6.36
448.418	6.48
448.622	6.44
448.826	6.31
449.03	6.36
449.234	6.12
449.438	6.11
449.642	6.32
449.846	6.3
450.05	6.43
450.254	6.59
450.458	6.65
450.662	6.51
450.866	6.47
451.069	6.32
451.273	6.32
451.477	6.52
451.681	6.37
451.885	6.25
452.089	6.44
452.292	6.32
452.496	6.13
452.7	6.09
452.904	6.35
453.107	6.22
453.311	6.29
453.515	6.41
453.719	6.31
453.922	6.28
454.126	6.2
454.33	6.18
454.533	6.27
454.737	6.33
454.94	6.4
455.144	6.28
455.348	6.3
455.551	6.35
455.755	6.28
455.958	6.31
456.162	6.44
456.365	6.57
456.569	6.66
456.772	6.49
456.976	6.44
457.179	6.47
457.383	6.36
457.586	6.39
457.79	6.31
457.993	6.23
458.196	6.2
458.4	6.15
458.603	6
458.807	5.91
459.01	5.93
459.213	6.09
459.417	5.95
459.62	5.95
459.823	6.02
460.026	6.05
460.23	6.04
460.433	6.02
460.636	5.92
460.839	6.06
461.042	6.04
461.246	6.09
461.449	5.98
461.652	6.16
461.855	6.41
462.058	6.32
462.261	6.33
462.464	6.46
462.668	6.42
462.871	6.75
463.074	6.68
463.277	6.69
463.48	6.58
463.683	6.36
463.886	6.27
464.089	6.1
464.292	5.9
464.495	5.96
464.698	5.89
464.901	5.92
465.104	5.69
465.306	5.61
465.509	5.47
465.712	5.44
