Data from 2937810_Reflection_2.txt Node
Date: Wed Jul 15 17:48:59 EDT 2015
User: robert
Spectrometer: USB4E03001
Autoset integration time: false
Trigger mode: 4
Integration Time (sec): 1.000000E-1
Scans to average: 10
Electric dark correction enabled: true
Nonlinearity correction enabled: false
Boxcar width: 5
Stray light correction enabled: false
XAxis mode: Wavelengths
Stop averaging: false
Number of Pixels in Spectrum: 3648
>>>>>Begin Spectral Data<<<<<
177.566	-7.87
177.785	48.8
178.005	21.58
178.225	-425
178.445	217.89
178.665	419.32
178.885	136.92
179.105	5.41
179.324	21.22
179.544	40.27
179.764	14.29
179.984	13.42
180.204	-8.73
180.423	-26.62
180.643	-87.52
180.863	-40.27
181.083	-30.91
181.302	-19.72
181.522	19.96
181.742	-18.4
181.961	10300
182.181	87.36
182.401	-19.89
182.621	-180.94
182.84	-59.94
183.06	-13.21
183.279	-17.42
183.499	-34.9
183.719	-28.07
183.938	-5.81
184.158	-58.69
184.377	-37.48
184.597	-180.46
184.816	115.57
185.036	126.8
185.256	54.27
185.475	78.27
185.695	84.24
185.914	103.08
186.134	101.57
186.353	118.4
186.572	115.41
186.792	110.84
187.011	136.36
187.231	154.61
187.45	156.31
187.67	242.32
187.889	712.06
188.108	350.74
188.328	241.61
188.547	248.04
188.766	186.33
188.986	175.55
189.205	238.89
189.424	255.53
189.644	281.17
189.863	319.89
190.082	336.73
190.302	221.53
190.521	201.5
190.74	217.97
190.959	197.6
191.178	737.34
191.398	1905.62
191.617	320.5
191.836	219.66
192.055	157.33
192.274	198.16
192.494	171.88
192.713	170.27
192.932	193.6
193.151	243.5
193.37	168.54
193.589	127.14
193.808	106.12
194.027	106.92
194.246	137.13
194.465	170.28
194.685	161.94
194.904	202.31
195.123	180.11
195.342	316
195.561	229.61
195.78	-3464.04
195.999	1263.97
196.218	-544.26
196.436	-970.52
196.655	-522.28
196.874	-365.32
197.093	-697.05
197.312	-875.52
197.531	-1009.63
197.75	262.82
197.969	217.74
198.188	143.53
198.407	133.24
198.625	133.83
198.844	110.99
199.063	105.45
199.282	112.97
199.501	91.44
199.719	109.07
199.938	128.28
200.157	158.1
200.376	178.49
200.594	203.99
200.813	369.9
201.032	254.78
201.251	-573.22
201.469	-374.54
201.688	-313.84
201.907	-330.29
202.125	-333.79
202.344	-1305.97
202.563	-719.55
202.781	-561.07
203	-921.75
203.218	-957.31
203.437	5683.09
203.656	211.39
203.874	188.8
204.093	162.09
204.311	105
204.53	94.54
204.748	96.95
204.967	95.04
205.185	111.71
205.404	116.09
205.622	115.71
205.841	144.29
206.059	260.68
206.278	1511.7
206.496	2985.07
206.715	355.31
206.933	376.18
207.151	2281.88
207.37	45.87
207.588	326.6
207.806	-68.49
208.025	-49.19
208.243	-83.54
208.461	-34.92
208.68	-54.07
208.898	-9.82
209.116	-321.56
209.335	87.26
209.553	152.93
209.771	-61.85
209.989	377.38
210.208	-22.21
210.426	-161.71
210.644	6470.91
210.862	2211.89
211.081	676.96
211.299	511.56
211.517	-1828.49
211.735	18628.12
211.953	503.6
212.171	628.77
212.39	1642.75
212.608	1558.18
212.826	2102.39
213.044	-585.66
213.262	-1605.91
213.48	-8473.87
213.698	-2811.72
213.916	815.78
214.134	541.97
214.352	949.22
214.57	-12330.61
214.788	-4876.74
215.006	9871.13
215.224	3379.7
215.442	510.06
215.66	452.27
215.878	591.49
216.096	-462.03
216.314	-68.63
216.532	7.82
216.75	2.94
216.968	-60.42
217.185	-30.86
217.403	-68.41
217.621	-30.24
217.839	16.59
218.057	-12.24
218.275	-16.73
218.492	-254.17
218.71	411.25
218.928	278.26
219.146	200.34
219.363	263.28
219.581	183.42
219.799	309.77
220.017	976.13
220.234	-2134.97
220.452	-3768.32
220.67	2516.35
220.887	-425.8
221.105	-263.91
221.323	-77.88
221.54	-115.67
221.758	-104.09
221.976	-940.94
222.193	272.43
222.411	119.52
222.629	65.58
222.846	51.62
223.064	56.26
223.281	67.65
223.499	109.73
223.716	81.75
223.934	75.03
224.151	73.1
224.369	62.16
224.586	75.28
224.804	139.86
225.021	162.84
225.239	147.29
225.456	217.91
225.674	264.39
225.891	154.29
226.108	217.83
226.326	210.07
226.543	4674.77
226.76	-337.16
226.978	-102.8
227.195	-143.43
227.413	-87.25
227.63	-40.07
227.847	-16.01
228.064	-5.19
228.282	3.47
228.499	3.19
228.716	-6.48
228.934	4.59
229.151	2.81
229.368	-5.87
229.585	2.69
229.802	-1.97
230.02	-3.88
230.237	1.58
230.454	-3.89
230.671	-6.84
230.888	-11.79
231.105	-6.3
231.323	-14.23
231.54	-2.4
231.757	-1.88
231.974	-13.54
232.191	-22.12
232.408	-5.04
232.625	-0.3
232.842	-5.86
233.059	-36.57
233.276	-36.78
233.493	-43.93
233.71	-19.93
233.927	-28.79
234.144	-6.62
234.361	-5.24
234.578	-0.51
234.795	-12.66
235.012	-7.93
235.229	-2.14
235.446	8.33
235.663	5.84
235.879	11.06
236.096	0.8
236.313	-13.94
236.53	-27.57
236.747	-24.53
236.964	-19.44
237.181	-16.62
237.397	-42.96
237.614	-55.77
237.831	-37.42
238.048	-42.89
238.264	-46.07
238.481	-19.71
238.698	2.44
238.915	11.14
239.131	9.7
239.348	15.93
239.565	14.53
239.781	19.94
239.998	23.36
240.215	15.15
240.431	18.46
240.648	19.64
240.865	15.51
241.081	10.77
241.298	12.23
241.514	11.93
241.731	6.24
241.947	5.77
242.164	6.64
242.38	9.09
242.597	12.52
242.814	14.15
243.03	11.88
243.246	16.06
243.463	20.14
243.679	19.04
243.896	19.13
244.112	19.61
244.329	22.66
244.545	24.78
244.762	25.78
244.978	24.9
245.194	25.66
245.411	25.04
245.627	20.54
245.843	19.77
246.06	22.13
246.276	23.28
246.492	22.73
246.709	19.54
246.925	18.66
247.141	18.92
247.357	18.52
247.574	19.21
247.79	19.07
248.006	19.56
248.222	19.34
248.439	17.98
248.655	15.52
248.871	15.53
249.087	15.36
249.303	16.64
249.519	16.91
249.736	15.32
249.952	11.68
250.168	10.36
250.384	7.48
250.6	8.63
250.816	6.27
251.032	10.77
251.248	12.46
251.464	11.55
251.68	7.76
251.896	8.08
252.112	9.88
252.328	7.17
252.544	6.5
252.76	7.5
252.976	6.35
253.192	5.53
253.408	4.75
253.624	4
253.84	6.89
254.056	10.57
254.272	7.64
254.487	5.54
254.703	10.58
254.919	12.04
255.135	14.94
255.351	16.94
255.567	21.08
255.782	22.54
255.998	23.23
256.214	23.78
256.43	18.88
256.646	14.5
256.861	12.56
257.077	9.55
257.293	8.93
257.508	5.81
257.724	1.97
257.94	1.15
258.155	-0.03
258.371	-2.65
258.587	-0.47
258.802	-0.96
259.018	3.37
259.234	6.25
259.449	6.68
259.665	8.07
259.88	9.65
260.096	11.06
260.312	11.48
260.527	12.08
260.743	14.22
260.958	11.3
261.174	11.59
261.389	10.21
261.605	9.69
261.82	10.17
262.036	10.27
262.251	7.61
262.466	5.13
262.682	4.43
262.897	2.2
263.113	-0.72
263.328	2.8
263.543	4.72
263.759	4.25
263.974	3.9
264.189	5.94
264.405	4.68
264.62	4.88
264.835	4.67
265.051	1.45
265.266	4.13
265.481	0.9
265.696	1.91
265.912	1.45
266.127	2.47
266.342	4.12
266.557	3.96
266.773	4.84
266.988	7
267.203	6
267.418	8.14
267.633	7.12
267.848	8.45
268.064	8.09
268.279	8.98
268.494	10.01
268.709	8.67
268.924	8.38
269.139	10.35
269.354	7.79
269.569	9.69
269.784	9.63
269.999	8.81
270.214	8.67
270.429	8.14
270.644	7.52
270.859	8.06
271.074	10.29
271.289	9.96
271.504	7.25
271.719	10.03
271.934	11.06
272.149	11.76
272.363	12.05
272.578	13.23
272.793	12.96
273.008	11.91
273.223	10.9
273.438	8.93
273.653	10.18
273.867	12.18
274.082	8.32
274.297	7.72
274.512	4.81
274.726	5.75
274.941	6.08
275.156	6.54
275.371	10.42
275.585	11.23
275.8	11.1
276.015	9.43
276.229	7.74
276.444	11.67
276.659	10.2
276.873	11.91
277.088	9.32
277.302	8.75
277.517	9.29
277.732	6.09
277.946	4.88
278.161	5.81
278.375	5.11
278.59	3.71
278.804	0.14
279.019	1.1
279.233	0.44
279.448	2.19
279.662	3.15
279.877	5.2
280.091	5.71
280.306	8.44
280.52	9.25
280.735	10.08
280.949	9.66
281.163	11.35
281.378	9.79
281.592	9.39
281.806	10.53
282.021	11
282.235	6.82
282.449	4.65
282.664	3.44
282.878	6.78
283.092	8.89
283.307	11.09
283.521	10.59
283.735	11.06
283.949	11.71
284.164	11.52
284.378	11.44
284.592	14.14
284.806	15.6
285.02	16.43
285.234	13.3
285.449	12.9
285.663	9.85
285.877	10.77
286.091	11.3
286.305	13.28
286.519	12.32
286.733	13.52
286.947	11.72
287.161	14.49
287.375	15.45
287.589	16.71
287.803	16.06
288.017	18.29
288.231	17.93
288.445	16.64
288.659	13.81
288.873	16.79
289.087	15.46
289.301	17.97
289.515	15.9
289.729	15.77
289.943	13.6
290.157	12.21
290.371	13.14
290.584	14.19
290.798	17.51
291.012	18.97
291.226	17.78
291.44	15.27
291.654	14.37
291.867	14.91
292.081	13.22
292.295	14.36
292.509	15.64
292.722	13.99
292.936	11.58
293.15	11.19
293.364	11.23
293.577	7.76
293.791	8.43
294.005	7.58
294.218	6.73
294.432	5.45
294.645	6.34
294.859	3.9
295.073	7.99
295.286	8.12
295.5	8.09
295.713	9.38
295.927	11.28
296.14	14.03
296.354	15.32
296.568	15.6
296.781	17.39
296.994	18.64
297.208	20.89
297.421	18.94
297.635	19.23
297.848	16.65
298.062	15.01
298.275	14.02
298.489	12.91
298.702	13.9
298.915	13.24
299.129	11.79
299.342	9.26
299.555	7.81
299.769	7.86
299.982	7.56
300.195	8.93
300.409	8.42
300.622	8.93
300.835	8.32
301.048	4.81
301.262	3.84
301.475	3.25
301.688	3.06
301.901	2.34
302.115	0.79
302.328	2.34
302.541	0.78
302.754	0.65
302.967	0.7
303.18	0.62
303.393	0.41
303.607	3.88
303.82	6.01
304.033	5.26
304.246	7.45
304.459	7.82
304.672	7.56
304.885	11.24
305.098	11.78
305.311	10.85
305.524	11.29
305.737	11.55
305.95	10.95
306.163	8.99
306.376	9.3
306.589	8.41
306.802	9.97
307.015	10.02
307.228	9.01
307.44	8.84
307.653	8.91
307.866	11.77
308.079	13.24
308.292	11.95
308.505	14.34
308.718	14.13
308.93	14.76
309.143	13.16
309.356	14.29
309.569	14.56
309.781	16.51
309.994	17.61
310.207	13.68
310.42	13.37
310.632	14.11
310.845	14.1
311.058	16.42
311.27	14.76
311.483	13.79
311.696	13.52
311.908	12.59
312.121	9.54
312.333	8.36
312.546	9.66
312.759	9.12
312.971	7.3
313.184	4.24
313.396	0.63
313.609	-0.9
313.821	1.22
314.034	-0.3
314.246	0.44
314.459	2.98
314.671	2.79
314.884	3.19
315.096	2.26
315.309	4.72
315.521	7.51
315.733	6.53
315.946	10.41
316.158	9.84
316.371	8.11
316.583	8.18
316.795	6.95
317.008	9.72
317.22	9.11
317.432	9.88
317.644	8.88
317.857	6.25
318.069	6.53
318.281	7.27
318.494	8.12
318.706	8.63
318.918	6.06
319.13	7.42
319.342	5.67
319.555	7.25
319.767	7.19
319.979	8.88
320.191	10.75
320.403	13.73
320.615	13.51
320.827	13.36
321.039	10.97
321.252	12.31
321.464	11.2
321.676	11.33
321.888	8.82
322.1	9.29
322.312	7.6
322.524	4.83
322.736	2.29
322.948	0.7
323.16	2.15
323.372	6.77
323.584	6.33
323.796	8.43
324.007	8.46
324.219	8.33
324.431	8.9
324.643	8.79
324.855	10.38
325.067	11.27
325.279	11.62
325.491	9.92
325.702	9.94
325.914	11.41
326.126	9.52
326.338	9.9
326.55	11.94
326.761	11.73
326.973	11.71
327.185	12.68
327.396	13.03
327.608	12.61
327.82	12.17
328.032	9.71
328.243	10.02
328.455	9.39
328.666	8.57
328.878	9.31
329.09	9.8
329.301	9.83
329.513	9.27
329.725	9.79
329.936	10.27
330.148	7.84
330.359	9.76
330.571	11.17
330.782	11.15
330.994	10.08
331.205	9.09
331.417	8.83
331.628	9.4
331.84	10.83
332.051	8.19
332.262	7.44
332.474	11.33
332.685	10.29
332.897	7.14
333.108	7.99
333.319	9.49
333.531	10.17
333.742	8.99
333.953	8.42
334.165	9.43
334.376	12.94
334.587	12.89
334.799	14.14
335.01	13.08
335.221	13.95
335.432	13.5
335.644	13.39
335.855	11.89
336.066	12.64
336.277	13.67
336.488	12.76
336.7	12.15
336.911	12.75
337.122	12.37
337.333	14.38
337.544	13.39
337.755	15.67
337.966	17.59
338.177	18.09
338.388	18.6
338.599	18.39
338.811	17.62
339.022	15.52
339.233	16.27
339.444	16.92
339.655	17.17
339.866	16.5
340.076	15.87
340.287	15.54
340.498	15.95
340.709	16.47
340.92	18.17
341.131	18.1
341.342	17.03
341.553	16.33
341.764	14.75
341.975	14.4
342.185	16.68
342.396	17.45
342.607	16.88
342.818	17.71
343.029	17.77
343.239	17.16
343.45	17.15
343.661	20.32
343.872	22.58
344.082	22.72
344.293	22.82
344.504	23.76
344.714	22.9
344.925	22
345.136	21.9
345.346	21.34
345.557	19.85
345.768	20.91
345.978	19.74
346.189	15.88
346.399	15.63
346.61	15.63
346.821	14.04
347.031	15.51
347.242	15.51
347.452	13.46
347.663	11.84
347.873	11.54
348.084	8.75
348.294	9.05
348.504	10.43
348.715	11.92
348.925	11.95
349.136	13.06
349.346	12.44
349.557	11.66
349.767	11.43
349.977	14.29
350.188	14.6
350.398	16.73
350.608	16.71
350.819	17.73
351.029	16.44
351.239	17.38
351.449	15.91
351.66	14.19
351.87	14.32
352.08	14.88
352.29	13.28
352.501	13.38
352.711	13.12
352.921	12.76
353.131	12.08
353.341	11.36
353.552	11.13
353.762	10.93
353.972	11.31
354.182	12.59
354.392	13.95
354.602	15.46
354.812	15.38
355.022	13.93
355.232	13.45
355.442	15.34
355.652	16.46
355.862	15.58
356.072	16.12
356.282	17.13
356.492	17.49
356.702	17.28
356.912	17.23
357.122	16.63
357.332	18.24
357.542	20.06
357.752	18.64
357.962	19.33
358.171	19.92
358.381	20.16
358.591	19.83
358.801	19.46
359.011	19.18
359.221	18.36
359.43	19.85
359.64	18.94
359.85	17.66
360.06	17.79
360.269	17.88
360.479	17.35
360.689	17.26
360.899	17.36
361.108	16.52
361.318	16.03
361.528	15.23
361.737	14.94
361.947	15.6
362.156	15.62
362.366	15.59
362.576	14.71
362.785	15.03
362.995	14.97
363.204	14.24
363.414	14.31
363.623	14.14
363.833	14.78
364.042	13.47
364.252	12.9
364.461	12.52
364.671	12.82
364.88	13.51
365.09	12.01
365.299	11.65
365.509	12.23
365.718	12.16
365.927	13.01
366.137	12.77
366.346	13.1
366.555	11.99
366.765	11.5
366.974	10.77
367.183	7.81
367.393	8.36
367.602	8.08
367.811	8.91
368.021	9.2
368.23	8.43
368.439	8.68
368.648	8.91
368.857	9.89
369.067	11.18
369.276	10.85
369.485	12.76
369.694	12.88
369.903	11.8
370.112	10.65
370.321	11.45
370.531	11.69
370.74	11.59
370.949	11.44
371.158	10.53
371.367	11.26
371.576	12.07
371.785	13.41
371.994	13.3
372.203	14.25
372.412	13.07
372.621	12.64
372.83	12.8
373.039	13.46
373.248	13.51
373.457	13.67
373.666	11.65
373.874	11.82
374.083	10.98
374.292	11.52
374.501	10.88
374.71	11.69
374.919	12.43
375.128	12.15
375.336	12.03
375.545	12.11
375.754	12.55
375.963	13.33
376.171	12.49
376.38	12.57
376.589	13.09
376.798	13.91
377.006	14.21
377.215	14.35
377.424	14.81
377.632	13.84
377.841	13.37
378.05	13.19
378.258	13.42
378.467	14.19
378.675	12.93
378.884	12
379.093	11.9
379.301	11.6
379.51	10.43
379.718	10.58
379.927	11.36
380.135	11.36
380.344	11.1
380.552	10.1
380.761	9.26
380.969	10.3
381.177	10.88
381.386	10.78
381.594	10.96
381.803	11.24
382.011	9.93
382.219	9.21
382.428	9.21
382.636	9.82
382.845	10.12
383.053	9.78
383.261	9.13
383.469	8.02
383.678	8.15
383.886	8
384.094	7.97
384.302	9
384.511	9.39
384.719	9.97
384.927	9.66
385.135	10.25
385.343	10.23
385.552	10.98
385.76	11.57
385.968	11
386.176	10.68
386.384	11.22
386.592	10.62
386.8	10.27
387.008	9.81
387.216	10.01
387.424	9.29
387.633	9.73
387.841	9.02
388.049	9.05
388.257	9.77
388.465	9.9
388.672	9.33
388.88	9.03
389.088	9.54
389.296	9.5
389.504	9.23
389.712	9.43
389.92	9.56
390.128	9.83
390.336	9.5
390.544	9.3
390.751	9.39
390.959	8.99
391.167	9
391.375	8.38
391.583	9.1
391.79	8.94
391.998	8.78
392.206	8.67
392.414	8.61
392.621	8.74
392.829	8.39
393.037	8.59
393.244	8.46
393.452	8.63
393.66	8.66
393.867	8.03
394.075	8.23
394.283	8.29
394.49	7.62
394.698	7.12
394.905	7.09
395.113	7.38
395.32	6.71
395.528	6.84
395.735	6.81
395.943	6.71
396.15	7.09
396.358	6.65
396.565	6.73
396.773	7.2
396.98	7.92
397.188	7.57
397.395	7.29
397.602	7.84
397.81	7.78
398.017	7.94
398.225	7.85
398.432	7.06
398.639	7.37
398.847	7.18
399.054	7.01
399.261	6.38
399.468	6.38
399.676	6.38
399.883	5.98
400.09	6.18
400.297	6.32
400.505	6.69
400.712	6.91
400.919	7.09
401.126	7.11
401.333	7.18
401.54	7.47
401.748	7.35
401.955	6.91
402.162	7.32
402.369	7.33
402.576	7.11
402.783	6.77
402.99	6.93
403.197	6.79
403.404	7.03
403.611	7.06
403.818	6.96
404.025	7.17
404.232	7.55
404.439	7.42
404.646	7.35
404.853	7.59
405.06	8.13
405.267	7.99
405.474	7.74
405.681	7.56
405.887	7.61
406.094	7.67
406.301	7.55
406.508	7.5
406.715	7.27
406.922	7.13
407.128	6.47
407.335	5.99
407.542	5.77
407.749	6.08
407.955	6.33
408.162	6.55
408.369	6.65
408.575	6.72
408.782	6.82
408.989	6.63
409.195	6.78
409.402	7.01
409.609	7.22
409.815	7.53
410.022	7.36
410.228	7.07
410.435	6.65
410.642	6.84
410.848	7.03
411.055	6.81
411.261	7.21
411.468	7.09
411.674	7.05
411.881	6.71
412.087	6.7
412.294	6.47
412.5	6.32
412.706	6.43
412.913	5.92
413.119	5.76
413.326	5.73
413.532	5.56
413.738	5.83
413.945	5.97
414.151	6.38
414.357	6.07
414.564	6.32
414.77	6.58
414.976	6.63
415.182	7.05
415.389	7.14
415.595	7.21
415.801	7.24
416.007	6.72
416.214	6.6
416.42	6.48
416.626	6.63
416.832	6.48
417.038	6.2
417.244	6.2
417.45	5.98
417.657	5.9
417.863	5.96
418.069	6.14
418.275	6.54
418.481	6.77
418.687	6.65
418.893	6.64
419.099	6.78
419.305	6.94
419.511	6.86
419.717	6.93
419.923	6.94
420.129	6.84
420.335	6.78
420.541	6.61
420.746	6.49
420.952	6.68
421.158	6.61
421.364	6.67
421.57	6.5
421.776	6.51
421.982	6.55
422.187	6.62
422.393	6.75
422.599	6.67
422.805	6.86
423.01	6.84
423.216	6.75
423.422	6.88
423.628	6.64
423.833	6.73
424.039	6.81
424.245	6.86
424.45	6.85
424.656	6.62
424.862	6.77
425.067	6.65
425.273	6.59
425.478	6.62
425.684	6.71
425.889	6.84
426.095	6.97
426.301	6.81
426.506	6.75
426.712	6.68
426.917	7.03
427.123	6.67
427.328	6.57
427.533	6.85
427.739	6.75
427.944	6.4
428.15	6.42
428.355	6.29
428.561	6.19
428.766	5.77
428.971	5.92
429.177	5.7
429.382	5.87
429.587	5.88
429.793	5.62
429.998	5.44
430.203	5.7
430.408	5.61
430.614	6
430.819	6.2
431.024	6.67
431.229	6.48
431.434	6.41
431.64	6.47
431.845	6.33
432.05	6.49
432.255	6.49
432.46	6.53
432.665	6.92
432.87	6.68
433.076	6.61
433.281	6.21
433.486	6.25
433.691	6.33
433.896	6.08
434.101	6.28
434.306	6.11
434.511	6.23
434.716	6.3
434.921	5.85
435.126	5.93
435.331	5.96
435.535	6.19
435.74	6.11
435.945	6.06
436.15	6.18
436.355	6.08
436.56	5.82
436.765	5.91
436.97	5.66
437.174	5.76
437.379	5.64
437.584	5.59
437.789	5.37
437.993	5.55
438.198	5.42
438.403	5.47
438.608	5.25
438.812	5.51
439.017	5.58
439.222	5.69
439.426	5.75
439.631	5.69
439.836	5.82
440.04	6.02
440.245	5.84
440.45	5.89
440.654	5.95
440.859	6.08
441.063	6.12
441.268	5.95
441.472	5.89
441.677	5.96
441.881	5.87
442.086	5.8
442.29	5.76
442.495	5.87
442.699	5.85
442.904	5.9
443.108	6.17
443.312	6.27
443.517	6.28
443.721	6.35
443.925	6.43
444.13	6.67
444.334	6.84
444.538	6.93
444.743	6.96
444.947	6.93
445.151	6.83
445.356	6.67
445.56	6.44
445.764	6.4
445.968	6.41
446.173	6.23
446.377	6.13
446.581	5.94
446.785	5.89
446.989	5.78
447.193	5.8
447.398	5.85
447.602	5.78
447.806	5.77
448.01	5.77
448.214	5.73
448.418	5.81
448.622	5.76
448.826	5.83
449.03	5.77
449.234	5.67
449.438	5.69
449.642	5.55
449.846	5.58
450.05	5.61
450.254	5.62
450.458	5.51
450.662	5.39
450.866	5.24
451.069	5.26
451.273	5.11
451.477	5.21
451.681	5.3
451.885	5.5
452.089	5.4
452.292	5.44
452.496	5.38
452.7	5.42
452.904	5.6
453.107	5.7
453.311	5.66
453.515	5.95
453.719	5.9
453.922	5.73
454.126	5.43
454.33	5.23
454.533	5.19
454.737	5.35
454.94	5.24
455.144	5.03
455.348	4.96
455.551	5.04
455.755	4.93
455.958	5.2
456.162	5.47
456.365	5.53
456.569	5.85
456.772	5.95
456.976	5.8
457.179	5.94
457.383	5.91
457.586	5.98
457.79	5.91
457.993	6
458.196	5.92
458.4	5.87
458.603	5.92
458.807	6.01
459.01	5.84
459.213	5.88
459.417	5.82
459.62	5.82
459.823	5.85
460.026	5.75
460.23	5.68
460.433	5.68
460.636	5.55
460.839	5.63
461.042	5.56
461.246	5.75
461.449	5.76
461.652	5.76
461.855	5.7
462.058	5.67
462.261	5.84
