Data from 2937889_Reflection_2.txt Node
Date: Wed Jul 15 14:17:07 EDT 2015
User: robert
Spectrometer: USB4E03001
Autoset integration time: false
Trigger mode: 4
Integration Time (sec): 1.000000E-1
Scans to average: 10
Electric dark correction enabled: true
Nonlinearity correction enabled: false
Boxcar width: 5
Stray light correction enabled: false
XAxis mode: Wavelengths
Stop averaging: false
Number of Pixels in Spectrum: 3648
>>>>>Begin Spectral Data<<<<<
177.566	48.59
177.785	-153.27
178.005	17.91
178.225	65.63
178.445	114.76
178.665	65.82
178.885	554.97
179.105	125.95
179.324	165.92
179.544	115.02
179.764	94.03
179.984	107.22
180.204	55.04
180.423	59.08
180.643	94.14
180.863	93.64
181.083	66.98
181.302	60.08
181.522	107
181.742	74.27
181.961	115.63
182.181	357.38
182.401	-314.53
182.621	51.71
182.84	213.44
183.06	657.24
183.279	155.15
183.499	-102.85
183.719	275.03
183.938	191.05
184.158	438.44
184.377	168.09
184.597	169.14
184.816	110.28
185.036	229.02
185.256	314.47
185.475	372.33
185.695	1524.72
185.914	633.47
186.134	-4790.71
186.353	-394.39
186.572	1473.14
186.792	-2143.97
187.011	755.74
187.231	820.77
187.45	3191.98
187.67	1016.51
187.889	737.46
188.108	4256.67
188.328	681.08
188.547	318.39
188.766	221.68
188.986	210.18
189.205	320.49
189.424	250.76
189.644	266
189.863	225.68
190.082	243.34
190.302	242.06
190.521	184.2
190.74	227.76
190.959	193.79
191.178	198.71
191.398	183.83
191.617	189.82
191.836	83.22
192.055	148.04
192.274	197.67
192.494	160.7
192.713	77.44
192.932	16.64
193.151	-54.02
193.37	-20.93
193.589	-23.5
193.808	-4.33
194.027	-138.47
194.246	572.81
194.465	263.07
194.685	295.44
194.904	190.54
195.123	203.21
195.342	188.28
195.561	134.15
195.78	105.52
195.999	59.33
196.218	38.02
196.436	53.39
196.655	54.82
196.874	50.9
197.093	275.06
197.312	-66.45
197.531	311.51
197.75	801.23
197.969	-88.81
198.188	-933.66
198.407	-245.79
198.625	-1564.72
198.844	510.05
199.063	361.6
199.282	266.02
199.501	203.17
199.719	552.32
199.938	-10.11
200.157	46.98
200.376	241.15
200.594	-98.92
200.813	-400.8
201.032	88
201.251	952.29
201.469	-1718.52
201.688	-9.95
201.907	4.43
202.125	24.09
202.344	20.88
202.563	59.7
202.781	74.86
203	58.76
203.218	47.87
203.437	36.96
203.656	45.72
203.874	52.03
204.093	82.87
204.311	106.51
204.53	112.47
204.748	84.19
204.967	40.83
205.185	17.35
205.404	27.06
205.622	38.29
205.841	42.82
206.059	58.06
206.278	42.85
206.496	8.33
206.715	55.13
206.933	86.43
207.151	102.76
207.37	176.7
207.588	165.98
207.806	250.12
208.025	266.9
208.243	208.7
208.461	245.3
208.68	545.87
208.898	371.31
209.116	258.46
209.335	186.81
209.553	296.5
209.771	320.34
209.989	442.77
210.208	287
210.426	-610.41
210.644	-129.87
210.862	-1122.86
211.081	474.57
211.299	330.43
211.517	321.81
211.735	318.62
211.953	198.85
212.171	169.68
212.39	204.02
212.608	215.79
212.826	167.83
213.044	104.21
213.262	140.59
213.48	189.5
213.698	207.91
213.916	189.25
214.134	238.4
214.352	-2043.1
214.57	736.18
214.788	-593.89
215.006	-250.74
215.224	-434.27
215.442	-266.9
215.66	-571.08
215.878	664.32
216.096	396.63
216.314	423.75
216.532	337.06
216.75	189.81
216.968	199.2
217.185	132.84
217.403	108.71
217.621	115.06
217.839	82.4
218.057	124.4
218.275	133.6
218.492	108.26
218.71	98.58
218.928	160.64
219.146	100.6
219.363	96.91
219.581	95.07
219.799	74.77
220.017	51.86
220.234	57.46
220.452	44.2
220.67	37.72
220.887	90.19
221.105	176.08
221.323	43.01
221.54	28.48
221.758	-45.07
221.976	11.19
222.193	-15.81
222.411	38.91
222.629	34.88
222.846	23.57
223.064	-22.62
223.281	-9.75
223.499	-38.53
223.716	-38.39
223.934	-2.36
224.151	148.58
224.369	162.12
224.586	309.91
224.804	208.27
225.021	-6073.47
225.239	-458.72
225.456	-11.93
225.674	-62.7
225.891	-22.35
226.108	-31.17
226.326	-27.7
226.543	-11
226.76	-44.59
226.978	-16.22
227.195	-14.01
227.413	-4.21
227.63	6.77
227.847	23.33
228.064	39.68
228.282	38.34
228.499	41.13
228.716	42.49
228.934	43.02
229.151	44.52
229.368	37.06
229.585	37.83
229.802	36.37
230.02	36.27
230.237	35.41
230.454	29.53
230.671	29.79
230.888	30.42
231.105	27.32
231.323	26.97
231.54	29.83
231.757	31.65
231.974	34.23
232.191	37.37
232.408	37.62
232.625	38.16
232.842	38.44
233.059	41.12
233.276	39.89
233.493	42.39
233.71	37.89
233.927	38.1
234.144	43.56
234.361	39.77
234.578	42.9
234.795	44.77
235.012	40.8
235.229	41.69
235.446	42.64
235.663	43.83
235.879	42.38
236.096	40.79
236.313	39.06
236.53	39.53
236.747	29.95
236.964	27.96
237.181	37.07
237.397	39.98
237.614	43.61
237.831	42.54
238.048	30.51
238.264	27.21
238.481	29.24
238.698	31
238.915	28.62
239.131	39.49
239.348	40.39
239.565	33.46
239.781	33.9
239.998	27.08
240.215	25.76
240.431	31.39
240.648	30.47
240.865	31.13
241.081	31.29
241.298	29.21
241.514	26.93
241.731	25.61
241.947	22.72
242.164	19.88
242.38	20.72
242.597	21.39
242.814	23.56
243.03	23.65
243.246	22.74
243.463	22.54
243.679	23.99
243.896	21.84
244.112	20.85
244.329	21
244.545	23.22
244.762	24.32
244.978	22.69
245.194	18.74
245.411	19.73
245.627	20.12
245.843	18.77
246.06	17.43
246.276	19.44
246.492	19.19
246.709	19.15
246.925	18.71
247.141	18.63
247.357	18.94
247.574	19.82
247.79	19.93
248.006	19.77
248.222	20.35
248.439	20.69
248.655	21.61
248.871	22.58
249.087	23.91
249.303	24
249.519	24.52
249.736	23.76
249.952	24.75
250.168	23.76
250.384	24.48
250.6	22.11
250.816	22.7
251.032	20.6
251.248	16.49
251.464	16.65
251.68	16.64
251.896	15.92
252.112	18.91
252.328	16.33
252.544	17.23
252.76	18.15
252.976	19.23
253.192	16.44
253.408	14.94
253.624	16.02
253.84	13.73
254.056	13.67
254.272	12.73
254.487	10.73
254.703	13.16
254.919	12.9
255.135	10.27
255.351	6
255.567	10.05
255.782	10.85
255.998	13.41
256.214	13.09
256.43	12.96
256.646	11.64
256.861	11.8
257.077	10.15
257.293	8.05
257.508	8.66
257.724	11.99
257.94	11.18
258.155	13.27
258.371	12.05
258.587	13.05
258.802	13
259.018	14.3
259.234	14.65
259.449	14.75
259.665	15.2
259.88	14.44
260.096	14.34
260.312	14.14
260.527	13.35
260.743	13.1
260.958	13.28
261.174	13.46
261.389	12.7
261.605	12.5
261.82	12.1
262.036	11.9
262.251	12.64
262.466	11.99
262.682	12.6
262.897	13.21
263.113	13.27
263.328	14.42
263.543	17.02
263.759	17.37
263.974	17.4
264.189	19.1
264.405	19.86
264.62	20.66
264.835	20.75
265.051	19.74
265.266	20.84
265.481	21.85
265.696	20.46
265.912	17.06
266.127	16.74
266.342	17.67
266.557	15.27
266.773	15.49
266.988	14.22
267.203	14.61
267.418	14.65
267.633	14.36
267.848	14.58
268.064	13.7
268.279	13.62
268.494	14.58
268.709	13.49
268.924	14.58
269.139	13.16
269.354	15.39
269.569	16.35
269.784	17.09
269.999	15.48
270.214	12.85
270.429	14.1
270.644	15.36
270.859	13.85
271.074	14.25
271.289	14.14
271.504	15.75
271.719	13.79
271.934	13.13
272.149	13.26
272.363	14.44
272.578	16.1
272.793	16.48
273.008	16.48
273.223	18
273.438	17.38
273.653	18.52
273.867	18.17
274.082	18.66
274.297	19.26
274.512	18.6
274.726	18.89
274.941	19.06
275.156	17.12
275.371	15.8
275.585	14.36
275.8	14.54
276.015	13.2
276.229	14.01
276.444	13.63
276.659	13.97
276.873	14.17
277.088	13.29
277.302	13.17
277.517	14.78
277.732	15.64
277.946	16
278.161	17.09
278.375	17.91
278.59	17.17
278.804	18.69
279.019	18.54
279.233	18.78
279.448	18.65
279.662	19.79
279.877	18.78
280.091	19.93
280.306	19.82
280.52	17.86
280.735	18.47
280.949	16.91
281.163	15.72
281.378	15.64
281.592	15.07
281.806	16.15
282.021	16.26
282.235	16.47
282.449	15.76
282.664	16.04
282.878	15.62
283.092	15.95
283.307	16.58
283.521	16.83
283.735	15.64
283.949	14.97
284.164	13.38
284.378	12.76
284.592	12.58
284.806	12.19
285.02	13.05
285.234	13.74
285.449	12.73
285.663	13.97
285.877	13.8
286.091	15.02
286.305	15.36
286.519	15.62
286.733	15.83
286.947	16.26
287.161	15.88
287.375	14.54
287.589	13.63
287.803	13.21
288.017	12.14
288.231	13.03
288.445	13.1
288.659	13.44
288.873	12.51
289.087	11.35
289.301	11
289.515	12.22
289.729	12.34
289.943	14.23
290.157	13.32
290.371	13.09
290.584	12.13
290.798	9.95
291.012	9.76
291.226	9.98
291.44	11.9
291.654	10.93
291.867	11.41
292.081	10.92
292.295	8.95
292.509	9.27
292.722	9.83
292.936	9.97
293.15	11.78
293.364	11.87
293.577	12.01
293.791	10.34
294.005	11.9
294.218	9.61
294.432	10.62
294.645	11.92
294.859	13.51
295.073	14.86
295.286	14.35
295.5	14.35
295.713	15
295.927	17.19
296.14	17.8
296.354	17.92
296.568	18.62
296.781	18.84
296.994	18.66
297.208	17.96
297.421	17.19
297.635	17.36
297.848	17.14
298.062	16.4
298.275	15.48
298.489	15.03
298.702	14.47
298.915	15.14
299.129	14.82
299.342	16.31
299.555	16.04
299.769	16.43
299.982	17.78
300.195	18.89
300.409	20.33
300.622	20.34
300.835	21.37
301.048	21.68
301.262	20.75
301.475	21.6
301.688	20.37
301.901	20.18
302.115	19.17
302.328	17.75
302.541	18.24
302.754	17.73
302.967	17.63
303.18	16.79
303.393	16.03
303.607	16.59
303.82	15.91
304.033	16.35
304.246	16.9
304.459	17.18
304.672	17.05
304.885	14.78
305.098	15.83
305.311	17.2
305.524	16.26
305.737	17.33
305.95	16.44
306.163	16.34
306.376	14.67
306.589	15.53
306.802	15.86
307.015	18.62
307.228	19.61
307.44	19.11
307.653	17.82
307.866	17.56
308.079	16.85
308.292	15.97
308.505	14.66
308.718	15.84
308.93	14.05
309.143	13.6
309.356	11.71
309.569	11.9
309.781	12.27
309.994	11.81
310.207	13.69
310.42	13.73
310.632	15.29
310.845	16.02
311.058	16.83
311.27	18.43
311.483	17.65
311.696	17.1
311.908	17.89
312.121	17.1
312.333	18.97
312.546	17.84
312.759	18.83
312.971	18.31
313.184	17.89
313.396	16.17
313.609	16.14
313.821	17.5
314.034	19.19
314.246	19.33
314.459	19.41
314.671	17.9
314.884	19.32
315.096	18.89
315.309	19.89
315.521	21.19
315.733	23.16
315.946	23.44
316.158	24.43
316.371	23.37
316.583	21.56
316.795	21.35
317.008	20.65
317.22	20.07
317.432	20.5
317.644	20.15
317.857	19.14
318.069	14.92
318.281	13.95
318.494	12.55
318.706	15.31
318.918	15.78
319.13	17.39
319.342	17.93
319.555	18.25
319.767	17.79
319.979	18.15
320.191	20.68
320.403	24.11
320.615	24.35
320.827	24.93
321.039	22.88
321.252	23.78
321.464	22.23
321.676	22.12
321.888	21.88
322.1	20.67
322.312	19.54
322.524	17.61
322.736	18.48
322.948	17.55
323.16	16.99
323.372	16.57
323.584	16.55
323.796	17.71
324.007	17.49
324.219	16.63
324.431	16.8
324.643	16.97
324.855	17.37
325.067	16.52
325.279	17.06
325.491	16.84
325.702	16.6
325.914	16.11
326.126	14.66
326.338	14.05
326.55	14.83
326.761	15.83
326.973	16.55
327.185	15
327.396	14.96
327.608	15.08
327.82	16.21
328.032	16.56
328.243	18.01
328.455	18.31
328.666	20.37
328.878	20.54
329.09	20.75
329.301	18.7
329.513	19.43
329.725	18.54
329.936	19.7
330.148	18.8
330.359	18.78
330.571	17.15
330.782	18.14
330.994	16.16
331.205	15.88
331.417	13.89
331.628	14.34
331.84	15.79
332.051	16.34
332.262	14.28
332.474	14.83
332.685	15.19
332.897	14.99
333.108	14.3
333.319	14.7
333.531	16.17
333.742	18.23
333.953	19.92
334.165	20.48
334.376	21.53
334.587	21.8
334.799	21.09
335.01	21.27
335.221	22.04
335.432	22.48
335.644	22.54
335.855	20.06
336.066	19.32
336.277	18.32
336.488	17.25
336.7	17.08
336.911	17.63
337.122	17.61
337.333	17.2
337.544	17.22
337.755	16.73
337.966	17.26
338.177	19.41
338.388	20.16
338.599	20.44
338.811	20.29
339.022	20.01
339.233	20.29
339.444	20.58
339.655	20.55
339.866	20.51
340.076	20.76
340.287	21.3
340.498	19.73
340.709	18.92
340.92	19.08
341.131	19.24
341.342	18.99
341.553	18.15
341.764	19.13
341.975	20.09
342.185	20.56
342.396	21.31
342.607	21.62
342.818	21.16
343.029	19.74
343.239	19.35
343.45	18.14
343.661	18.4
343.872	18.61
344.082	17.57
344.293	17.04
344.504	17.76
344.714	16.51
344.925	15.96
345.136	17
345.346	19.03
345.557	19.58
345.768	20.43
345.978	20.01
346.189	19.91
346.399	20.15
346.61	20.35
346.821	19.27
347.031	20.58
347.242	19.99
347.452	20.2
347.663	18.82
347.873	18.36
348.084	17.12
348.294	16.84
348.504	15.89
348.715	15.58
348.925	16.18
349.136	14.94
349.346	14.52
349.557	13.98
349.767	12.88
349.977	13.54
350.188	13.27
350.398	13.82
350.608	15.08
350.819	14.96
351.029	14.82
351.239	14.67
351.449	16.32
351.66	16.13
351.87	16.26
352.08	16.55
352.29	16.48
352.501	17.28
352.711	17.83
352.921	17.26
353.131	18.66
353.341	19.57
353.552	19.22
353.762	19.83
353.972	19.05
354.182	19.29
354.392	18.98
354.602	19.44
354.812	20.06
355.022	20.98
355.232	20.1
355.442	19.39
355.652	18.2
355.862	19.43
356.072	18.47
356.282	19.97
356.492	19.12
356.702	18.86
356.912	18.91
357.122	19.33
357.332	18.33
357.542	18.49
357.752	18.49
357.962	18.92
358.171	17.74
358.381	17.45
358.591	17.13
358.801	17.86
359.011	18.46
359.221	18.16
359.43	16.76
359.64	17.69
359.85	17.98
360.06	18.1
360.269	18.28
360.479	18.03
360.689	17.8
360.899	17.32
361.108	17.85
361.318	18.13
361.528	17.52
361.737	17.82
361.947	17.39
362.156	17.76
362.366	17.56
362.576	17.73
362.785	17.85
362.995	17.85
363.204	18.11
363.414	17.49
363.623	17
363.833	17.72
364.042	17.53
364.252	17.55
364.461	16.07
364.671	16.38
364.88	16.02
365.09	15.75
365.299	15.85
365.509	15.46
365.718	15.84
365.927	15.78
366.137	14.74
366.346	14.34
366.555	14.18
366.765	14.55
366.974	14.55
367.183	14.96
367.393	14.97
367.602	15.66
367.811	16.07
368.021	15.33
368.23	15.43
368.439	15.76
368.648	16.35
368.857	16.06
369.067	16.41
369.276	15.55
369.485	15.49
369.694	16.45
369.903	15.73
370.112	14.43
370.321	14.85
370.531	16
370.74	16.45
370.949	16.03
371.158	16.14
371.367	16.71
371.576	17.05
371.785	17.13
371.994	15.98
372.203	16.38
372.412	16.8
372.621	16.88
372.83	15.97
373.039	15.56
373.248	15.45
373.457	15.16
373.666	14.4
373.874	14.4
374.083	13.87
374.292	14.11
374.501	13.23
374.71	12.48
374.919	12.36
375.128	12.5
375.336	12.84
375.545	13.37
375.754	13.34
375.963	13.02
376.171	12.92
376.38	13.18
376.589	12.9
376.798	13.2
377.006	13.8
377.215	14.16
377.424	13.8
377.632	13.45
377.841	12.57
378.05	12.83
378.258	12.75
378.467	12.55
378.675	12.01
378.884	12.21
379.093	12.18
379.301	12.65
379.51	12.24
379.718	12.49
379.927	12.6
380.135	13.16
380.344	13.77
380.552	13.71
380.761	14.05
380.969	13.61
381.177	13.53
381.386	13.2
381.594	12.67
381.803	12.4
382.011	12.08
382.219	11.44
382.428	11.22
382.636	10.32
382.845	10.82
383.053	10.44
383.261	10.9
383.469	11.14
383.678	11.24
383.886	11.86
384.094	11.84
384.302	11.87
384.511	12
384.719	11.95
384.927	12.15
385.135	11.45
385.343	11.5
385.552	11.63
385.76	11.43
385.968	11.6
386.176	10.6
386.384	10.55
386.592	10.5
386.8	10.75
387.008	10.5
387.216	10.69
387.424	11.32
387.633	11.18
387.841	11.43
388.049	11.27
388.257	11.3
388.465	11.66
388.672	11.7
388.88	11.2
389.088	11.34
389.296	11.72
389.504	11.24
389.712	11.07
389.92	11
390.128	10.77
390.336	10.47
390.544	9.99
390.751	9.9
390.959	9.42
391.167	9.78
391.375	9.69
391.583	9.61
391.79	9.45
391.998	8.93
392.206	8.83
392.414	8.76
392.621	8.74
392.829	8.67
393.037	8.77
393.244	8.91
393.452	8.92
393.66	8.93
393.867	9.1
394.075	9.26
394.283	9.85
394.49	9.76
394.698	9.71
394.905	10.09
395.113	10.13
395.32	10.13
395.528	10.09
395.735	10.19
395.943	9.93
396.15	9.47
396.358	9.06
396.565	8.79
396.773	9.36
396.98	9.26
397.188	8.74
397.395	8.59
397.602	8.24
397.81	8.2
398.017	7.9
398.225	7.61
398.432	7.69
398.639	8.13
398.847	7.71
399.054	7.54
399.261	7.74
399.468	8.25
399.676	8.64
399.883	8.78
400.09	9.23
400.297	9.05
400.505	9.65
400.712	10.17
400.919	10.3
401.126	10.49
401.333	10.33
401.54	10.11
401.748	9.97
401.955	9.87
402.162	9.99
402.369	9.9
402.576	9.91
402.783	9.78
402.99	9
403.197	8.83
403.404	8.86
403.611	8.97
403.818	8.87
404.025	8.95
404.232	9.04
404.439	8.89
404.646	8.83
404.853	8.58
405.06	8.22
405.267	8.46
405.474	8.27
405.681	8.31
405.887	8.21
406.094	8.17
406.301	8.16
406.508	7.83
406.715	7.92
406.922	8.03
407.128	8.29
407.335	8.19
407.542	8.07
407.749	8.16
407.955	8.18
408.162	8.22
408.369	8.22
408.575	7.88
408.782	8.22
408.989	8.1
409.195	7.7
409.402	7.86
409.609	8.1
409.815	8.13
410.022	7.99
410.228	7.93
410.435	8.05
410.642	8.06
410.848	8.28
411.055	8.26
411.261	8.28
411.468	8.54
411.674	8.35
411.881	8.25
412.087	8.18
412.294	8.63
412.5	8.61
412.706	7.72
412.913	7.89
413.119	8.14
413.326	8.07
413.532	7.92
413.738	7.66
413.945	7.35
414.151	7.03
414.357	6.87
414.564	6.81
414.77	7.21
414.976	7.59
415.182	7.26
415.389	6.88
415.595	6.86
415.801	6.86
416.007	7.17
416.214	7.74
416.42	8.06
416.626	8.15
416.832	7.9
417.038	7.47
417.244	7.41
417.45	7.54
417.657	7.45
417.863	7.41
418.069	7.26
418.275	7.09
418.481	6.97
418.687	6.89
418.893	6.95
419.099	6.9
419.305	6.99
419.511	7.13
419.717	7.06
419.923	7.25
420.129	7.25
420.335	7.35
420.541	7.27
420.746	7.3
420.952	7.47
421.158	7.39
421.364	7.27
421.57	7.15
421.776	7.19
421.982	7.32
422.187	7.3
422.393	7.17
422.599	7.22
422.805	7.27
423.01	7.15
423.216	7.12
423.422	7.26
423.628	7.53
423.833	7.6
424.039	7.53
424.245	7.49
424.45	7.38
424.656	7.47
424.862	7.24
425.067	7.27
425.273	7.38
425.478	7.23
425.684	7.08
425.889	6.79
426.095	6.91
426.301	6.99
426.506	6.98
426.712	6.83
426.917	6.72
427.123	6.91
427.328	6.91
427.533	6.71
427.739	6.61
427.944	6.49
428.15	6.71
428.355	6.6
428.561	6.48
428.766	6.24
428.971	6.6
429.177	6.66
429.382	6.91
429.587	6.77
429.793	6.97
429.998	7.03
430.203	7.08
430.408	7.28
430.614	7.32
430.819	7.4
431.024	7.41
431.229	7.27
431.434	7.15
431.64	6.81
431.845	6.66
432.05	6.76
432.255	6.83
432.46	6.86
432.665	6.63
432.87	6.61
433.076	6.56
433.281	6.64
433.486	6.57
433.691	6.78
433.896	6.7
434.101	6.8
434.306	6.52
434.511	6.71
434.716	6.82
434.921	6.8
435.126	6.87
435.331	6.91
435.535	6.8
435.74	6.77
435.945	6.82
436.15	7.04
436.355	7.15
436.56	7.26
436.765	7.06
436.97	6.95
437.174	6.88
437.379	6.58
437.584	6.61
437.789	6.66
437.993	6.92
438.198	6.74
438.403	6.67
438.608	6.71
438.812	6.56
439.017	6.67
439.222	6.71
439.426	6.82
439.631	6.97
439.836	6.98
440.04	7.01
440.245	6.9
440.45	6.92
440.654	6.88
440.859	6.86
441.063	6.97
441.268	6.95
441.472	7
441.677	6.87
441.881	6.88
442.086	6.59
442.29	6.51
442.495	6.44
442.699	6.52
442.904	6.74
443.108	6.72
443.312	6.62
443.517	6.42
443.721	6.49
443.925	6.64
444.13	6.62
444.334	6.8
444.538	6.96
444.743	6.93
444.947	7
445.151	6.79
445.356	6.94
445.56	7.15
445.764	7.29
445.968	7.16
446.173	7.1
446.377	7.13
446.581	7.15
446.785	7.1
446.989	7.13
447.193	7.01
447.398	7.08
447.602	6.88
447.806	6.73
448.01	6.66
448.214	6.8
448.418	6.68
448.622	6.68
448.826	6.62
449.03	6.61
449.234	6.78
449.438	6.68
449.642	6.75
449.846	6.88
450.05	6.84
450.254	6.85
450.458	6.73
450.662	6.77
450.866	6.74
451.069	6.85
451.273	6.86
451.477	6.65
451.681	6.85
451.885	6.68
452.089	6.94
452.292	6.92
452.496	6.86
452.7	6.87
452.904	7.27
453.107	7.19
453.311	7.3
453.515	7.34
453.719	7.34
453.922	7.2
454.126	7.31
454.33	7.07
454.533	6.86
454.737	6.93
454.94	6.85
455.144	6.48
455.348	6.54
455.551	6.47
455.755	6.39
455.958	6.35
456.162	6.35
456.365	6.37
456.569	6.2
456.772	6.57
456.976	6.62
457.179	6.77
457.383	7.03
457.586	7.03
457.79	6.95
457.993	6.92
458.196	6.96
458.4	6.89
458.603	6.78
458.807	7.08
459.01	6.88
459.213	6.84
459.417	6.62
459.62	6.65
459.823	6.61
460.026	6.55
460.23	6.71
