Data from 2937817_Reflection_1.txt Node
Date: Wed Jul 15 17:29:11 EDT 2015
User: robert
Spectrometer: USB4E03001
Autoset integration time: false
Trigger mode: 4
Integration Time (sec): 1.000000E-1
Scans to average: 10
Electric dark correction enabled: true
Nonlinearity correction enabled: false
Boxcar width: 5
Stray light correction enabled: false
XAxis mode: Wavelengths
Stop averaging: false
Number of Pixels in Spectrum: 3648
>>>>>Begin Spectral Data<<<<<
177.566	-16.82
177.785	138.12
178.005	-109.09
178.225	-131.25
178.445	71.76
178.665	122.19
178.885	126.86
179.105	453.35
179.324	269.44
179.544	159.33
179.764	1246.77
179.984	73.89
180.204	165.86
180.423	121.15
180.643	132.85
180.863	158.45
181.083	112.73
181.302	91.78
181.522	101.15
181.742	93.48
181.961	77.25
182.181	102.96
182.401	69.3
182.621	6.68
182.84	-48.41
183.06	-68.32
183.279	-168.83
183.499	-203.75
183.719	-226.05
183.938	-715.92
184.158	-66.57
184.377	-333.3
184.597	-12880.43
184.816	666.71
185.036	227.92
185.256	-1930.67
185.475	-182.89
185.695	-267.06
185.914	-1004.39
186.134	840.96
186.353	-501.59
186.572	-565.2
186.792	-354.58
187.011	-171.37
187.231	-100.06
187.45	-98.81
187.67	-45.98
187.889	-75.8
188.108	-55.96
188.328	-34.97
188.547	2.22
188.766	-18.68
188.986	-47.65
189.205	-59.04
189.424	-152.34
189.644	-692.7
189.863	-2204.29
190.082	240.17
190.302	371.76
190.521	538.5
190.74	366.34
190.959	452.14
191.178	567.43
191.398	549.04
191.617	961.9
191.836	1688.11
192.055	-940.55
192.274	-459.5
192.494	-1260.78
192.713	-183.88
192.932	689.34
193.151	288.37
193.37	224.75
193.589	170.78
193.808	146.65
194.027	121.36
194.246	247.1
194.465	367.06
194.685	312.41
194.904	16768.75
195.123	1254.23
195.342	-3957.65
195.561	-158.33
195.78	1448.03
195.999	-279.67
196.218	-1526.2
196.436	-73.62
196.655	-96.09
196.874	16.73
197.093	11.78
197.312	-9.16
197.531	-56.22
197.75	-237.41
197.969	-455.53
198.188	-190.02
198.407	-64.39
198.625	-34.11
198.844	-149.64
199.063	-665.55
199.282	644.83
199.501	223.07
199.719	405.17
199.938	455.98
200.157	978.66
200.376	-4974.77
200.594	544.53
200.813	200.47
201.032	429.05
201.251	419.4
201.469	-174.34
201.688	-101.84
201.907	-21.29
202.125	-53.85
202.344	-54.34
202.563	-34.31
202.781	-101.63
203	-387.56
203.218	-156.68
203.437	-185.83
203.656	-32.47
203.874	-68.63
204.093	-692.99
204.311	667.42
204.53	-97.73
204.748	-112.38
204.967	-103.34
205.185	-44.17
205.404	-26.1
205.622	-6.83
205.841	-3.73
206.059	-66.76
206.278	-116.39
206.496	-122.22
206.715	-73.16
206.933	-209.38
207.151	-242.65
207.37	-283.56
207.588	-91.26
207.806	6562.07
208.025	272.03
208.243	337.83
208.461	-43.73
208.68	-141.11
208.898	-131.25
209.116	-63.95
209.335	-9.36
209.553	7.97
209.771	10.34
209.989	2.17
210.208	6.02
210.426	-10.52
210.644	-23.14
210.862	-47.98
211.081	-91.7
211.299	-55.67
211.517	-40.92
211.735	-72.27
211.953	482.37
212.171	230.84
212.39	115.95
212.608	64.85
212.826	56.42
213.044	28.67
213.262	16.38
213.48	-75.14
213.698	-71.54
213.916	-22.28
214.134	-10.51
214.352	-24.02
214.57	109.75
214.788	111.92
215.006	122.2
215.224	-15.39
215.442	61.6
215.66	151.48
215.878	426.16
216.096	914.24
216.314	-216.92
216.532	-247.31
216.75	-185.6
216.968	-51.16
217.185	-52.65
217.403	-39.78
217.621	-35.92
217.839	-8.19
218.057	8.4
218.275	12.16
218.492	28.2
218.71	33.61
218.928	27.51
219.146	-4.52
219.363	-226.51
219.581	-4327.42
219.799	-2948.65
220.017	132.56
220.234	171.42
220.452	648.2
220.67	2155.14
220.887	-3148.96
221.105	726.44
221.323	1107.78
221.54	341.86
221.758	-2336.4
221.976	-899.8
222.193	2460.78
222.411	5146.29
222.629	-1183.11
222.846	330.29
223.064	209.88
223.281	84.98
223.499	102.79
223.716	151.28
223.934	67.75
224.151	-12.1
224.369	-12.52
224.586	-6.95
224.804	-31.53
225.021	-59.14
225.239	-31.21
225.456	-15.3
225.674	-63.34
225.891	-21.75
226.108	-7.63
226.326	6.25
226.543	4.53
226.76	35.54
226.978	31.23
227.195	37.7
227.413	49.03
227.63	55.48
227.847	51.97
228.064	45.02
228.282	37.84
228.499	38.45
228.716	39.07
228.934	38.76
229.151	32.35
229.368	31.2
229.585	23.16
229.802	21.56
230.02	21.29
230.237	19.32
230.454	18.66
230.671	20.4
230.888	19.2
231.105	18.35
231.323	15.68
231.54	15.5
231.757	15.49
231.974	26.51
232.191	25.5
232.408	21.7
232.625	21.29
232.842	32.15
233.059	29.99
233.276	31.81
233.493	43.98
233.71	41.32
233.927	38.95
234.144	36.09
234.361	33.33
234.578	35.95
234.795	31.78
235.012	30.18
235.229	28.23
235.446	30.12
235.663	36.48
235.879	41.15
236.096	42.49
236.313	45.94
236.53	38.12
236.747	34.34
236.964	26.95
237.181	27.72
237.397	28.01
237.614	30.79
237.831	37.01
238.048	24.95
238.264	6.49
238.481	18.1
238.698	23.7
238.915	31.14
239.131	28.73
239.348	36.09
239.565	37.72
239.781	38.04
239.998	36.49
240.215	29.21
240.431	27.63
240.648	26.22
240.865	21.44
241.081	20.8
241.298	19.31
241.514	19.46
241.731	15.35
241.947	14.08
242.164	13.97
242.38	15.15
242.597	14.9
242.814	17.22
243.03	16.92
243.246	17.13
243.463	17.74
243.679	19.59
243.896	19.25
244.112	18.17
244.329	20.59
244.545	22.18
244.762	21.19
244.978	23.43
245.194	20.13
245.411	22.39
245.627	21.37
245.843	18.33
246.06	19.14
246.276	19.39
246.492	19.44
246.709	20.11
246.925	19.59
247.141	18.5
247.357	17.19
247.574	17.37
247.79	16.47
248.006	17.9
248.222	17.76
248.439	17.65
248.655	16.97
248.871	17.73
249.087	17.08
249.303	15.73
249.519	16.1
249.736	16.89
249.952	14.93
250.168	14.31
250.384	12.18
250.6	15.59
250.816	14.63
251.032	14.84
251.248	15.03
251.464	14.53
251.68	16.12
251.896	14.44
252.112	13.03
252.328	16.65
252.544	15.93
252.76	15.71
252.976	14.93
253.192	13.01
253.408	14.36
253.624	12.92
253.84	12.87
254.056	12.1
254.272	12.58
254.487	13.95
254.703	13.57
254.919	16.52
255.135	16.86
255.351	11.82
255.567	8.94
255.782	9.3
255.998	11.26
256.214	12.56
256.43	12.2
256.646	16.59
256.861	19.21
257.077	20.6
257.293	21.56
257.508	19.78
257.724	18.1
257.94	20.14
258.155	18.96
258.371	19.56
258.587	17.29
258.802	17.22
259.018	15.34
259.234	13.99
259.449	13.01
259.665	11.77
259.88	13.08
260.096	14.2
260.312	14.78
260.527	14.8
260.743	14.32
260.958	14.1
261.174	13.92
261.389	13.49
261.605	13.96
261.82	13.47
262.036	13.34
262.251	13.14
262.466	13.51
262.682	10.89
262.897	9.59
263.113	8.93
263.328	10.11
263.543	11.58
263.759	10.65
263.974	10.03
264.189	10.99
264.405	14.78
264.62	12.76
264.835	11.33
265.051	10.3
265.266	12.6
265.481	14.78
265.696	13.21
265.912	12.92
266.127	15.35
266.342	12.87
266.557	13.57
266.773	11.09
266.988	10.99
267.203	12.46
267.418	14.78
267.633	14.42
267.848	13.16
268.064	14.26
268.279	14.45
268.494	13.76
268.709	14.34
268.924	12.34
269.139	11.61
269.354	11.6
269.569	11.16
269.784	10.23
269.999	7.66
270.214	8.56
270.429	9.31
270.644	7.81
270.859	8.84
271.074	9.51
271.289	11.69
271.504	13.51
271.719	12.92
271.934	12.02
272.149	13.46
272.363	15.2
272.578	13.59
272.793	11.4
273.008	12.44
273.223	12.95
273.438	13.6
273.653	11.7
273.867	9.84
274.082	10.22
274.297	9.18
274.512	6.96
274.726	6.52
274.941	8.99
275.156	9.2
275.371	9.32
275.585	7.35
275.8	7.58
276.015	9.53
276.229	11.17
276.444	13.14
276.659	15.94
276.873	18.21
277.088	15.91
277.302	13.6
277.517	14.23
277.732	14.16
277.946	13.99
278.161	12.47
278.375	11.12
278.59	8.35
278.804	7.69
279.019	6.17
279.233	4.12
279.448	5.74
279.662	7.53
279.877	8.35
280.091	9.45
280.306	7.21
280.52	6.77
280.735	8.55
280.949	8.86
281.163	8.97
281.378	10.33
281.592	10.9
281.806	14.47
282.021	14.76
282.235	15.54
282.449	14.24
282.664	16.12
282.878	17.75
283.092	16.15
283.307	18.96
283.521	18.35
283.735	16.69
283.949	15.96
284.164	14.13
284.378	13.34
284.592	13.68
284.806	13.83
285.02	13.84
285.234	14.19
285.449	15.18
285.663	14.75
285.877	14.68
286.091	15.35
286.305	15.05
286.519	15.47
286.733	15.25
286.947	14.61
287.161	14.89
287.375	14.8
287.589	13.92
287.803	14.4
288.017	12.2
288.231	12.82
288.445	13.7
288.659	14.34
288.873	12.78
289.087	12.94
289.301	11.68
289.515	10.54
289.729	10.66
289.943	10.19
290.157	9.28
290.371	9.36
290.584	8.8
290.798	7.6
291.012	7.31
291.226	7.72
291.44	7.67
291.654	9.66
291.867	10.18
292.081	10.23
292.295	8.83
292.509	9.29
292.722	11.91
292.936	12.33
293.15	13.58
293.364	13.49
293.577	14.5
293.791	13.98
294.005	14.73
294.218	15.08
294.432	14.22
294.645	17.57
294.859	16.44
295.073	15.05
295.286	13.19
295.5	12.73
295.713	12.56
295.927	11.28
296.14	14.31
296.354	13.61
296.568	13.65
296.781	14.84
296.994	14.41
297.208	14.55
297.421	15.2
297.635	16.3
297.848	17.55
298.062	17.77
298.275	18.77
298.489	16.46
298.702	16.03
298.915	16.58
299.129	16.29
299.342	15.9
299.555	17.69
299.769	17.8
299.982	17.57
300.195	16.79
300.409	16.87
300.622	18.74
300.835	19.44
301.048	19.95
301.262	21.51
301.475	22.27
301.688	22.61
301.901	21.38
302.115	20.93
302.328	21.97
302.541	20.15
302.754	22.06
302.967	18.81
303.18	18.96
303.393	18.49
303.607	16.82
303.82	14.75
304.033	14.94
304.246	14.89
304.459	15.66
304.672	16.05
304.885	16.79
305.098	16.53
305.311	17.41
305.524	16.84
305.737	16.82
305.95	17.82
306.163	18.67
306.376	17.43
306.589	18.07
306.802	16.48
307.015	14.59
307.228	15.41
307.44	16.1
307.653	17.03
307.866	18.41
308.079	18.74
308.292	17.16
308.505	15.79
308.718	17.65
308.93	17.7
309.143	18.35
309.356	19.64
309.569	20.01
309.781	18.02
309.994	18.46
310.207	18.03
310.42	18.26
310.632	18.72
310.845	21.17
311.058	20.3
311.27	19.68
311.483	19.2
311.696	19.7
311.908	19.15
312.121	19.44
312.333	17.04
312.546	18.15
312.759	18.34
312.971	17.57
313.184	17.21
313.396	17.48
313.609	17.71
313.821	18.51
314.034	17.18
314.246	16.19
314.459	14.56
314.671	18.33
314.884	16.7
315.096	15.3
315.309	15.52
315.521	14.3
315.733	13.86
315.946	12.2
316.158	14.04
316.371	14.32
316.583	14.23
316.795	16.34
317.008	15.28
317.22	15.33
317.432	17.31
317.644	17.5
317.857	17.67
318.069	19.01
318.281	19.13
318.494	18
318.706	17.73
318.918	17.1
319.13	16.59
319.342	15.24
319.555	14.78
319.767	15.27
319.979	13.99
320.191	13.01
320.403	11.16
320.615	11.55
320.827	12.47
321.039	11.03
321.252	13.33
321.464	14.24
321.676	16.07
321.888	18.22
322.1	14.89
322.312	15.18
322.524	16.45
322.736	17.13
322.948	18.85
323.16	16.79
323.372	19
323.584	16.32
323.796	15.77
324.007	15.83
324.219	14.19
324.431	15.97
324.643	17.19
324.855	15.6
325.067	16.97
325.279	16.9
325.491	15.08
325.702	15.07
325.914	16.66
326.126	17.22
326.338	15.54
326.55	15.61
326.761	14.71
326.973	13.85
327.185	16.3
327.396	13.57
327.608	13.92
327.82	15.32
328.032	13.28
328.243	13.01
328.455	12.63
328.666	14.14
328.878	15.44
329.09	16.67
329.301	17.7
329.513	15.12
329.725	16.78
329.936	16.9
330.148	18.57
330.359	20.14
330.571	20.63
330.782	20.08
330.994	19.69
331.205	18.55
331.417	19.24
331.628	16.34
331.84	17.65
332.051	18.39
332.262	17.91
332.474	16.45
332.685	16.12
332.897	15.37
333.108	17.11
333.319	14.13
333.531	14.09
333.742	13.62
333.953	15.2
334.165	15.39
334.376	13.27
334.587	13.16
334.799	13.31
335.01	12.81
335.221	13.56
335.432	11.82
335.644	15.78
335.855	15.24
336.066	15.84
336.277	16.29
336.488	15.37
336.7	16.72
336.911	16.38
337.122	16.26
337.333	17.26
337.544	17.04
337.755	18.1
337.966	16.54
338.177	17.26
338.388	17.42
338.599	17.19
338.811	17.49
339.022	16.14
339.233	15.82
339.444	16.33
339.655	14.77
339.866	14.69
340.076	13.87
340.287	15.09
340.498	14.01
340.709	12.85
340.92	13.43
341.131	12.53
341.342	13.32
341.553	13.76
341.764	14.19
341.975	16.2
342.185	15.6
342.396	16.34
342.607	16.21
342.818	15.95
343.029	16.48
343.239	16.92
343.45	18.78
343.661	18.4
343.872	18.46
344.082	18.44
344.293	17.61
344.504	18.96
344.714	17.27
344.925	15.37
345.136	15.95
345.346	16.29
345.557	14.51
345.768	14.13
345.978	16.03
346.189	16.64
346.399	15.45
346.61	16.06
346.821	16.61
347.031	18.44
347.242	19.59
347.452	19.97
347.663	18.88
347.873	21.48
348.084	21.87
348.294	21.09
348.504	19.86
348.715	21.43
348.925	20.79
349.136	18.06
349.346	17.78
349.557	19.61
349.767	20.12
349.977	19.96
350.188	18.16
350.398	16.78
350.608	17.21
350.819	18.07
351.029	15.98
351.239	16.3
351.449	16.89
351.66	16.5
351.87	14.45
352.08	13.71
352.29	15.51
352.501	17.85
352.711	18.73
352.921	16.89
353.131	16.69
353.341	17.88
353.552	16.94
353.762	18.36
353.972	18.88
354.182	18.29
354.392	18.01
354.602	18.18
354.812	15.87
355.022	17.41
355.232	19.21
355.442	18.79
355.652	19.05
355.862	19.11
356.072	19.01
356.282	18.93
356.492	19.39
356.702	18.86
356.912	17.58
357.122	18.35
357.332	16.98
357.542	16.41
357.752	16.08
357.962	16
358.171	16.17
358.381	15.42
358.591	14.54
358.801	14.68
359.011	15.14
359.221	16.04
359.43	15.08
359.64	15.14
359.85	13.57
360.06	13.61
360.269	14.11
360.479	14.26
360.689	14.16
360.899	13.75
361.108	13.88
361.318	14.54
361.528	14.09
361.737	15
361.947	14.57
362.156	15.13
362.366	14.81
362.576	13.48
362.785	13.41
362.995	14.06
363.204	14.24
363.414	13.18
363.623	13.1
363.833	13
364.042	11.7
364.252	12.49
364.461	12.16
364.671	12.97
364.88	13.9
365.09	14.39
365.299	13.35
365.509	14.24
365.718	15.33
365.927	14.55
366.137	14.49
366.346	14.49
366.555	14.53
366.765	14.38
366.974	14.38
367.183	13.79
367.393	12.96
367.602	13.35
367.811	12.62
368.021	11.81
368.23	11.68
368.439	11.09
368.648	11.07
368.857	11.44
369.067	11.59
369.276	12.82
369.485	12.98
369.694	13.29
369.903	13.1
370.112	12.95
370.321	14.07
370.531	14.42
370.74	15.03
370.949	15.59
371.158	14.51
371.367	15.38
371.576	14.47
371.785	14.98
371.994	13.81
372.203	14.28
372.412	15.13
372.621	14.6
372.83	14.59
373.039	14.73
373.248	14.49
373.457	14.25
373.666	13.87
373.874	12.98
374.083	12.13
374.292	13.55
374.501	13.39
374.71	13.01
374.919	12.94
375.128	13.32
375.336	12.06
375.545	11.95
375.754	12.42
375.963	12.12
376.171	11.91
376.38	12.17
376.589	11.14
376.798	10.57
377.006	10.84
377.215	11.02
377.424	10.4
377.632	10.81
377.841	10.93
378.05	11.1
378.258	10.52
378.467	10.61
378.675	10.73
378.884	10.65
379.093	10.2
379.301	9.27
379.51	8.83
379.718	8.7
379.927	8.91
380.135	8.01
380.344	7.36
380.552	7.03
380.761	7.6
380.969	7.17
381.177	7.64
381.386	7.96
381.594	8.38
381.803	8.3
382.011	7.93
382.219	7.35
382.428	7.97
382.636	7.78
382.845	8.28
383.053	7.23
383.261	7.39
383.469	6.66
383.678	6.98
383.886	6.79
384.094	7.11
384.302	7.37
384.511	7.29
384.719	7.65
384.927	8.1
385.135	8.23
385.343	8.53
385.552	8.57
385.76	8.52
385.968	8.56
386.176	8.31
386.384	8.11
386.592	8.34
386.8	8.71
387.008	8.39
387.216	8.22
387.424	8.45
387.633	8.42
387.841	8.13
388.049	7.89
388.257	7.41
388.465	7.64
388.672	7.53
388.88	7.39
389.088	7.43
389.296	7.23
389.504	6.95
389.712	6.26
389.92	6.25
390.128	6.03
390.336	6.69
390.544	6.91
390.751	7.11
390.959	7.11
391.167	6.98
391.375	6.66
391.583	6.48
391.79	6.09
391.998	6.4
392.206	6.53
392.414	6.93
392.621	6.97
392.829	6.85
393.037	6.7
393.244	6.56
393.452	6.47
393.66	6.59
393.867	7.07
394.075	7.45
394.283	7.4
394.49	7.27
394.698	7.31
394.905	7.09
395.113	6.94
395.32	6.67
395.528	6.75
395.735	6.56
395.943	6.24
396.15	5.66
396.358	5.46
396.565	5.56
396.773	5.88
396.98	5.65
397.188	5.9
397.395	5.82
397.602	5.85
397.81	5.89
398.017	6.13
398.225	6.47
398.432	6.75
398.639	6.89
398.847	6.76
399.054	6.37
399.261	6.45
399.468	6.21
399.676	6.79
399.883	6.82
400.09	6.5
400.297	6.6
400.505	6.41
400.712	6.35
400.919	6.45
401.126	6.27
401.333	6.25
401.54	6.22
401.748	6.2
401.955	5.96
402.162	5.72
402.369	6.08
402.576	5.97
402.783	5.78
402.99	5.69
403.197	5.66
403.404	5.6
403.611	5.9
403.818	5.77
404.025	5.9
404.232	6.04
404.439	6.55
404.646	6.37
404.853	6.21
405.06	6.42
405.267	6.38
405.474	6.62
405.681	6.66
405.887	6.35
406.094	5.86
406.301	5.58
406.508	5.21
406.715	4.62
406.922	4.47
407.128	4.27
407.335	4.46
407.542	4.45
407.749	4.3
407.955	4.27
408.162	4.38
408.369	5.04
408.575	4.84
408.782	4.96
408.989	5.12
409.195	5.61
409.402	5.79
409.609	5.48
409.815	5.64
410.022	5.47
410.228	5.49
410.435	5.31
410.642	5.15
410.848	5.91
411.055	6.12
411.261	6.06
411.468	5.89
411.674	5.97
411.881	6.25
412.087	6.09
412.294	6.2
412.5	6.32
412.706	6.43
412.913	6.35
413.119	5.62
413.326	5.4
413.532	5.53
413.738	5.34
413.945	5.14
414.151	4.85
414.357	5
414.564	4.57
414.77	4.38
414.976	4.31
415.182	4.54
415.389	4.64
415.595	4.6
415.801	4.69
416.007	4.63
416.214	4.75
416.42	4.95
416.626	4.68
416.832	4.83
417.038	4.73
417.244	4.61
417.45	4.54
417.657	4.78
417.863	4.81
418.069	4.93
418.275	4.71
418.481	4.76
418.687	4.72
418.893	4.89
419.099	4.89
419.305	5.03
419.511	5.27
419.717	5.25
419.923	5.1
420.129	4.97
420.335	4.91
420.541	5.22
420.746	5.14
420.952	5.04
421.158	4.97
421.364	4.89
421.57	4.85
421.776	4.5
421.982	4.63
422.187	4.69
422.393	4.74
422.599	4.52
422.805	4.16
423.01	4.34
423.216	4.42
423.422	4.32
423.628	4.45
423.833	4.52
424.039	4.78
424.245	4.57
424.45	4.46
424.656	4.5
424.862	4.6
425.067	4.92
425.273	4.85
425.478	4.78
425.684	4.89
425.889	4.87
426.095	4.77
426.301	4.93
426.506	4.96
426.712	5.01
426.917	4.96
427.123	4.92
427.328	4.81
427.533	4.56
427.739	4.68
427.944	4.68
428.15	4.56
428.355	4.59
428.561	4.42
428.766	4.31
428.971	4.47
429.177	4.39
429.382	4.32
429.587	4.2
429.793	4.54
429.998	4.34
430.203	4.15
430.408	4.28
430.614	4.13
430.819	4.07
431.024	4.23
431.229	4.16
431.434	4.4
431.64	4.62
431.845	4.92
432.05	4.65
432.255	4.59
432.46	4.79
432.665	4.62
432.87	4.62
433.076	4.59
433.281	4.55
433.486	4.54
433.691	4.49
433.896	4.37
434.101	3.97
434.306	4.14
434.511	4.31
434.716	4.24
434.921	4.28
435.126	4.35
435.331	4.4
435.535	4.47
435.74	4.49
435.945	4.36
436.15	4.39
436.355	4.65
436.56	4.74
436.765	4.67
436.97	4.64
437.174	4.76
437.379	5
437.584	4.87
437.789	4.78
437.993	4.74
438.198	4.87
438.403	4.9
438.608	4.92
438.812	4.75
439.017	4.65
439.222	4.7
439.426	4.6
439.631	4.66
439.836	4.84
440.04	4.81
440.245	4.84
440.45	4.76
440.654	4.97
440.859	4.91
441.063	5
441.268	4.95
441.472	5.07
441.677	5.15
441.881	5.02
442.086	5.01
442.29	5.16
442.495	5.08
442.699	5.26
442.904	5.15
443.108	5.1
443.312	5.03
443.517	5.32
443.721	5.28
443.925	5.29
444.13	5.24
444.334	5.16
444.538	4.95
444.743	5.14
444.947	5.06
445.151	5.01
445.356	5.11
445.56	5.1
445.764	4.97
445.968	4.89
446.173	4.78
446.377	4.81
446.581	4.78
446.785	4.81
446.989	4.66
447.193	4.6
447.398	4.48
447.602	4.36
447.806	4.3
448.01	4.16
448.214	4.07
448.418	4.19
448.622	4.14
448.826	4.08
449.03	4.14
449.234	4.03
449.438	4.02
449.642	4.08
449.846	4.21
450.05	4.18
450.254	4.22
450.458	4.39
450.662	4.2
450.866	4.18
451.069	4.06
451.273	4.13
451.477	4.25
451.681	4.1
451.885	3.88
452.089	3.73
452.292	3.85
452.496	3.95
452.7	3.61
452.904	3.67
453.107	3.68
453.311	3.82
453.515	3.73
453.719	3.83
453.922	3.88
454.126	4
454.33	3.99
454.533	3.92
454.737	3.79
454.94	4.13
455.144	4.09
455.348	3.92
455.551	3.97
455.755	4.11
455.958	3.92
456.162	3.81
456.365	3.81
456.569	3.97
456.772	3.94
456.976	4.13
457.179	4.14
457.383	4.18
457.586	4.46
457.79	4.29
457.993	4.16
458.196	4.25
458.4	4.34
458.603	4.46
458.807	4.4
459.01	4.44
459.213	4.38
459.417	4.25
459.62	4.19
459.823	4.08
460.026	4.19
