Data from 2937810_Reflection_3.txt Node
Date: Wed Jul 15 17:49:10 EDT 2015
User: robert
Spectrometer: USB4E03001
Autoset integration time: false
Trigger mode: 4
Integration Time (sec): 1.000000E-1
Scans to average: 10
Electric dark correction enabled: true
Nonlinearity correction enabled: false
Boxcar width: 5
Stray light correction enabled: false
XAxis mode: Wavelengths
Stop averaging: false
Number of Pixels in Spectrum: 3648
>>>>>Begin Spectral Data<<<<<
177.566	85.83
177.785	176.1
178.005	46.7
178.225	-352.67
178.445	306.36
178.665	416.45
178.885	1395.33
179.105	126.58
179.324	119.8
179.544	70.52
179.764	49.07
179.984	43.78
180.204	0.8
180.423	-10.14
180.643	-61.81
180.863	-26.74
181.083	1.73
181.302	0.62
181.522	66.2
181.742	71.97
181.961	-11810
182.181	-109.58
182.401	-118.28
182.621	-680.28
182.84	-186.86
183.06	-109.02
183.279	-58.95
183.499	-98.48
183.719	-79.42
183.938	-93.51
184.158	-151.93
184.377	-201.3
184.597	-572.92
184.816	1415.91
185.036	820.75
185.256	154.19
185.475	142.81
185.695	187.21
185.914	188.81
186.134	134.68
186.353	157.62
186.572	139.15
186.792	95.3
187.011	115.68
187.231	102.54
187.45	68.31
187.67	129.21
187.889	419.71
188.108	214.5
188.328	183.23
188.547	217.82
188.766	170.5
188.986	176.89
189.205	222.6
189.424	216.89
189.644	219.6
189.863	288.39
190.082	272.26
190.302	146.93
190.521	89.65
190.74	42.95
190.959	10.56
191.178	-153.71
191.398	-271.15
191.617	24.32
191.836	61.43
192.055	36.65
192.274	34.09
192.494	-4.14
192.713	31.62
192.932	105.24
193.151	139.5
193.37	109.77
193.589	104.49
193.808	82.07
194.027	75.15
194.246	50.75
194.465	52.98
194.685	68.69
194.904	54.5
195.123	48.37
195.342	17.11
195.561	39.41
195.78	-135.09
195.999	-25.4
196.218	64.85
196.436	51.72
196.655	17.31
196.874	-35.5
197.093	-204.79
197.312	-751.05
197.531	-742.82
197.75	197.61
197.969	202.8
198.188	143.3
198.407	148.36
198.625	124.98
198.844	109.08
199.063	121.33
199.282	112.87
199.501	90.13
199.719	76.69
199.938	86.89
200.157	98.11
200.376	114.02
200.594	150
200.813	238
201.032	212.1
201.251	-398.01
201.469	-201.55
201.688	-195.07
201.907	-196.2
202.125	-284.05
202.344	-1576.67
202.563	-983.2
202.781	-666.45
203	-1324.72
203.218	-1578.65
203.437	9230.88
203.656	343.72
203.874	322.6
204.093	268.73
204.311	211.56
204.53	165.5
204.748	142.81
204.967	116.66
205.185	121.43
205.404	111.97
205.622	93.21
205.841	118.51
206.059	216.77
206.278	1025.54
206.496	2274.63
206.715	377.65
206.933	356.23
207.151	2100
207.37	-119.01
207.588	-374.27
207.806	167.59
208.025	94.15
208.243	114.92
208.461	186.96
208.68	109.99
208.898	188.42
209.116	324.85
209.335	-177.7
209.553	-33.06
209.771	-216.2
209.989	608.2
210.208	-4.95
210.426	-130.94
210.644	4156.36
210.862	1067.03
211.081	348.33
211.299	272.31
211.517	-1102.79
211.735	14775
211.953	527.57
212.171	402.75
212.39	1273.37
212.608	1067.59
212.826	1299.13
213.044	-344.14
213.262	-899.53
213.48	-5641.44
213.698	-2026.82
213.916	522.92
214.134	306.48
214.352	612.84
214.57	-8154.08
214.788	-3124.19
215.006	7098.97
215.224	3048.12
215.442	505.22
215.66	585.18
215.878	640.55
216.096	-413.02
216.314	-72.62
216.532	-85.85
216.75	-12.03
216.968	-104.19
217.185	-33.88
217.403	-16.76
217.621	0.1
217.839	46.77
218.057	2.76
218.275	-68.99
218.492	-654.17
218.71	1127.94
218.928	507.77
219.146	359.57
219.363	467.06
219.581	285.88
219.799	959.35
220.017	3191.84
220.234	-4191.83
220.452	-6118.32
220.67	2978.93
220.887	-645.77
221.105	-344.54
221.323	-112.37
221.54	-178.37
221.758	-183.52
221.976	-1299.39
222.193	324.97
222.411	159.75
222.629	195.92
222.846	143.21
223.064	145
223.281	129.83
223.499	126.12
223.716	105.68
223.934	99.01
224.151	115.95
224.369	133.45
224.586	136.03
224.804	202.78
225.021	207.56
225.239	199.73
225.456	237.05
225.674	288.9
225.891	223.21
226.108	274.2
226.326	245.1
226.543	3636.92
226.76	-203.33
226.978	-42.14
227.195	-77.67
227.413	-30.04
227.63	-10.93
227.847	-3.47
228.064	9.31
228.282	8.4
228.499	8.69
228.716	-0.28
228.934	-7.21
229.151	-4.72
229.368	-17.71
229.585	-17.66
229.802	-20.69
230.02	-23.73
230.237	-22.43
230.454	-29.18
230.671	-30.97
230.888	-46.08
231.105	-41.42
231.323	-52.41
231.54	-49.16
231.757	-37.89
231.974	-37.1
232.191	-45.28
232.408	-36.8
232.625	-37.63
232.842	-32.56
233.059	-59.97
233.276	-64.51
233.493	-78.39
233.71	-48.94
233.927	-68.96
234.144	-55.87
234.361	-70.37
234.578	-54.72
234.795	-61.13
235.012	-60.81
235.229	-69.45
235.446	-36.48
235.663	-37.29
235.879	-26.98
236.096	-20.71
236.313	-31.16
236.53	-37.19
236.747	-26.56
236.964	-31.33
237.181	-42.19
237.397	-45.35
237.614	-46.39
237.831	-48.21
238.048	-49.48
238.264	-83.86
238.481	-84.81
238.698	-41.62
238.915	-40.79
239.131	-47.53
239.348	-36.61
239.565	-24.2
239.781	-26.86
239.998	-28.41
240.215	-30.19
240.431	-24.05
240.648	-15.26
240.865	-12.97
241.081	-15.86
241.298	-11.31
241.514	-6.14
241.731	-7.09
241.947	-9.71
242.164	-7.51
242.38	-7.29
242.597	-7.01
242.814	-4.01
243.03	-3.81
243.246	-1.44
243.463	0.43
243.679	2.23
243.896	4.76
244.112	3.11
244.329	5.83
244.545	5.39
244.762	7.19
244.978	7.29
245.194	7.84
245.411	6.67
245.627	4.94
245.843	0.11
246.06	-2.08
246.276	-4.6
246.492	-4.69
246.709	-5.06
246.925	-4.88
247.141	-2.93
247.357	-4.43
247.574	-3.11
247.79	-1.68
248.006	-1.96
248.222	-0.59
248.439	-0.25
248.655	-1.92
248.871	-1.12
249.087	-2.25
249.303	-1.06
249.519	-5.93
249.736	-6.16
249.952	-12.45
250.168	-14.04
250.384	-15.91
250.6	-16.24
250.816	-17.32
251.032	-13.04
251.248	-10.15
251.464	-6.87
251.68	-8.49
251.896	-4.76
252.112	-2.91
252.328	-2.47
252.544	-7.69
252.76	-8.51
252.976	-6.94
253.192	-6.31
253.408	-5.38
253.624	-6.37
253.84	-7.31
254.056	-8.28
254.272	-5.71
254.487	-6.3
254.703	-3.21
254.919	1.9
255.135	5.62
255.351	2.9
255.567	-0.26
255.782	1.6
255.998	5.06
256.214	6.87
256.43	8.84
256.646	4.87
256.861	2.81
257.077	1.87
257.293	1.39
257.508	-2.13
257.724	-4.91
257.94	-3.88
258.155	-7.66
258.371	-13.55
258.587	-10.64
258.802	-13.1
259.018	-12.69
259.234	-10.88
259.449	-10.98
259.665	-11.16
259.88	-8.56
260.096	-6.29
260.312	-5.97
260.527	-4.87
260.743	-3.23
260.958	-5.26
261.174	-4.12
261.389	-3.27
261.605	-4.53
261.82	-3.88
262.036	-1.1
262.251	-4.21
262.466	-5.88
262.682	-5.53
262.897	-6.3
263.113	-6.27
263.328	-4.39
263.543	-0.56
263.759	-2.18
263.974	1.4
264.189	1.14
264.405	-1.51
264.62	-1.65
264.835	-1.56
265.051	-1.8
265.266	-0.04
265.481	-1.98
265.696	0.18
265.912	-4.25
266.127	-1.81
266.342	-2.38
266.557	-2.26
266.773	-4.92
266.988	-0.4
267.203	-2.04
267.418	-2.98
267.633	-4.48
267.848	-4.73
268.064	-7.86
268.279	-5.83
268.494	-5.12
268.709	-5.08
268.924	-4.33
269.139	-1.31
269.354	-2.38
269.569	-2.05
269.784	-2.15
269.999	-4.49
270.214	-6.36
270.429	-4.79
270.644	-5.95
270.859	-4.63
271.074	-3.57
271.289	-4.45
271.504	-6.35
271.719	-6.31
271.934	-3.74
272.149	-3.61
272.363	-0.38
272.578	1.04
272.793	-0.01
273.008	-0.02
273.223	-3.3
273.438	-5.42
273.653	-3.48
273.867	-1.39
274.082	-3.06
274.297	-2.39
274.512	-4.45
274.726	-4.98
274.941	-3.66
275.156	-3.6
275.371	-3.54
275.585	-0.92
275.8	1.28
276.015	-1.66
276.229	-3.91
276.444	-1.74
276.659	-2.72
276.873	1.4
277.088	-2.1
277.302	-2.59
277.517	-0.16
277.732	-2.03
277.946	-2.26
278.161	-4.17
278.375	-2.52
278.59	-4.3
278.804	-6.71
279.019	-7.65
279.233	-9.96
279.448	-5.95
279.662	-3.77
279.877	-4.6
280.091	-4.03
280.306	-4.13
280.52	-1.34
280.735	-3.84
280.949	-3.17
281.163	-2.32
281.378	-4.18
281.592	-5.9
281.806	-6.91
282.021	-7.08
282.235	-9.3
282.449	-6.98
282.664	-7.18
282.878	-6.34
283.092	-3.54
283.307	-1.4
283.521	-0.31
283.735	2.34
283.949	5.45
284.164	6.61
284.378	5.56
284.592	6.28
284.806	4.46
285.02	3.95
285.234	-0.56
285.449	-1.39
285.663	-5.79
285.877	-5.4
286.091	-5.93
286.305	-4.77
286.519	-5.9
286.733	-7.3
286.947	-8.57
287.161	-7.81
287.375	-4.8
287.589	0.24
287.803	1.46
288.017	4.79
288.231	3.61
288.445	1.41
288.659	-1.01
288.873	-1.12
289.087	0.43
289.301	2.14
289.515	1.7
289.729	-1
289.943	-4.89
290.157	-4.82
290.371	-5.93
290.584	-5.04
290.798	-2.54
291.012	-1.73
291.226	-2.54
291.44	-3.54
291.654	-3.82
291.867	-4.25
292.081	-6.08
292.295	-3.48
292.509	-3.26
292.722	-2.22
292.936	-4.81
293.15	-6.21
293.364	-5.56
293.577	-6.03
293.791	-5.61
294.005	-8.34
294.218	-7.7
294.432	-5.72
294.645	-4.21
294.859	-4.37
295.073	-1.43
295.286	0.02
295.5	0.48
295.713	-0.62
295.927	-0.31
296.14	0.29
296.354	0.89
296.568	0.22
296.781	-0.08
296.994	1.05
297.208	0.25
297.421	-0.58
297.635	-1.67
297.848	-3.46
298.062	-3.82
298.275	-2.58
298.489	-3.01
298.702	-0.74
298.915	0.5
299.129	2
299.342	-3.04
299.555	-4.48
299.769	-4.71
299.982	-2.28
300.195	-1.64
300.409	-2.46
300.622	-6
300.835	-6.98
301.048	-11.01
301.262	-11.2
301.475	-11.39
301.688	-11.03
301.901	-9.84
302.115	-11.22
302.328	-15
302.541	-14.92
302.754	-18.81
302.967	-10.95
303.18	-10.61
303.393	-8.26
303.607	-6.01
303.82	-5.7
304.033	-2.06
304.246	-0.53
304.459	1.07
304.672	1.35
304.885	4.82
305.098	8.72
305.311	5.55
305.524	7.5
305.737	6.9
305.95	5.41
306.163	4.69
306.376	4.11
306.589	4.89
306.802	5.76
307.015	6.57
307.228	2.77
307.44	1.9
307.653	0.83
307.866	-0.1
308.079	-0.77
308.292	-3.17
308.505	-3.05
308.718	-2.56
308.93	-2.49
309.143	-3.76
309.356	-0.45
309.569	-0.4
309.781	1.85
309.994	2.24
310.207	0.62
310.42	2.63
310.632	3.25
310.845	3.38
311.058	4.05
311.27	2.09
311.483	0.76
311.696	0.71
311.908	1.63
312.121	0
312.333	-0.75
312.546	0.87
312.759	0.12
312.971	0.54
313.184	-0.47
313.396	-4.94
313.609	-5.8
313.821	-5.11
314.034	-8.8
314.246	-9.29
314.459	-8.03
314.671	-8.98
314.884	-8.22
315.096	-8.44
315.309	-8.86
315.521	-6.55
315.733	-4.82
315.946	-4.11
316.158	-2.13
316.371	-2.9
316.583	-0.9
316.795	0.04
317.008	2.97
317.22	2.46
317.432	3.2
317.644	4.98
317.857	2.32
318.069	3.64
318.281	6.68
318.494	4.48
318.706	5.26
318.918	2.45
319.13	2.51
319.342	0.74
319.555	1.61
319.767	1.74
319.979	4.77
320.191	6.46
320.403	8.54
320.615	7.25
320.827	9.54
321.039	8.31
321.252	9.45
321.464	8.08
321.676	11.83
321.888	8.79
322.1	8.44
322.312	4.66
322.524	3.61
322.736	2.91
322.948	4.07
323.16	5.12
323.372	7.89
323.584	5.83
323.796	5.74
324.007	5.82
324.219	8.75
324.431	9.35
324.643	10.62
324.855	13.93
325.067	14.78
325.279	14.64
325.491	14.04
325.702	13.23
325.914	16.96
326.126	18.27
326.338	18.26
326.55	17.25
326.761	16.62
326.973	17.31
327.185	15.35
327.396	13.92
327.608	14.58
327.82	13.67
328.032	13.56
328.243	13.93
328.455	14.83
328.666	16.04
328.878	20.3
329.09	23.68
329.301	24.52
329.513	28.09
329.725	30.61
329.936	31.26
330.148	32.51
330.359	34.78
330.571	34.91
330.782	35.68
330.994	36.4
331.205	36.94
331.417	37.48
331.628	37.72
331.84	38.84
332.051	39.51
332.262	41.6
332.474	44.27
332.685	46.77
332.897	46.5
333.108	47.37
333.319	49.32
333.531	49.94
333.742	52.09
333.953	52.36
334.165	50.77
334.376	52.31
334.587	51.8
334.799	52.62
335.01	54.36
335.221	55.52
335.432	55.32
335.644	51.6
335.855	51.21
336.066	49.12
336.277	50.32
336.488	50.88
336.7	49.79
336.911	50.22
337.122	49.6
337.333	49.7
337.544	49.9
337.755	52.26
337.966	54.78
338.177	56.73
338.388	57.64
338.599	57.34
338.811	58.55
339.022	57.64
339.233	58.69
339.444	61.18
339.655	61.05
339.866	60.38
340.076	58.16
340.287	59.02
340.498	58.59
340.709	58.97
340.92	61.01
341.131	61.7
341.342	63.86
341.553	62.74
341.764	62.59
341.975	62.75
342.185	64.01
342.396	65.96
342.607	64.91
342.818	64.86
343.029	66.14
343.239	68.37
343.45	67.01
343.661	67.89
343.872	68.5
344.082	69.24
344.293	68.36
344.504	68.8
344.714	67.45
344.925	68.95
345.136	70.23
345.346	70.32
345.557	68.38
345.768	68.5
345.978	68.94
346.189	67.96
346.399	67.78
346.61	68.89
346.821	69.24
347.031	70.59
347.242	70.11
347.452	67.93
347.663	67.68
347.873	66.34
348.084	66.88
348.294	66.02
348.504	67.31
348.715	66.76
348.925	66.93
349.136	68.97
349.346	68.62
349.557	68.22
349.767	68.64
349.977	70.19
350.188	71.01
350.398	70.31
350.608	69.37
350.819	70.69
351.029	69.72
351.239	70.43
351.449	68.38
351.66	68.72
351.87	69.83
352.08	70.38
352.29	67.91
352.501	68.27
352.711	69.07
352.921	71.78
353.131	72.41
353.341	73.11
353.552	71.36
353.762	70.98
353.972	69.35
354.182	69.36
354.392	70.88
354.602	73.82
354.812	76.06
355.022	76.32
355.232	74.54
355.442	73.84
355.652	74
355.862	74.84
356.072	75.27
356.282	76.65
356.492	75.59
356.702	74.09
356.912	71.99
357.122	69.2
357.332	68.59
357.542	69.61
357.752	69.63
357.962	69.74
358.171	70.04
358.381	68.85
358.591	68.72
358.801	69.16
359.011	69.69
359.221	69.43
359.43	71.06
359.64	72.57
359.85	72.54
360.06	73.2
360.269	73.72
360.479	73.2
360.689	73.72
360.899	74.09
361.108	73.99
361.318	73.67
361.528	74
361.737	72.93
361.947	72.27
362.156	71.73
362.366	71.1
362.576	70.22
362.785	70.97
362.995	71.52
363.204	71.1
363.414	71.49
363.623	71.46
363.833	72.2
364.042	73.09
364.252	73.17
364.461	74.23
364.671	74.89
364.88	75.51
365.09	74.83
365.299	73.7
365.509	73.51
365.718	72.13
365.927	72.27
366.137	71.3
366.346	71.5
366.555	70.69
366.765	69.41
366.974	67.94
367.183	65.51
367.393	65.81
367.602	66.36
367.811	66.51
368.021	66.88
368.23	66.05
368.439	65.78
368.648	64.61
368.857	65.49
369.067	65.07
369.276	64.87
369.485	67.64
369.694	66.09
369.903	65.09
370.112	63.89
370.321	63.28
370.531	63.07
370.74	63.91
370.949	63.77
371.158	62.18
371.367	63.7
371.576	65.13
371.785	63.06
371.994	63.07
372.203	64.24
372.412	64.36
372.621	64.8
372.83	64.77
373.039	62.73
373.248	62.37
373.457	62.33
373.666	61.4
373.874	59.96
374.083	60.99
374.292	61.21
374.501	59.84
374.71	59.19
374.919	58.94
375.128	58.66
375.336	58.82
375.545	59.41
375.754	59.96
375.963	58.69
376.171	58.73
376.38	58.51
376.589	58.43
376.798	59.25
377.006	59.46
377.215	59.94
377.424	59.87
377.632	60.27
377.841	59.8
378.05	59.01
378.258	59.05
378.467	58.95
378.675	58.52
378.884	58.34
379.093	58.3
379.301	58.04
379.51	57.66
379.718	57.39
379.927	57.26
380.135	56.89
380.344	57.4
380.552	57.08
380.761	56.44
380.969	55.26
381.177	55.18
381.386	54.4
381.594	54.63
381.803	52.98
382.011	52.42
382.219	51.59
382.428	51.04
382.636	50.95
382.845	51.04
383.053	50.52
383.261	50.48
383.469	49.89
383.678	49.98
383.886	50.12
384.094	50.3
384.302	50.58
384.511	50.48
384.719	50.43
384.927	49.51
385.135	49.13
385.343	49.03
385.552	49.14
385.76	48.94
385.968	48.24
386.176	47.38
386.384	47.03
386.592	46.62
386.8	45.99
387.008	46.35
387.216	46.87
387.424	46.55
387.633	46.19
387.841	46.17
388.049	45.74
388.257	45.62
388.465	45.62
388.672	45.69
388.88	45.35
389.088	46.14
389.296	45.61
389.504	45.26
389.712	44.84
389.92	45.26
390.128	45.28
390.336	45.05
390.544	44.64
390.751	44.14
390.959	43.93
391.167	44.16
391.375	43.41
391.583	43.73
391.79	43.49
391.998	43.63
392.206	43.48
392.414	43.1
392.621	43.24
392.829	43.38
393.037	43.48
393.244	43.44
393.452	43.27
393.66	43.28
393.867	42.44
394.075	42.3
394.283	41.99
394.49	41.22
394.698	41.11
394.905	40.82
395.113	40.9
395.32	40.53
395.528	40.52
395.735	40.52
395.943	40.5
396.15	40.82
396.358	40.53
396.565	41.01
396.773	41.24
396.98	41.53
397.188	41.73
397.395	41.17
397.602	41.35
397.81	41.36
398.017	41.25
398.225	41.38
398.432	41.45
398.639	41.73
398.847	41.84
399.054	41.98
399.261	41.68
399.468	41.64
399.676	42.25
399.883	42.14
400.09	42.13
400.297	42.54
400.505	42.47
400.712	42.08
400.919	42.12
401.126	41.91
401.333	41.88
401.54	41.95
401.748	42.06
401.955	41.84
402.162	42.22
402.369	42.15
402.576	41.83
402.783	41.94
402.99	42.36
403.197	42.38
403.404	42.17
403.611	42.33
403.818	42.33
404.025	42.29
404.232	42.19
404.439	42.11
404.646	42.04
404.853	42.03
405.06	41.93
405.267	41.98
405.474	41.79
405.681	41.85
405.887	41.66
406.094	41.94
406.301	42.16
406.508	42.16
406.715	42.01
406.922	42.27
407.128	42.35
407.335	42.52
407.542	42.22
407.749	42.17
407.955	42.34
408.162	42.49
408.369	42
408.575	41.81
408.782	42.02
408.989	41.86
409.195	41.72
409.402	41.52
409.609	41.46
409.815	41.72
410.022	41.61
410.228	41.35
410.435	41.44
410.642	42.06
410.848	41.77
411.055	41.58
411.261	41.85
411.468	41.67
411.674	41.51
411.881	41.41
412.087	41.17
412.294	41.32
412.5	41.38
412.706	41.34
412.913	40.9
413.119	40.96
413.326	40.57
413.532	40.55
413.738	40.8
413.945	41.08
414.151	40.76
414.357	40.37
414.564	40.34
414.77	40.24
414.976	40.01
415.182	39.93
415.389	40.01
415.595	40.15
415.801	40.2
416.007	39.88
416.214	39.55
416.42	39.77
416.626	39.86
416.832	39.82
417.038	39.92
417.244	40.1
417.45	40.06
417.657	40.02
417.863	40.17
418.069	40.08
418.275	40.36
418.481	40.43
418.687	40.41
418.893	40.45
419.099	40.45
419.305	40.45
419.511	40.33
419.717	40.1
419.923	40.06
420.129	39.9
420.335	39.89
420.541	39.79
420.746	39.81
420.952	39.72
421.158	39.79
421.364	39.63
421.57	39.56
421.776	39.54
421.982	39.76
422.187	39.61
422.393	39.58
422.599	39.48
422.805	39.31
423.01	39.23
423.216	39.36
423.422	39.28
423.628	39.36
423.833	39.38
424.039	39.2
424.245	39.12
424.45	39.25
424.656	39.22
424.862	39.25
425.067	39.2
425.273	39.08
425.478	38.91
425.684	38.85
425.889	38.75
426.095	38.59
426.301	38.81
426.506	38.7
426.712	38.5
426.917	38.43
427.123	38.44
427.328	38.46
427.533	38.48
427.739	38.37
427.944	38.12
428.15	38.1
428.355	38.06
428.561	37.76
428.766	37.69
428.971	37.77
429.177	37.74
429.382	37.7
429.587	37.69
429.793	37.75
429.998	37.82
430.203	38.15
430.408	38.2
430.614	38.4
430.819	38.2
431.024	38.42
431.229	38.41
431.434	38.36
431.64	38.18
431.845	38.37
432.05	38.2
432.255	38.01
432.46	37.89
432.665	37.92
432.87	37.84
433.076	38.02
433.281	37.91
433.486	38.03
433.691	38.2
433.896	38.22
434.101	38.25
434.306	38.42
434.511	38.55
434.716	38.6
434.921	38.39
435.126	38.33
435.331	38.19
435.535	38.12
435.74	37.86
435.945	37.86
436.15	37.57
436.355	37.44
436.56	37.2
436.765	37.26
436.97	37.32
437.174	37.47
437.379	37.62
437.584	37.8
437.789	37.79
437.993	38.18
438.198	38.07
438.403	38.29
438.608	38.27
438.812	38.52
439.017	38.49
439.222	38.31
439.426	38.28
439.631	38.23
439.836	38.33
440.04	38.48
440.245	38.2
440.45	38.15
440.654	38.25
440.859	38.22
441.063	38.21
441.268	38.36
441.472	38.52
441.677	38.57
441.881	38.44
442.086	38.37
442.29	38.15
442.495	38.22
442.699	38.33
442.904	38.17
443.108	38.18
443.312	38.08
443.517	37.83
443.721	37.91
443.925	38.05
444.13	38.23
444.334	38.18
444.538	38.13
444.743	38.23
444.947	38.15
445.151	38.15
445.356	38
445.56	37.92
445.764	37.93
445.968	37.75
446.173	37.69
446.377	37.49
446.581	37.47
446.785	37.61
446.989	37.55
447.193	37.63
447.398	37.69
447.602	37.72
447.806	37.7
448.01	37.57
448.214	37.42
448.418	37.33
448.622	37.43
448.826	37.36
449.03	37.21
449.234	37.01
449.438	36.95
449.642	36.87
449.846	36.82
450.05	36.81
450.254	36.74
450.458	36.83
450.662	36.72
450.866	36.66
451.069	36.65
451.273	36.8
451.477	36.86
451.681	36.92
451.885	37
452.089	37.16
452.292	37.31
452.496	37.21
452.7	37.3
452.904	37.32
453.107	37.41
453.311	37.47
453.515	37.32
453.719	37.04
453.922	36.9
454.126	36.82
454.33	36.67
454.533	36.48
454.737	36.64
