Data from 2937837_Reflection_2.txt Node
Date: Wed Jul 15 16:27:55 EDT 2015
User: robert
Spectrometer: USB4E03001
Autoset integration time: false
Trigger mode: 4
Integration Time (sec): 1.000000E-1
Scans to average: 10
Electric dark correction enabled: true
Nonlinearity correction enabled: false
Boxcar width: 5
Stray light correction enabled: false
XAxis mode: Wavelengths
Stop averaging: false
Number of Pixels in Spectrum: 3648
>>>>>Begin Spectral Data<<<<<
177.566	67.59
177.785	87.15
178.005	-14.15
178.225	-3.87
178.445	4.78
178.665	-91.06
178.885	-503.66
179.105	-32.6
179.324	-209.18
179.544	-223.66
179.764	-129.39
179.984	-64.24
180.204	-32.35
180.423	-41.32
180.643	-119.39
180.863	-73.07
181.083	-116.23
181.302	-155.46
181.522	-279.45
181.742	-255.09
181.961	-273.68
182.181	99.53
182.401	92.86
182.621	123.24
182.84	92.33
183.06	54.84
183.279	70.68
183.499	50.72
183.719	29.89
183.938	-22.95
184.158	-104.86
184.377	-599.44
184.597	4423.17
184.816	638.34
185.036	292.92
185.256	215.72
185.475	323.47
185.695	584.92
185.914	175.35
186.134	2298.21
186.353	-179.8
186.572	1.43
186.792	-15.78
187.011	149.83
187.231	7.18
187.45	46.12
187.67	46.27
187.889	79.12
188.108	52.2
188.328	-137.19
188.547	522.64
188.766	318.79
188.986	-1369.55
189.205	-111.12
189.424	-146.5
189.644	74.3
189.863	261.7
190.082	106.02
190.302	98.92
190.521	41.52
190.74	9.53
190.959	11.61
191.178	42.51
191.398	26.64
191.617	7.16
191.836	-9.05
192.055	-47.38
192.274	-46.53
192.494	30.98
192.713	63.66
192.932	115.32
193.151	170.24
193.37	-22.01
193.589	35.6
193.808	24.36
194.027	18.06
194.246	22.18
194.465	4.2
194.685	0.32
194.904	30.25
195.123	32.15
195.342	62.33
195.561	39.97
195.78	-31.1
195.999	74.77
196.218	56.72
196.436	118.33
196.655	137.48
196.874	83.69
197.093	277.67
197.312	215.08
197.531	-373.58
197.75	370.57
197.969	2600
198.188	-16.25
198.407	-18.62
198.625	-34.23
198.844	30.41
199.063	22.81
199.282	-92.4
199.501	1537.63
199.719	253.97
199.938	113.32
200.157	-145.15
200.376	91.01
200.594	135.14
200.813	58.17
201.032	-11.63
201.251	10.25
201.469	-52.42
201.688	-55.63
201.907	-99.9
202.125	-984.29
202.344	1303.61
202.563	1805.99
202.781	-2651.62
203	1313.43
203.218	632.27
203.437	524.65
203.656	2898.36
203.874	-648.66
204.093	861.67
204.311	-19270.59
204.53	-727.38
204.748	21.28
204.967	35.9
205.185	70.83
205.404	56.08
205.622	50.49
205.841	43.3
206.059	77.06
206.278	103.92
206.496	100.94
206.715	130.14
206.933	59.19
207.151	42.5
207.37	32.39
207.588	46.47
207.806	30.7
208.025	50.13
208.243	-769.39
208.461	-260.98
208.68	133.58
208.898	116.75
209.116	250.27
209.335	199.51
209.553	-692.76
209.771	216.26
209.989	124.75
210.208	97.96
210.426	434.05
210.644	436.65
210.862	-297.58
211.081	-1827.88
211.299	14386.67
211.517	259.25
211.735	1439.15
211.953	-669.2
212.171	-235.13
212.39	3744.78
212.608	4394.21
212.826	-636.89
213.044	-22.87
213.262	201
213.48	22.29
213.698	57.5
213.916	-16.53
214.134	108.33
214.352	96.83
214.57	120.13
214.788	80.36
215.006	66.82
215.224	85.31
215.442	105.29
215.66	206.47
215.878	66.91
216.096	-113.32
216.314	610.2
216.532	1173.05
216.75	226.69
216.968	205.4
217.185	137.73
217.403	142.78
217.621	173.99
217.839	137.41
218.057	210.29
218.275	235.43
218.492	24.44
218.71	54.46
218.928	30.33
219.146	25.81
219.363	-33.74
219.581	-54.81
219.799	-71.35
220.017	-22.87
220.234	39.04
220.452	44.62
220.67	95.44
220.887	57.42
221.105	58.78
221.323	92.3
221.54	71.34
221.758	61.86
221.976	111.32
222.193	102.39
222.411	64.95
222.629	54.18
222.846	60
223.064	29.13
223.281	47.66
223.499	3.36
223.716	3.69
223.934	8.81
224.151	4.99
224.369	-4.4
224.586	8.05
224.804	10.99
225.021	34.25
225.239	26.32
225.456	28.67
225.674	37.37
225.891	65.28
226.108	53.15
226.326	53.79
226.543	70.62
226.76	57.33
226.978	56.03
227.195	56.83
227.413	44.44
227.63	40.52
227.847	31.01
228.064	23.12
228.282	21.19
228.499	21.58
228.716	17.64
228.934	15.17
229.151	13.35
229.368	11.73
229.585	9.7
229.802	7.55
230.02	5.09
230.237	6.98
230.454	6.27
230.671	6.45
230.888	5.16
231.105	9.46
231.323	11.03
231.54	12.12
231.757	16.25
231.974	20.71
232.191	21.69
232.408	28.48
232.625	23.65
232.842	29.75
233.059	23.66
233.276	24.87
233.493	18.59
233.71	14.46
233.927	18.32
234.144	16.39
234.361	12.6
234.578	20.54
234.795	32.64
235.012	36.96
235.229	31.82
235.446	38.38
235.663	40.48
235.879	44.96
236.096	48.32
236.313	40.58
236.53	45.62
236.747	40.86
236.964	31.91
237.181	6.79
237.397	4.48
237.614	3.81
237.831	-3.7
238.048	-5.02
238.264	1.77
238.481	3.73
238.698	7.3
238.915	9.66
239.131	8.27
239.348	8
239.565	15.51
239.781	13.95
239.998	15.84
240.215	18.23
240.431	16.49
240.648	12.46
240.865	10.49
241.081	14.1
241.298	12.37
241.514	13.3
241.731	13.9
241.947	12.54
242.164	15.64
242.38	16.32
242.597	16
242.814	15.03
243.03	15.54
243.246	13.99
243.463	11.76
243.679	11.79
243.896	12.34
244.112	13.3
244.329	14.36
244.545	13.66
244.762	11.56
244.978	11.86
245.194	12.5
245.411	10.18
245.627	12.68
245.843	14.22
246.06	14.32
246.276	15.09
246.492	15.21
246.709	15
246.925	14.57
247.141	16.15
247.357	16.01
247.574	16.65
247.79	17.23
248.006	17.57
248.222	17.3
248.439	17.52
248.655	16.51
248.871	16.39
249.087	16.56
249.303	15.55
249.519	14.5
249.736	14.72
249.952	14.57
250.168	16.33
250.384	16.87
250.6	17.66
250.816	16.72
251.032	16.72
251.248	16.99
251.464	17.17
251.68	18.18
251.896	17.27
252.112	16.6
252.328	13.71
252.544	12.99
252.76	12.09
252.976	10.99
253.192	11.46
253.408	11.79
253.624	12.08
253.84	10.3
254.056	9.05
254.272	11.08
254.487	8.86
254.703	12.24
254.919	10.37
255.135	10.55
255.351	10.4
255.567	8.75
255.782	8.96
255.998	5.29
256.214	7.03
256.43	10.51
256.646	8.84
256.861	12.07
257.077	12.42
257.293	12.95
257.508	10.48
257.724	12.16
257.94	11.44
258.155	8.99
258.371	9.91
258.587	9.8
258.802	7.52
259.018	6.36
259.234	6.21
259.449	7.23
259.665	6.12
259.88	7.14
260.096	7.23
260.312	7.42
260.527	7.94
260.743	8.28
260.958	8.46
261.174	9.23
261.389	9.84
261.605	8.96
261.82	7.45
262.036	7.55
262.251	8.12
262.466	8.35
262.682	7.04
262.897	6.8
263.113	6.85
263.328	4.96
263.543	3.44
263.759	3.5
263.974	4.07
264.189	3.86
264.405	2.54
264.62	2.09
264.835	-0.86
265.051	-0.68
265.266	1.9
265.481	1.99
265.696	3.8
265.912	4.53
266.127	4.71
266.342	6.36
266.557	7.47
266.773	9.68
266.988	7.35
267.203	8.99
267.418	9.9
267.633	9.35
267.848	8.73
268.064	8.8
268.279	9.26
268.494	8.11
268.709	7.1
268.924	6.18
269.139	7.8
269.354	9.47
269.569	7.94
269.784	8.31
269.999	7.69
270.214	7.49
270.429	8.21
270.644	8.05
270.859	7.99
271.074	8.56
271.289	9.26
271.504	7.16
271.719	5.12
271.934	5.49
272.149	3.62
272.363	2.52
272.578	4.81
272.793	2.85
273.008	2.88
273.223	3.61
273.438	3.75
273.653	4.14
273.867	3.71
274.082	4.81
274.297	5.52
274.512	6.79
274.726	7.2
274.941	5.28
275.156	7.69
275.371	7.53
275.585	6.94
275.8	6.26
276.015	6.06
276.229	8
276.444	9.97
276.659	10.67
276.873	12.07
277.088	13.97
277.302	13.82
277.517	12.36
277.732	12.46
277.946	14.21
278.161	11.96
278.375	10.76
278.59	10.4
278.804	7.86
279.019	6.35
279.233	4.47
279.448	2.39
279.662	2.14
279.877	2.91
280.091	3.73
280.306	3.47
280.52	7.8
280.735	8.02
280.949	8.09
281.163	10.32
281.378	10.42
281.592	10.56
281.806	11.98
282.021	11.85
282.235	11.47
282.449	12.4
282.664	12.59
282.878	11.47
283.092	14.09
283.307	14.5
283.521	13.17
283.735	13.45
283.949	13.04
284.164	12.79
284.378	13.66
284.592	15.32
284.806	12.82
285.02	11.72
285.234	10.72
285.449	7.97
285.663	6.98
285.877	6.52
286.091	6.76
286.305	8.45
286.519	8.69
286.733	8.08
286.947	5.4
287.161	6.06
287.375	5.97
287.589	6.37
287.803	5.78
288.017	4.51
288.231	5.97
288.445	5.93
288.659	3.9
288.873	2.47
289.087	1.57
289.301	2.7
289.515	3.32
289.729	3.52
289.943	3.74
290.157	6
290.371	7.88
290.584	7.52
290.798	7.25
291.012	6.26
291.226	7.51
291.44	8.35
291.654	8.9
291.867	8.71
292.081	9.14
292.295	8.97
292.509	9.28
292.722	8.4
292.936	7.75
293.15	7.03
293.364	9.23
293.577	6.83
293.791	7.5
294.005	6.92
294.218	7.96
294.432	8.14
294.645	8.57
294.859	7.8
295.073	9.64
295.286	9.61
295.5	9.64
295.713	9.12
295.927	10.07
296.14	9.29
296.354	9.58
296.568	9.2
296.781	9.57
296.994	9.04
297.208	8.87
297.421	7.94
297.635	7.99
297.848	8.26
298.062	8.15
298.275	8.51
298.489	8.66
298.702	8.58
298.915	7.33
299.129	6.34
299.342	6.39
299.555	6.4
299.769	5.81
299.982	6.35
300.195	5.8
300.409	6.31
300.622	5.81
300.835	5.59
301.048	5.79
301.262	6.87
301.475	8.14
301.688	7.62
301.901	7.34
302.115	9.86
302.328	9.7
302.541	9.95
302.754	10.02
302.967	10.72
303.18	10.49
303.393	10.15
303.607	9.65
303.82	8.96
304.033	9.12
304.246	8.13
304.459	6.09
304.672	6.02
304.885	6.81
305.098	7.03
305.311	5.38
305.524	5.96
305.737	5.53
305.95	5.52
306.163	5.73
306.376	5.91
306.589	7.55
306.802	6.46
307.015	5.41
307.228	5.6
307.44	4.9
307.653	6.14
307.866	6.5
308.079	7.85
308.292	7.49
308.505	7.31
308.718	7.73
308.93	7.9
309.143	9.52
309.356	10.25
309.569	9.06
309.781	8.94
309.994	8.87
310.207	8.32
310.42	9.18
310.632	9.86
310.845	9.82
311.058	10.45
311.27	10.3
311.483	10.23
311.696	9.34
311.908	9.65
312.121	9.16
312.333	9.09
312.546	9.29
312.759	8.46
312.971	8.44
313.184	8.17
313.396	6.7
313.609	5.14
313.821	3.94
314.034	6.26
314.246	6.84
314.459	8.61
314.671	8.95
314.884	8.77
315.096	8.73
315.309	7.72
315.521	6.73
315.733	7.52
315.946	9.52
316.158	9.53
316.371	7.89
316.583	7.81
316.795	5.11
317.008	5.1
317.22	6.91
317.432	6.82
317.644	6.77
317.857	8.24
318.069	7.61
318.281	7.49
318.494	6.89
318.706	6.8
318.918	5.11
319.13	7.56
319.342	6.62
319.555	3.64
319.767	3.65
319.979	4.94
320.191	4.66
320.403	4.1
320.615	3.77
320.827	5.96
321.039	6.62
321.252	7.67
321.464	6.29
321.676	7.98
321.888	9.29
322.1	7.41
322.312	8.82
322.524	10.4
322.736	10.94
322.948	11.08
323.16	10.21
323.372	10.28
323.584	11
323.796	13.53
324.007	13.08
324.219	13.05
324.431	14.13
324.643	14.01
324.855	13.88
325.067	14.25
325.279	14.45
325.491	14.46
325.702	13.72
325.914	13.49
326.126	12.09
326.338	13.42
326.55	13.57
326.761	13.44
326.973	13.11
327.185	10.66
327.396	11.75
327.608	10.82
327.82	11.79
328.032	11.89
328.243	11.49
328.455	10.77
328.666	9.48
328.878	8.02
329.09	8.55
329.301	7.85
329.513	10.66
329.725	9.11
329.936	10.06
330.148	8.18
330.359	10.11
330.571	12.35
330.782	12.7
330.994	13.28
331.205	15.21
331.417	13.5
331.628	12.98
331.84	10.55
332.051	11.5
332.262	11.33
332.474	11.88
332.685	11.07
332.897	9.67
333.108	10.57
333.319	10.5
333.531	10.32
333.742	11.19
333.953	12.27
334.165	12.92
334.376	13.14
334.587	12.93
334.799	12.79
335.01	13.35
335.221	13.22
335.432	13.59
335.644	12.31
335.855	12.2
336.066	13.03
336.277	12.74
336.488	12.21
336.7	11.25
336.911	11.62
337.122	12.42
337.333	11.24
337.544	11.66
337.755	11.86
337.966	11.02
338.177	10.5
338.388	9.86
338.599	9.91
338.811	11.45
339.022	10.91
339.233	10.25
339.444	9
339.655	9.16
339.866	9.43
340.076	8.44
340.287	10.09
340.498	10.89
340.709	9.74
340.92	9.99
341.131	8.02
341.342	8.88
341.553	8.64
341.764	8.57
341.975	9.02
342.185	7.74
342.396	7.85
342.607	8.69
342.818	7.85
343.029	8.85
343.239	8.8
343.45	9.85
343.661	9.52
343.872	10.51
344.082	11.73
344.293	12.65
344.504	13
344.714	13.15
344.925	12.94
345.136	13.47
345.346	13.82
345.557	13.63
345.768	12.88
345.978	12.71
346.189	12.22
346.399	12.09
346.61	11.27
346.821	11.53
347.031	11.57
347.242	10.08
347.452	10.56
347.663	9.19
347.873	9.52
348.084	11.74
348.294	11.06
348.504	10.76
348.715	12.02
348.925	11.89
349.136	12.07
349.346	10.87
349.557	11.42
349.767	10.46
349.977	11.59
350.188	11.41
350.398	10.11
350.608	11.86
350.819	12.73
351.029	12.66
351.239	12.8
351.449	13.66
351.66	14.38
351.87	14.19
352.08	14.12
352.29	13.44
352.501	13.46
352.711	13.81
352.921	13.73
353.131	13.34
353.341	12.58
353.552	12.31
353.762	11.39
353.972	11.62
354.182	11.86
354.392	13.43
354.602	14.41
354.812	13.29
355.022	12.75
355.232	12.64
355.442	11.93
355.652	10.75
355.862	12.05
356.072	10.9
356.282	11.12
356.492	11.15
356.702	9.86
356.912	9.82
357.122	10.32
357.332	10.89
357.542	10.58
357.752	10.48
357.962	11.87
358.171	10.91
358.381	12.37
358.591	11.83
358.801	11.39
359.011	11.86
359.221	12.2
359.43	12.18
359.64	11.53
359.85	11.83
360.06	12.78
360.269	11.94
360.479	11.92
360.689	11.21
360.899	11.33
361.108	12.44
361.318	12.19
361.528	11.64
361.737	11.95
361.947	12.52
362.156	12.09
362.366	11.71
362.576	11.4
362.785	11.34
362.995	11.63
363.204	12.67
363.414	12.38
363.623	12.7
363.833	12.84
364.042	13.24
364.252	13.4
364.461	12.94
364.671	13.16
364.88	14.31
365.09	14.19
365.299	14.75
365.509	13.83
365.718	13.61
365.927	13.7
366.137	13.61
366.346	12.83
366.555	11.62
366.765	11.94
366.974	11.06
367.183	10.59
367.393	9.75
367.602	8.6
367.811	8.44
368.021	7.03
368.23	6.73
368.439	6.35
368.648	6.42
368.857	7.76
369.067	7.54
369.276	7.58
369.485	7.3
369.694	7.86
369.903	7.34
370.112	6.92
370.321	7.33
370.531	6.78
370.74	6.89
370.949	6.8
371.158	6.25
371.367	7.14
371.576	7.93
371.785	7.9
371.994	8.18
372.203	9.13
372.412	9.71
372.621	10.37
372.83	10.88
373.039	11.25
373.248	11.17
373.457	11.85
373.666	11.17
373.874	10.89
374.083	11.19
374.292	10.86
374.501	9.89
374.71	8.91
374.919	8.2
375.128	8.01
375.336	7.48
375.545	7.82
375.754	7.02
375.963	7.31
376.171	7.1
376.38	6.27
376.589	5.78
376.798	6.3
377.006	6.32
377.215	6.93
377.424	7.11
377.632	7.14
377.841	7.16
378.05	7.13
378.258	6.91
378.467	7.48
378.675	7.95
378.884	8.82
379.093	8.8
379.301	9.26
379.51	8.73
379.718	8.47
379.927	8.25
380.135	7.62
380.344	7.93
380.552	8.02
380.761	7.62
380.969	7.66
381.177	7.47
381.386	7.32
381.594	7.19
381.803	7.72
382.011	7.19
382.219	7.75
382.428	7.74
382.636	7.7
382.845	7.76
383.053	7.65
383.261	7.51
383.469	7.44
383.678	7.59
383.886	7.72
384.094	8.13
384.302	9.2
384.511	9.05
384.719	8.77
384.927	9.02
385.135	8.72
385.343	8.6
385.552	8.84
385.76	8.59
385.968	8.54
386.176	8.25
386.384	7.97
386.592	7.8
386.8	7.45
387.008	7.96
387.216	7.18
387.424	7.14
387.633	6.86
387.841	6.89
388.049	7.15
388.257	7.01
388.465	7.2
388.672	6.99
388.88	6.54
389.088	6.65
389.296	6.84
389.504	7.32
389.712	7.77
389.92	7.98
390.128	7.6
390.336	7.5
390.544	7.51
390.751	7.6
390.959	7.03
391.167	7.16
391.375	7.11
391.583	7.03
391.79	6.84
391.998	7.02
392.206	6.94
392.414	6.98
392.621	6.89
392.829	6.79
393.037	6.94
393.244	7.25
393.452	7.3
393.66	7.57
393.867	7.57
394.075	7.78
394.283	7.19
394.49	7.24
394.698	7.04
394.905	7.37
395.113	7.34
395.32	6.97
395.528	7.15
395.735	6.61
395.943	6.71
396.15	6.31
396.358	6.02
396.565	5.98
396.773	6.22
396.98	6.35
397.188	6.04
397.395	6.13
397.602	6.07
397.81	5.84
398.017	5.98
398.225	5.58
398.432	5.96
398.639	5.93
398.847	5.89
399.054	6.14
399.261	6.04
399.468	6.19
399.676	6.27
399.883	6.44
400.09	6.73
400.297	6.91
400.505	7.1
400.712	7.01
400.919	7.17
401.126	7.63
401.333	7.11
401.54	7.13
401.748	7.08
401.955	7.32
402.162	7.16
402.369	7
402.576	6.91
402.783	6.64
402.99	7.08
403.197	6.96
403.404	6.63
403.611	6.48
403.818	6.53
404.025	6.26
404.232	5.75
404.439	6.03
404.646	5.93
404.853	6.14
405.06	6.16
405.267	5.7
405.474	5.71
405.681	5.76
405.887	6.12
406.094	5.85
406.301	5.78
406.508	6.33
406.715	6.24
406.922	6.44
407.128	6.34
407.335	6.18
407.542	5.83
407.749	5.71
407.955	6.14
408.162	5.79
408.369	6.12
408.575	6.11
408.782	5.75
408.989	5.7
409.195	5.49
409.402	5.57
409.609	5.79
409.815	6.25
410.022	6.31
410.228	5.62
410.435	5.62
410.642	5.38
410.848	5.7
411.055	5.81
411.261	5.78
411.468	5.5
411.674	5.77
411.881	5.93
412.087	5.91
412.294	5.81
412.5	6.22
412.706	6.07
412.913	6.36
413.119	6.48
413.326	6.67
413.532	6.92
413.738	7.2
413.945	6.59
414.151	6.43
414.357	6.35
414.564	6.35
414.77	6.35
414.976	6.93
415.182	6.55
415.389	6.56
415.595	6.3
415.801	6.4
416.007	6.31
416.214	6.55
416.42	6.53
416.626	6.7
416.832	6.71
417.038	6.53
417.244	6.25
417.45	6.51
417.657	6.31
417.863	6.11
418.069	5.87
418.275	5.8
418.481	5.67
418.687	5.5
418.893	5.52
419.099	5.47
419.305	5.59
419.511	5.55
419.717	5.48
419.923	5.4
420.129	5.57
420.335	5.55
420.541	5.64
420.746	5.73
420.952	5.76
421.158	5.77
421.364	5.84
421.57	5.75
421.776	5.74
421.982	5.65
422.187	5.72
422.393	5.77
422.599	5.63
422.805	5.65
423.01	5.52
423.216	5.59
423.422	5.4
423.628	5.5
423.833	5.53
424.039	5.55
424.245	5.52
424.45	5.44
424.656	5.33
424.862	5.44
425.067	5.51
425.273	5.52
425.478	5.56
425.684	5.51
425.889	5.37
426.095	5.37
426.301	5.53
426.506	5.7
426.712	5.87
426.917	5.91
427.123	5.9
427.328	5.73
427.533	5.69
427.739	5.61
427.944	5.67
428.15	5.69
428.355	5.36
428.561	5.09
428.766	4.96
428.971	5.07
429.177	5.12
429.382	5.05
429.587	5.02
429.793	5.24
429.998	5.05
430.203	5.21
430.408	5.05
430.614	5.35
430.819	5.37
431.024	5.32
431.229	5.01
431.434	4.84
431.64	4.93
431.845	5.06
432.05	4.92
432.255	5.13
432.46	5.03
432.665	5.11
432.87	5.09
433.076	5.04
433.281	5.13
433.486	5.3
433.691	5.32
433.896	5.19
434.101	5.42
434.306	5.53
434.511	5.49
434.716	5.51
434.921	5.64
435.126	5.83
435.331	5.91
435.535	5.95
435.74	5.89
435.945	5.84
436.15	5.85
436.355	5.57
436.56	5.43
436.765	5.51
436.97	5.31
437.174	5.18
437.379	5.04
437.584	5.19
437.789	4.89
437.993	4.74
438.198	4.66
438.403	4.74
438.608	4.59
438.812	4.57
439.017	4.56
439.222	4.72
439.426	4.83
439.631	4.8
439.836	4.71
440.04	5.11
440.245	4.93
440.45	4.89
440.654	4.94
440.859	5.01
441.063	5.09
441.268	5.1
441.472	5.14
441.677	5.15
441.881	5.3
442.086	5.1
442.29	4.9
442.495	5.1
442.699	5.38
442.904	5.33
443.108	5.36
443.312	5.42
443.517	5.26
443.721	5.27
443.925	5.37
444.13	5.02
444.334	5.18
444.538	5.13
444.743	5.08
444.947	4.85
445.151	4.86
445.356	4.99
445.56	4.96
445.764	5.02
445.968	5
446.173	4.86
446.377	4.96
446.581	5.04
446.785	5.09
446.989	5.1
447.193	5.16
447.398	5.17
447.602	4.98
447.806	5.12
448.01	5.14
448.214	5.11
448.418	5.11
448.622	5.19
448.826	5.19
449.03	5.18
449.234	5.27
449.438	5.25
449.642	5.2
449.846	5.28
450.05	5.15
450.254	5.02
450.458	4.96
450.662	4.84
450.866	4.83
451.069	4.81
451.273	4.89
451.477	4.89
451.681	4.91
451.885	4.89
452.089	4.96
452.292	4.85
452.496	4.82
452.7	4.93
452.904	5.21
453.107	5.15
453.311	4.99
453.515	5
453.719	5.01
453.922	5.16
454.126	5.24
454.33	5.23
454.533	5.21
454.737	5.2
454.94	5.3
455.144	5.11
455.348	5.05
455.551	5.18
455.755	4.85
455.958	4.9
456.162	4.89
456.365	4.91
456.569	4.99
456.772	5.26
456.976	5.38
457.179	5.18
457.383	5.16
457.586	5.13
457.79	4.94
457.993	5.04
458.196	4.95
458.4	4.97
458.603	5.14
458.807	5.04
459.01	4.78
459.213	4.79
459.417	4.77
459.62	4.72
459.823	4.71
460.026	4.78
460.23	4.9
460.433	4.9
460.636	4.85
460.839	4.69
461.042	4.73
461.246	4.87
461.449	4.8
461.652	4.97
461.855	5.12
462.058	5.19
462.261	5.23
462.464	5.04
462.668	5.1
462.871	5.06
463.074	4.84
463.277	4.84
463.48	4.69
463.683	4.83
463.886	4.62
464.089	4.55
464.292	4.56
464.495	4.55
464.698	4.65
464.901	4.68
465.104	5.04
465.306	5.24
465.509	4.84
465.712	5.04
465.915	4.98
466.118	4.96
466.321	4.91
