Data from 2937842_Reflection_2.txt Node
Date: Wed Jul 15 16:14:09 EDT 2015
User: robert
Spectrometer: USB4E03001
Autoset integration time: false
Trigger mode: 4
Integration Time (sec): 1.000000E-1
Scans to average: 10
Electric dark correction enabled: true
Nonlinearity correction enabled: false
Boxcar width: 5
Stray light correction enabled: false
XAxis mode: Wavelengths
Stop averaging: false
Number of Pixels in Spectrum: 3648
>>>>>Begin Spectral Data<<<<<
177.566	89.71
177.785	246.38
178.005	-116.64
178.225	-653.42
178.445	-209.01
178.665	46.58
178.885	360.53
179.105	163.01
179.324	163
179.544	5351.56
179.764	-288.67
179.984	14.22
180.204	50.5
180.423	42.11
180.643	-10.55
180.863	22.26
181.083	102.29
181.302	169.32
181.522	151.19
181.742	132.02
181.961	114.19
182.181	700
182.401	105.01
182.621	87.19
182.84	700
183.06	168.69
183.279	34.76
183.499	58.78
183.719	16.32
183.938	24.29
184.158	14.46
184.377	35.51
184.597	44.87
184.816	23.76
185.036	19.91
185.256	31.95
185.475	19
185.695	36.01
185.914	-8.12
186.134	-38.35
186.353	-583.54
186.572	-88.05
186.792	-25.53
187.011	-1.8
187.231	-94.44
187.45	-1.21
187.67	-32.97
187.889	27.52
188.108	31.34
188.328	30.07
188.547	40.63
188.766	-12.43
188.986	20.28
189.205	179.57
189.424	130.45
189.644	99.09
189.863	172.35
190.082	109.83
190.302	119.41
190.521	138.73
190.74	49.79
190.959	140.46
191.178	245.8
191.398	97.39
191.617	-501.52
191.836	406.45
192.055	-16.64
192.274	-164.25
192.494	-208.46
192.713	-1110.71
192.932	235.66
193.151	194.75
193.37	282.25
193.589	148.93
193.808	551.1
194.027	80.13
194.246	85.3
194.465	19.12
194.685	2227.5
194.904	169.6
195.123	-465.67
195.342	2335.89
195.561	218.93
195.78	364.53
195.999	493.05
196.218	-20168.42
196.436	278.53
196.655	190.6
196.874	501.56
197.093	12544.44
197.312	-389.68
197.531	87.49
197.75	49.47
197.969	20.74
198.188	16.81
198.407	22.93
198.625	23.86
198.844	6.92
199.063	7.09
199.282	20.4
199.501	30.12
199.719	33.91
199.938	51.74
200.157	63.96
200.376	123.7
200.594	151.7
200.813	-253.47
201.032	-54.77
201.251	-177.44
201.469	-653.78
201.688	-484.6
201.907	-214.09
202.125	1682.56
202.344	-211.64
202.563	-549.43
202.781	-24780
203	-136.37
203.218	-274.45
203.437	-266.74
203.656	-115.84
203.874	-18.75
204.093	-28.97
204.311	19.95
204.53	13.37
204.748	-133.57
204.967	-675.48
205.185	80.24
205.404	181.32
205.622	165.26
205.841	194.37
206.059	163.76
206.278	148.09
206.496	198.12
206.715	158.93
206.933	210.67
207.151	186.47
207.37	189.57
207.588	206.49
207.806	189.2
208.025	170.65
208.243	138.74
208.461	78.74
208.68	100.32
208.898	102.06
209.116	96.03
209.335	66.57
209.553	69.76
209.771	80.96
209.989	61.16
210.208	36.11
210.426	28.04
210.644	11.99
210.862	100.2
211.081	21.92
211.299	-25.67
211.517	30.18
211.735	24
211.953	-691.76
212.171	97.66
212.39	-104.44
212.608	2837.29
212.826	755.32
213.044	128.39
213.262	46.8
213.48	-0.36
213.698	726.8
213.916	-55.62
214.134	11.37
214.352	-2.04
214.57	-66.76
214.788	247.7
215.006	166.36
215.224	-118.2
215.442	105.21
215.66	68.67
215.878	-22.94
216.096	-75.37
216.314	37.1
216.532	12.88
216.75	33.17
216.968	-49.55
217.185	65.2
217.403	41.27
217.621	264.85
217.839	90.15
218.057	113.21
218.275	83.64
218.492	566.01
218.71	593.79
218.928	310.51
219.146	207.47
219.363	147.76
219.581	141.1
219.799	107.86
220.017	122.57
220.234	128.2
220.452	125.33
220.67	85.1
220.887	75.38
221.105	69.86
221.323	60.08
221.54	36.22
221.758	11.47
221.976	7.41
222.193	-8.09
222.411	25.97
222.629	18.77
222.846	34.01
223.064	69.37
223.281	68.12
223.499	33.31
223.716	29.58
223.934	35.79
224.151	23.11
224.369	11.19
224.586	13.41
224.804	-21.47
225.021	-36.72
225.239	-29.6
225.456	-51.6
225.674	-13.87
225.891	0.3
226.108	20.41
226.326	39.76
226.543	53.4
226.76	44.87
226.978	39.06
227.195	36.11
227.413	35.66
227.63	34.41
227.847	38.09
228.064	28.88
228.282	26.35
228.499	26.83
228.716	19.51
228.934	15.69
229.151	18.59
229.368	16.36
229.585	19.54
229.802	20.49
230.02	18.66
230.237	16.31
230.454	15.77
230.671	19.7
230.888	15.06
231.105	19.45
231.323	22.25
231.54	21.7
231.757	25.27
231.974	24.15
232.191	26.27
232.408	24.53
232.625	22.3
232.842	24.89
233.059	12.47
233.276	16.95
233.493	14.47
233.71	22.01
233.927	25.56
234.144	21.73
234.361	17.76
234.578	14.54
234.795	20.09
235.012	21.39
235.229	26
235.446	30.64
235.663	24.8
235.879	25.09
236.096	21.96
236.313	21.22
236.53	29.21
236.747	26.25
236.964	29.2
237.181	24.1
237.397	32.26
237.614	23.68
237.831	27.69
238.048	31.04
238.264	24.34
238.481	24.74
238.698	20.91
238.915	20.15
239.131	25.29
239.348	27.43
239.565	29.34
239.781	24.06
239.998	28.95
240.215	25.7
240.431	26.96
240.648	27.11
240.865	26.74
241.081	28.93
241.298	25.76
241.514	24.69
241.731	23.13
241.947	21.53
242.164	20.21
242.38	16.05
242.597	18.55
242.814	18.51
243.03	20.35
243.246	20.54
243.463	19.2
243.679	18.31
243.896	17.78
244.112	17.86
244.329	19.4
244.545	21.71
244.762	24.62
244.978	19.81
245.194	17.16
245.411	16.36
245.627	16.79
245.843	18.31
246.06	19.91
246.276	20.97
246.492	21.34
246.709	21.01
246.925	20.35
247.141	20.93
247.357	22.72
247.574	22.64
247.79	22.21
248.006	21.66
248.222	22.25
248.439	22.31
248.655	22.23
248.871	20.82
249.087	20.93
249.303	20.88
249.519	19.41
249.736	18.95
249.952	19.35
250.168	18.99
250.384	18.1
250.6	17.18
250.816	17.13
251.032	16.77
251.248	17.13
251.464	19.09
251.68	18.6
251.896	19.27
252.112	15.17
252.328	17.61
252.544	18.22
252.76	18.45
252.976	17.06
253.192	17.07
253.408	16.02
253.624	15.93
253.84	14.34
254.056	16.53
254.272	15.96
254.487	19.67
254.703	20.69
254.919	22.02
255.135	22.33
255.351	22.59
255.567	24.29
255.782	31.26
255.998	29.76
256.214	28.18
256.43	26.4
256.646	25.62
256.861	25.76
257.077	21.09
257.293	20.65
257.508	21.31
257.724	22.53
257.94	20.77
258.155	17.87
258.371	19.64
258.587	19.89
258.802	19.97
259.018	19.93
259.234	18.76
259.449	19.5
259.665	19.11
259.88	17.72
260.096	16.59
260.312	16.62
260.527	16.28
260.743	16.72
260.958	16.1
261.174	16.06
261.389	15.91
261.605	15.66
261.82	15.16
262.036	15.81
262.251	16.64
262.466	17.25
262.682	16.06
262.897	17.34
263.113	13.87
263.328	14.84
263.543	12.97
263.759	14.83
263.974	16.42
264.189	17.2
264.405	17.09
264.62	18.17
264.835	17.95
265.051	18.46
265.266	16.6
265.481	18.65
265.696	17.09
265.912	17.45
266.127	14.85
266.342	14.9
266.557	13.17
266.773	10.64
266.988	9.62
267.203	10.18
267.418	10.03
267.633	8.45
267.848	10.83
268.064	12.93
268.279	13.52
268.494	16.03
268.709	14.44
268.924	13.7
269.139	15.58
269.354	16.73
269.569	15.75
269.784	18.36
269.999	18.88
270.214	17.17
270.429	16.41
270.644	16.67
270.859	15.56
271.074	16.89
271.289	18.62
271.504	17.86
271.719	19.53
271.934	19.9
272.149	18.2
272.363	18.16
272.578	17.88
272.793	17.33
273.008	18.24
273.223	17.74
273.438	16.62
273.653	16.37
273.867	16.87
274.082	15.04
274.297	14.98
274.512	14.8
274.726	15.71
274.941	15.16
275.156	14.26
275.371	13.45
275.585	12.6
275.8	14.44
276.015	13.02
276.229	14.08
276.444	12.21
276.659	11.61
276.873	11.51
277.088	9.82
277.302	9.41
277.517	11.06
277.732	8.77
277.946	8.4
278.161	7.88
278.375	10.02
278.59	9.52
278.804	8.62
279.019	8.81
279.233	8.88
279.448	10.97
279.662	12.45
279.877	11.93
280.091	12.49
280.306	13.34
280.52	12.19
280.735	10.18
280.949	8.17
281.163	9.85
281.378	9.33
281.592	10.36
281.806	11.19
282.021	9.92
282.235	10.7
282.449	9.93
282.664	9.9
282.878	9.5
283.092	10.38
283.307	11.42
283.521	12.19
283.735	12.93
283.949	13.78
284.164	12.82
284.378	12.91
284.592	12.32
284.806	12.55
285.02	13.73
285.234	14.16
285.449	14.5
285.663	14.92
285.877	14.6
286.091	13.57
286.305	12.89
286.519	12.76
286.733	13.6
286.947	12.79
287.161	13.12
287.375	11.08
287.589	11.8
287.803	11.3
288.017	9.91
288.231	9.36
288.445	10.46
288.659	9.67
288.873	9.74
289.087	10.38
289.301	11.11
289.515	13.32
289.729	13.06
289.943	12.7
290.157	12.25
290.371	13.61
290.584	15.57
290.798	15.69
291.012	15.12
291.226	15.56
291.44	14.45
291.654	14.82
291.867	12.88
292.081	14.47
292.295	17.33
292.509	18.96
292.722	20.04
292.936	19.73
293.15	21.13
293.364	23.24
293.577	22.94
293.791	22.83
294.005	22.33
294.218	22.17
294.432	22.07
294.645	19.76
294.859	19.8
295.073	17.42
295.286	17.06
295.5	16.39
295.713	16.08
295.927	16.37
296.14	17.1
296.354	18.03
296.568	18.16
296.781	18.78
296.994	18.3
297.208	17.38
297.421	17.71
297.635	16.37
297.848	15.24
298.062	15.05
298.275	15.65
298.489	15.74
298.702	15.36
298.915	15.93
299.129	17.18
299.342	18.14
299.555	18.73
299.769	19.18
299.982	20.24
300.195	22.33
300.409	22.05
300.622	20.58
300.835	19.94
301.048	20.17
301.262	19.41
301.475	17.74
301.688	17.54
301.901	17.91
302.115	18.75
302.328	19.94
302.541	18.96
302.754	19.45
302.967	21.03
303.18	20.46
303.393	19.07
303.607	19.97
303.82	19.76
304.033	19.11
304.246	19.31
304.459	19.03
304.672	18.26
304.885	18.58
305.098	18.89
305.311	18.9
305.524	19.81
305.737	22
305.95	20.81
306.163	20.57
306.376	21.45
306.589	23.02
306.802	23.63
307.015	24.57
307.228	23.6
307.44	22.86
307.653	22.94
307.866	23.1
308.079	22.36
308.292	24.6
308.505	24.21
308.718	22.48
308.93	20.4
309.143	20.11
309.356	19.69
309.569	19.81
309.781	19.4
309.994	19.3
310.207	19.26
310.42	18.28
310.632	18.47
310.845	18.99
311.058	19.97
311.27	20.99
311.483	19.99
311.696	20.27
311.908	21.44
312.121	22.78
312.333	22.41
312.546	22.59
312.759	24.22
312.971	24.17
313.184	24.72
313.396	25.25
313.609	23.35
313.821	23.57
314.034	23.81
314.246	24.63
314.459	24.61
314.671	24.37
314.884	24.22
315.096	24.69
315.309	24.06
315.521	21.52
315.733	20.22
315.946	21.8
316.158	22.71
316.371	23.3
316.583	21.39
316.795	21.55
317.008	21.46
317.22	23
317.432	22.49
317.644	21.7
317.857	24.25
318.069	24.13
318.281	23.27
318.494	23.55
318.706	22.62
318.918	23.29
319.13	21.59
319.342	23.11
319.555	22.54
319.767	21.09
319.979	23.56
320.191	24.54
320.403	25.35
320.615	26.55
320.827	26.85
321.039	28.55
321.252	28.7
321.464	29.78
321.676	27.73
321.888	26.95
322.1	26.22
322.312	24.79
322.524	23.25
322.736	22.82
322.948	21.07
323.16	19.23
323.372	18.04
323.584	17.88
323.796	15.08
324.007	16.01
324.219	14.4
324.431	15.01
324.643	14.01
324.855	14.26
325.067	15.58
325.279	17.32
325.491	19.46
325.702	19.33
325.914	18.53
326.126	20.28
326.338	20.74
326.55	23.78
326.761	24.87
326.973	26.96
327.185	25.92
327.396	25.12
327.608	22.7
327.82	21.73
328.032	19.39
328.243	20.24
328.455	20.6
328.666	19.89
328.878	19
329.09	18.13
329.301	16.66
329.513	17.73
329.725	18.83
329.936	20.07
330.148	20.39
330.359	22.5
330.571	23.54
330.782	23.77
330.994	22.13
331.205	20.69
331.417	20.92
331.628	19.43
331.84	18.89
332.051	18.05
332.262	18.18
332.474	17.59
332.685	16.56
332.897	15.52
333.108	17.19
333.319	20.37
333.531	21.1
333.742	21.27
333.953	23.04
334.165	23.04
334.376	23.89
334.587	25.99
334.799	25.39
335.01	26.53
335.221	26.65
335.432	25.93
335.644	25.08
335.855	24.63
336.066	23.79
336.277	22.31
336.488	23.62
336.7	23.65
336.911	22.47
337.122	24
337.333	24.71
337.544	24.39
337.755	23.75
337.966	24.25
338.177	26.16
338.388	26.73
338.599	28.75
338.811	28.3
339.022	27.76
339.233	27.51
339.444	27.82
339.655	26.59
339.866	27.57
340.076	27.45
340.287	28.08
340.498	27.12
340.709	27.91
340.92	26.73
341.131	26.58
341.342	26.34
341.553	26.59
341.764	26.52
341.975	27.12
342.185	25.08
342.396	25.67
342.607	24.62
342.818	24.3
343.029	23.34
343.239	23.71
343.45	23.48
343.661	23.22
343.872	23.56
344.082	23.4
344.293	23.04
344.504	24.68
344.714	24.32
344.925	24.26
345.136	24.19
345.346	23.86
345.557	24.19
345.768	24.4
345.978	24
346.189	22.95
346.399	22.79
346.61	22.8
346.821	22.63
347.031	23.68
347.242	24.13
347.452	24.32
347.663	25.05
347.873	24.44
348.084	24.64
348.294	25.75
348.504	27.1
348.715	27
348.925	27.89
349.136	27.22
349.346	25.76
349.557	25.47
349.767	23.98
349.977	22.62
350.188	23.56
350.398	23.2
350.608	23.32
350.819	22.2
351.029	21.58
351.239	22.04
351.449	23.86
351.66	24.28
351.87	24.65
352.08	25.77
352.29	27.58
352.501	27.58
352.711	28.07
352.921	26.28
353.131	27.03
353.341	27.31
353.552	26.79
353.762	25.83
353.972	26.06
354.182	26.87
354.392	26.81
354.602	26.8
354.812	25.7
355.022	25.38
355.232	26.08
355.442	25.4
355.652	25.47
355.862	25.48
356.072	25.07
356.282	25.14
356.492	24.16
356.702	24.73
356.912	24.15
357.122	24.82
357.332	24.65
357.542	24.82
357.752	24.45
357.962	24.35
358.171	24.23
358.381	24.29
358.591	24.68
358.801	25.39
359.011	25.97
359.221	25.9
359.43	25.27
359.64	25.45
359.85	26.03
360.06	26.42
360.269	26.41
360.479	26.26
360.689	25.99
360.899	25.85
361.108	25.37
361.318	23.93
361.528	24.32
361.737	24.14
361.947	23.39
362.156	23.12
362.366	23.52
362.576	22.93
362.785	22.68
362.995	22.92
363.204	22.18
363.414	22.21
363.623	22.15
363.833	21.6
364.042	22.49
364.252	22.78
364.461	23.07
364.671	22.75
364.88	23.72
365.09	23.38
365.299	23.37
365.509	23.9
365.718	23.6
365.927	23.75
366.137	22.97
366.346	21.82
366.555	23
366.765	22.7
366.974	22.51
367.183	22.61
367.393	22.93
367.602	23.16
367.811	22.4
368.021	21.85
368.23	21.77
368.439	22.57
368.648	22.85
368.857	21.91
369.067	22.18
369.276	22.19
369.485	21.51
369.694	21.38
369.903	21.17
370.112	22
370.321	22.61
370.531	22.99
370.74	22.63
370.949	23.22
371.158	22.09
371.367	21.48
371.576	21.58
371.785	21.55
371.994	21.07
372.203	20.78
372.412	19.67
372.621	18.84
372.83	18.13
373.039	17.63
373.248	17.02
373.457	17.64
373.666	16.71
373.874	15.96
374.083	16.08
374.292	16.51
374.501	15.6
374.71	16.48
374.919	16.71
375.128	17.79
375.336	18.07
375.545	17.81
375.754	18.63
375.963	19.56
376.171	19.78
376.38	19.8
376.589	18.96
376.798	19.66
377.006	18.82
377.215	19.47
377.424	18.56
377.632	18.88
377.841	18.36
378.05	17.86
378.258	17.2
378.467	17.78
378.675	17.37
378.884	18.03
379.093	17.77
379.301	18.33
379.51	17.65
379.718	17.5
379.927	17.92
380.135	18.37
380.344	18.3
380.552	18.98
380.761	18.63
380.969	18.51
381.177	18.06
381.386	17.6
381.594	17.49
381.803	17.03
382.011	17.8
382.219	17.64
382.428	17.4
382.636	17.61
382.845	17.84
383.053	17.94
383.261	18.8
383.469	19.77
383.678	19.94
383.886	19.71
384.094	20.09
384.302	19.46
384.511	18.87
384.719	18.49
384.927	18.09
385.135	17.68
385.343	16.82
385.552	15.75
385.76	14.76
385.968	14.99
386.176	14.84
386.384	14.48
386.592	14.57
386.8	14.92
387.008	15.05
387.216	15.16
387.424	14.87
387.633	15.04
387.841	15.41
388.049	16.11
388.257	15.93
388.465	16.05
388.672	16.03
388.88	15.63
389.088	15.02
389.296	15.16
389.504	14.97
389.712	14.74
389.92	14.87
390.128	14.63
390.336	14.22
390.544	13.92
390.751	13.62
390.959	13.62
391.167	13.95
391.375	13.98
391.583	14.06
391.79	14.16
391.998	14.51
392.206	14.28
392.414	14.24
392.621	14.25
392.829	14.55
393.037	14.39
393.244	14.85
393.452	14.55
393.66	14.35
393.867	14.14
394.075	13.76
394.283	13.49
394.49	13.31
394.698	13.52
394.905	13.18
395.113	12.96
395.32	13.27
395.528	12.69
395.735	12.9
395.943	13.24
396.15	13.3
396.358	13.56
396.565	13.56
396.773	13.95
396.98	13.44
397.188	13.79
397.395	13.87
397.602	13.85
397.81	14.01
398.017	14.14
398.225	14.02
398.432	14.12
398.639	14.17
398.847	14.05
399.054	13.69
399.261	13.75
399.468	13.49
399.676	13.16
399.883	12.75
400.09	12.42
400.297	12.33
400.505	12.54
400.712	12.55
400.919	12.82
401.126	12.83
401.333	13.24
401.54	13.49
401.748	13.73
401.955	14.1
402.162	14.25
402.369	14.42
402.576	14.2
402.783	13.67
402.99	13.7
403.197	12.96
403.404	12.79
403.611	12.64
403.818	12.76
404.025	12.56
404.232	12.55
404.439	12.87
404.646	12.69
404.853	12.76
405.06	12.91
405.267	12.77
405.474	12.92
405.681	13.29
405.887	13.1
406.094	12.62
406.301	12.31
406.508	12.47
406.715	12.17
406.922	12.55
407.128	12.61
407.335	12.42
407.542	12.25
407.749	12.46
407.955	12.26
408.162	12.24
408.369	12.47
408.575	12.76
408.782	12.66
408.989	12.99
409.195	12.38
409.402	12.26
409.609	12.48
409.815	12.25
410.022	12.12
410.228	12.13
410.435	12.25
410.642	12.08
410.848	12.01
411.055	11.58
411.261	11.33
411.468	11.45
411.674	11.32
411.881	11.24
412.087	11.82
412.294	11.98
412.5	12.05
412.706	12.3
412.913	12.61
413.119	12.53
413.326	12.5
413.532	12.33
413.738	12.62
413.945	12.66
414.151	13
414.357	12.68
414.564	12.57
414.77	12.67
414.976	12.23
415.182	12.1
415.389	12.13
415.595	12.3
415.801	12.34
416.007	12.31
416.214	12.32
416.42	12.12
416.626	12.01
416.832	11.92
417.038	11.78
417.244	12
417.45	11.95
417.657	11.94
417.863	11.96
418.069	11.89
418.275	11.73
418.481	11.8
418.687	11.85
418.893	11.81
419.099	11.79
419.305	11.9
419.511	11.84
419.717	11.78
419.923	11.7
420.129	11.62
420.335	11.64
420.541	11.65
420.746	11.46
420.952	11.41
421.158	11.49
421.364	11.49
421.57	11.43
421.776	11.27
421.982	11.44
422.187	11.49
422.393	11.51
422.599	11.55
422.805	11.62
423.01	11.7
423.216	11.55
423.422	11.45
423.628	11.6
423.833	11.62
424.039	11.87
424.245	11.83
424.45	11.96
424.656	11.96
424.862	11.91
425.067	11.81
425.273	11.83
425.478	11.9
425.684	12.06
425.889	11.82
426.095	11.71
426.301	11.57
426.506	11.49
426.712	11.32
426.917	11.32
427.123	11.16
427.328	11.16
427.533	11.13
427.739	11.1
427.944	10.94
428.15	10.97
428.355	11.29
428.561	11.35
428.766	11.2
428.971	11.39
429.177	11.4
429.382	11.79
429.587	11.95
429.793	11.96
429.998	12.1
430.203	12.19
430.408	12.39
430.614	11.86
430.819	11.77
431.024	11.98
431.229	11.72
431.434	11.72
431.64	11.49
431.845	11.51
432.05	11.46
432.255	11.36
432.46	11.27
432.665	11.17
432.87	11.41
433.076	11.55
433.281	11.51
433.486	11.57
433.691	11.49
433.896	11.41
434.101	11.28
434.306	11.28
434.511	11.26
434.716	11.34
434.921	11.45
435.126	11.53
435.331	11.16
435.535	11.15
435.74	11.18
435.945	11.25
436.15	11.54
436.355	11.52
436.56	11.43
436.765	11.57
436.97	11.55
437.174	11.53
437.379	11.43
437.584	11.5
437.789	11.51
437.993	11.62
438.198	11.49
438.403	11.28
438.608	11.22
438.812	11.16
439.017	11.1
439.222	11.14
439.426	10.93
439.631	10.82
439.836	10.91
440.04	10.99
440.245	10.91
440.45	10.89
440.654	11.06
440.859	11.11
441.063	11.35
441.268	11.16
441.472	11.07
441.677	11.23
441.881	11.35
442.086	11.29
442.29	11.19
442.495	11
442.699	11.04
442.904	10.95
443.108	10.91
443.312	10.69
443.517	10.96
443.721	11.06
443.925	11.09
444.13	11.02
444.334	11.05
444.538	11.14
444.743	11.14
444.947	11.11
445.151	11.03
445.356	11.03
445.56	11.02
445.764	11.03
445.968	10.96
446.173	10.82
446.377	10.99
446.581	11.06
446.785	11.02
446.989	11.05
447.193	11.1
447.398	11
447.602	11.08
447.806	11.06
448.01	11
448.214	10.97
448.418	11.07
448.622	10.89
448.826	10.78
449.03	10.84
449.234	10.93
449.438	11.04
449.642	11.28
449.846	11.22
450.05	11.43
450.254	11.44
450.458	11.54
450.662	11.54
450.866	11.67
451.069	11.72
451.273	11.68
451.477	11.44
451.681	11.45
451.885	11.25
452.089	11.24
452.292	11.15
452.496	11.05
452.7	10.99
452.904	10.97
453.107	10.86
453.311	10.91
453.515	10.87
453.719	11.03
453.922	10.87
454.126	11.02
454.33	10.91
454.533	10.92
454.737	10.79
454.94	10.55
455.144	10.42
455.348	10.33
455.551	10.25
455.755	10.25
455.958	10.17
