Data from 2937815_Reflection_2.txt Node
Date: Wed Jul 15 17:35:58 EDT 2015
User: robert
Spectrometer: USB4E03001
Autoset integration time: false
Trigger mode: 4
Integration Time (sec): 1.000000E-1
Scans to average: 10
Electric dark correction enabled: true
Nonlinearity correction enabled: false
Boxcar width: 5
Stray light correction enabled: false
XAxis mode: Wavelengths
Stop averaging: false
Number of Pixels in Spectrum: 3648
>>>>>Begin Spectral Data<<<<<
177.566	-52.91
177.785	-85.8
178.005	-81.37
178.225	-490.88
178.445	-207.34
178.665	-166.12
178.885	-38.75
179.105	-136.3
179.324	-511.27
179.544	792.81
179.764	-2970.49
179.984	212.59
180.204	246.74
180.423	192.45
180.643	118.42
180.863	105.24
181.083	80.12
181.302	87.08
181.522	115.73
181.742	108.45
181.961	134.1
182.181	123.68
182.401	171.66
182.621	173.67
182.84	132.44
183.06	221.04
183.279	144.46
183.499	175.75
183.719	188.8
183.938	135.21
184.158	122.17
184.377	96.31
184.597	139.51
184.816	102.76
185.036	116.24
185.256	143.52
185.475	135.94
185.695	179.31
185.914	144.15
186.134	126.59
186.353	100.81
186.572	85.35
186.792	116.98
187.011	67.62
187.231	61.95
187.45	40.81
187.67	37.43
187.889	39.39
188.108	43.58
188.328	56.11
188.547	61.14
188.766	92.98
188.986	111.6
189.205	76.8
189.424	122.08
189.644	243.1
189.863	213.99
190.082	229.42
190.302	314.06
190.521	385.63
190.74	398.62
190.959	331.55
191.178	2095.74
191.398	-271.78
191.617	-2889.66
191.836	-245.11
192.055	-437.13
192.274	-273.11
192.494	-224.61
192.713	-534.85
192.932	-762.6
193.151	-117.76
193.37	-149.79
193.589	-16666.67
193.808	830.37
194.027	-132.3
194.246	-171.03
194.465	-1245.53
194.685	604.37
194.904	-401.36
195.123	-209.37
195.342	-139.33
195.561	389.13
195.78	493.93
195.999	268.38
196.218	275.63
196.436	130.36
196.655	102.48
196.874	147.54
197.093	140.7
197.312	121.11
197.531	87.96
197.75	67.17
197.969	56.37
198.188	45.29
198.407	90.9
198.625	115.5
198.844	134.06
199.063	185.28
199.282	43.79
199.501	-5.64
199.719	-304.91
199.938	-153.41
200.157	11.17
200.376	430.84
200.594	210.53
200.813	99.33
201.032	170.5
201.251	375.71
201.469	-689.67
201.688	-2746.47
201.907	467.4
202.125	680.97
202.344	6367.53
202.563	-128.41
202.781	-78.98
203	-110.83
203.218	-151.85
203.437	-138.68
203.656	933.87
203.874	511.08
204.093	108.88
204.311	270.21
204.53	331.21
204.748	731.43
204.967	208.45
205.185	234.66
205.404	251.04
205.622	164.6
205.841	165.84
206.059	412.16
206.278	477.53
206.496	558.91
206.715	395.01
206.933	303.83
207.151	195.82
207.37	289.55
207.588	170.38
207.806	159.11
208.025	269.73
208.243	279.42
208.461	304.99
208.68	131.19
208.898	322.71
209.116	-88.11
209.335	-87.46
209.553	3092.21
209.771	189.67
209.989	-61.25
210.208	-337.35
210.426	-72.97
210.644	-79.29
210.862	-245.37
211.081	-330.98
211.299	-695.93
211.517	1014.61
211.735	6972.41
211.953	1601.01
212.171	5765.89
212.39	347.41
212.608	196.94
212.826	140.66
213.044	129.38
213.262	102.35
213.48	77.62
213.698	99.28
213.916	139.64
214.134	127.65
214.352	124.91
214.57	131.08
214.788	139.4
215.006	358.68
215.224	-681.48
215.442	1180.1
215.66	-759.39
215.878	-796.72
216.096	-715.07
216.314	-1603.41
216.532	358.8
216.75	-1754.83
216.968	374.5
217.185	201.73
217.403	221.57
217.621	111.12
217.839	193.26
218.057	246.28
218.275	164.78
218.492	121.08
218.71	107.67
218.928	102.93
219.146	112.95
219.363	191.88
219.581	219.44
219.799	166.46
220.017	105.32
220.234	30.36
220.452	25.06
220.67	90.8
220.887	169.26
221.105	98.34
221.323	90.12
221.54	83.54
221.758	72.51
221.976	82.25
222.193	77.55
222.411	94.38
222.629	102.76
222.846	90.46
223.064	77.68
223.281	79.18
223.499	102.23
223.716	117.58
223.934	104.99
224.151	122.68
224.369	133.9
224.586	143.69
224.804	124.59
225.021	121.01
225.239	142.7
225.456	161.56
225.674	107.89
225.891	106.28
226.108	106.11
226.326	104.72
226.543	87.23
226.76	69.23
226.978	68.76
227.195	59.88
227.413	54.01
227.63	47.83
227.847	40.22
228.064	38.67
228.282	34.78
228.499	26.83
228.716	18.5
228.934	21.13
229.151	25.68
229.368	22.56
229.585	23.71
229.802	20.51
230.02	17.9
230.237	20.39
230.454	19.32
230.671	19.48
230.888	17.68
231.105	17.77
231.323	16.41
231.54	5.12
231.757	1.17
231.974	-1.83
232.191	5.78
232.408	8.25
232.625	3.8
232.842	12.32
233.059	9.75
233.276	18.18
233.493	26.43
233.71	25.53
233.927	32.86
234.144	40.92
234.361	40.05
234.578	40.93
234.795	38.73
235.012	35.54
235.229	28.15
235.446	28.25
235.663	33.36
235.879	36.05
236.096	38.69
236.313	38.53
236.53	33.54
236.747	29.9
236.964	28.59
237.181	22.6
237.397	23.42
237.614	30
237.831	34.32
238.048	29.96
238.264	24.39
238.481	28.39
238.698	27.25
238.915	27.96
239.131	33.14
239.348	23.16
239.565	32.74
239.781	32.25
239.998	31.44
240.215	29.99
240.431	27.57
240.648	28.53
240.865	22.67
241.081	21.59
241.298	21.99
241.514	22.09
241.731	26.15
241.947	22.7
242.164	23.5
242.38	19.46
242.597	17.77
242.814	18.31
243.03	17.54
243.246	18.79
243.463	17.98
243.679	18.11
243.896	18.72
244.112	18.56
244.329	19.81
244.545	19.02
244.762	21.42
244.978	20.52
245.194	20.16
245.411	19.72
245.627	17.01
245.843	17.25
246.06	17.9
246.276	15.08
246.492	13.46
246.709	14.37
246.925	14.05
247.141	14.03
247.357	14.03
247.574	13.54
247.79	13.43
248.006	13.81
248.222	13.77
248.439	12.68
248.655	11.68
248.871	12.23
249.087	10.85
249.303	11.4
249.519	10.94
249.736	9.49
249.952	9.94
250.168	9.47
250.384	9.13
250.6	10.91
250.816	11.71
251.032	13.76
251.248	13.26
251.464	13.74
251.68	11.16
251.896	10.78
252.112	12.12
252.328	11.62
252.544	11.37
252.76	10.16
252.976	9.55
253.192	10.92
253.408	11.63
253.624	13.19
253.84	10.71
254.056	13.02
254.272	14.08
254.487	14.2
254.703	14.55
254.919	16.06
255.135	17.91
255.351	18.27
255.567	15.14
255.782	15.4
255.998	11.95
256.214	15.63
256.43	16.74
256.646	19.09
256.861	20.51
257.077	20.23
257.293	19.25
257.508	17.91
257.724	17.89
257.94	18.2
258.155	16.92
258.371	17.06
258.587	15.64
258.802	15.35
259.018	15.04
259.234	14.74
259.449	14.11
259.665	13.3
259.88	13.06
260.096	12.76
260.312	11.99
260.527	12.24
260.743	12.49
260.958	12.78
261.174	10.42
261.389	8.98
261.605	8
261.82	7.62
262.036	7.85
262.251	8.13
262.466	7.51
262.682	8.49
262.897	8.7
263.113	6.56
263.328	6.23
263.543	9.59
263.759	10.51
263.974	11.14
264.189	10.71
264.405	9.2
264.62	8.19
264.835	10.39
265.051	9.06
265.266	10.35
265.481	14.23
265.696	16.24
265.912	16.33
266.127	15.9
266.342	14.7
266.557	15.6
266.773	17.51
266.988	18.29
267.203	14.73
267.418	15.73
267.633	13.33
267.848	11.62
268.064	10.6
268.279	8.88
268.494	9.66
268.709	10.26
268.924	9.98
269.139	7.89
269.354	7.53
269.569	8.01
269.784	7.55
269.999	9.4
270.214	8.44
270.429	6.58
270.644	8.68
270.859	7.88
271.074	7.09
271.289	7.92
271.504	8.34
271.719	6.65
271.934	8.2
272.149	9.05
272.363	8.79
272.578	8.35
272.793	9.75
273.008	8.27
273.223	8.48
273.438	9.37
273.653	8.45
273.867	7.39
274.082	9.56
274.297	8.3
274.512	8.09
274.726	7.82
274.941	9.47
275.156	10.84
275.371	12.03
275.585	12.31
275.8	12.31
276.015	12.49
276.229	15.41
276.444	15.58
276.659	17.35
276.873	17.18
277.088	18.26
277.302	18.31
277.517	15.99
277.732	15.9
277.946	14.37
278.161	13.95
278.375	11.66
278.59	10.31
278.804	8.82
279.019	8.52
279.233	7.22
279.448	4.61
279.662	4.43
279.877	4.23
280.091	3.07
280.306	5.39
280.52	4.1
280.735	6.7
280.949	6.15
281.163	7.61
281.378	7.28
281.592	4.87
281.806	6.23
282.021	4.99
282.235	5.76
282.449	6.85
282.664	7.66
282.878	9.53
283.092	9.55
283.307	10.08
283.521	9.42
283.735	10.24
283.949	11.93
284.164	12.35
284.378	12.57
284.592	12.69
284.806	12.52
285.02	12.27
285.234	12.05
285.449	11.39
285.663	11.7
285.877	12.8
286.091	13.01
286.305	13.55
286.519	12.87
286.733	13.61
286.947	13.17
287.161	13.77
287.375	12.79
287.589	12.47
287.803	12.52
288.017	12.33
288.231	11.04
288.445	9.82
288.659	10.45
288.873	9.82
289.087	9.58
289.301	9.75
289.515	11.07
289.729	10
289.943	11.92
290.157	13.73
290.371	14.35
290.584	14.41
290.798	14.55
291.012	13.93
291.226	16.08
291.44	16.57
291.654	17.03
291.867	15.2
292.081	16.72
292.295	14.59
292.509	12.11
292.722	10.7
292.936	11.15
293.15	14.14
293.364	15.05
293.577	14.09
293.791	12.62
294.005	12.07
294.218	12.06
294.432	12.05
294.645	11.39
294.859	12.29
295.073	13.44
295.286	12.69
295.5	10.42
295.713	10.22
295.927	10.32
296.14	11.68
296.354	12.31
296.568	12.78
296.781	12.51
296.994	13.13
297.208	13.48
297.421	12.26
297.635	12.7
297.848	12.9
298.062	13.19
298.275	13.07
298.489	12.78
298.702	11.09
298.915	10.21
299.129	11.32
299.342	11.7
299.555	11.83
299.769	12.61
299.982	12.51
300.195	12.42
300.409	13.19
300.622	12.2
300.835	13.2
301.048	15.43
301.262	15.45
301.475	14.15
301.688	12.5
301.901	12.31
302.115	12.58
302.328	12.19
302.541	10.48
302.754	9.19
302.967	10.17
303.18	9.68
303.393	11.72
303.607	14.38
303.82	14.93
304.033	15.8
304.246	16.23
304.459	16.67
304.672	15.04
304.885	16.84
305.098	17.93
305.311	18.62
305.524	18.57
305.737	16.61
305.95	14.35
306.163	14.13
306.376	15.08
306.589	15.57
306.802	12.95
307.015	15.05
307.228	15.56
307.44	13.35
307.653	12.53
307.866	13.25
308.079	13.61
308.292	13.92
308.505	13.33
308.718	13.32
308.93	12.34
309.143	14.44
309.356	13.98
309.569	12.22
309.781	12.5
309.994	11.66
310.207	10.3
310.42	10.42
310.632	10.46
310.845	11.42
311.058	11.3
311.27	11.26
311.483	10.47
311.696	11.93
311.908	13.43
312.121	13.61
312.333	14.66
312.546	13.83
312.759	13.63
312.971	13.79
313.184	13.51
313.396	12.28
313.609	13.72
313.821	13.8
314.034	12.96
314.246	12.95
314.459	13.79
314.671	13.33
314.884	14.4
315.096	14.17
315.309	14.58
315.521	15.29
315.733	17.25
315.946	15.39
316.158	17.31
316.371	16.22
316.583	13.51
316.795	12.04
317.008	13.1
317.22	14.66
317.432	14.19
317.644	15.49
317.857	13.93
318.069	14.26
318.281	14.73
318.494	12.6
318.706	13.77
318.918	15.43
319.13	17.27
319.342	15.89
319.555	16.94
319.767	17.64
319.979	15.35
320.191	14.74
320.403	13.79
320.615	14.21
320.827	15.66
321.039	15.5
321.252	16.25
321.464	15.59
321.676	17.72
321.888	15.52
322.1	15.16
322.312	15.99
322.524	16.24
322.736	18.59
322.948	16.97
323.16	15.83
323.372	15.64
323.584	14.24
323.796	13.82
324.007	12.91
324.219	13.28
324.431	11.69
324.643	11.89
324.855	11.84
325.067	9.56
325.279	8.9
325.491	9.69
325.702	9.65
325.914	11.36
326.126	9.84
326.338	9.32
326.55	9.09
326.761	11.62
326.973	11.13
327.185	10.8
327.396	10.51
327.608	11.17
327.82	10.82
328.032	11.22
328.243	9.39
328.455	10.59
328.666	9.84
328.878	9.57
329.09	8.56
329.301	9.09
329.513	9.63
329.725	9.11
329.936	11.06
330.148	10.99
330.359	11.98
330.571	12.7
330.782	13.56
330.994	13.62
331.205	13.59
331.417	13.09
331.628	13.62
331.84	15.46
332.051	17.33
332.262	16.36
332.474	16.67
332.685	13.69
332.897	13.45
333.108	13.19
333.319	13.51
333.531	13.7
333.742	12.78
333.953	10.43
334.165	9.45
334.376	8.41
334.587	9.41
334.799	9.12
335.01	9.51
335.221	10.2
335.432	9.84
335.644	10.27
335.855	10.68
336.066	11.7
336.277	12.69
336.488	12.75
336.7	13.4
336.911	13.88
337.122	14.01
337.333	14.85
337.544	15.45
337.755	15.73
337.966	15.27
338.177	13.99
338.388	14.48
338.599	14.6
338.811	14.27
339.022	13.58
339.233	11.22
339.444	11.01
339.655	11.63
339.866	11.25
340.076	10.43
340.287	10.81
340.498	10.87
340.709	9.9
340.92	11.02
341.131	10.24
341.342	9.97
341.553	11.29
341.764	11.05
341.975	9.94
342.185	8.38
342.396	8.77
342.607	9.4
342.818	10.33
343.029	10.6
343.239	10.05
343.45	11.69
343.661	12.04
343.872	10.99
344.082	11.64
344.293	12.13
344.504	13.91
344.714	12.51
344.925	11.78
345.136	12.09
345.346	11.61
345.557	11.23
345.768	10.3
345.978	10.59
346.189	11.23
346.399	10.38
346.61	10.57
346.821	9.64
347.031	10.23
347.242	9.62
347.452	9.02
347.663	10.05
347.873	10.56
348.084	10.09
348.294	10.16
348.504	9.75
348.715	11.14
348.925	10.39
349.136	10.23
349.346	11.27
349.557	10.38
349.767	10.25
349.977	8.67
350.188	8.74
350.398	8.68
350.608	8.66
350.819	8.94
351.029	7.8
351.239	8.91
351.449	9.88
351.66	9.53
351.87	10.44
352.08	10.16
352.29	11.21
352.501	11.23
352.711	12.78
352.921	14.98
353.131	13.79
353.341	14.22
353.552	13.59
353.762	11.94
353.972	12.41
354.182	13.06
354.392	13.33
354.602	14.04
354.812	13.08
355.022	11.55
355.232	8.34
355.442	9.52
355.652	10.32
355.862	10.22
356.072	10.71
356.282	10.57
356.492	10.21
356.702	11.12
356.912	10.52
357.122	11.94
357.332	12.3
357.542	12.8
357.752	12.34
357.962	10.92
358.171	10.16
358.381	10.59
358.591	10.06
358.801	9.55
359.011	9.03
359.221	8.6
359.43	8.04
359.64	8.12
359.85	8.62
360.06	8.76
360.269	8.05
360.479	8.45
360.689	7.76
360.899	7.78
361.108	7.49
361.318	7.43
361.528	7.88
361.737	7.91
361.947	7.55
362.156	6.31
362.366	6.83
362.576	7.98
362.785	8
362.995	8.35
363.204	8.96
363.414	10.97
363.623	10.86
363.833	10.45
364.042	10.01
364.252	11.22
364.461	11.47
364.671	12.35
364.88	12.12
365.09	12.11
365.299	12.16
365.509	11.27
365.718	10.32
365.927	10.58
366.137	10.43
366.346	11.04
366.555	10.04
366.765	10.54
366.974	9.17
367.183	9.14
367.393	8.68
367.602	8.54
367.811	8.51
368.021	7.95
368.23	7.98
368.439	7.25
368.648	5.4
368.857	5.02
369.067	4.86
369.276	4.72
369.485	5.22
369.694	4.9
369.903	4.22
370.112	4.48
370.321	4.44
370.531	4.35
370.74	5.7
370.949	6.41
371.158	6.53
371.367	5.61
371.576	6.37
371.785	6.07
371.994	6.32
372.203	6.53
372.412	6.5
372.621	6.49
372.83	5.33
373.039	5.34
373.248	5.11
373.457	5.01
373.666	6.05
373.874	5.37
374.083	4.89
374.292	5.8
374.501	6.12
374.71	6.7
374.919	7.14
375.128	8.01
375.336	8.6
375.545	8.46
375.754	8.38
375.963	8.06
376.171	7.85
376.38	8.44
376.589	8.05
376.798	7.87
377.006	7.3
377.215	7.13
377.424	7.13
377.632	7.32
377.841	7.74
378.05	7.74
378.258	7.9
378.467	8.36
378.675	8.04
378.884	8.06
379.093	7.85
379.301	7.8
379.51	7.5
379.718	7.27
379.927	6.33
380.135	6.42
380.344	6.48
380.552	6.82
380.761	6.97
380.969	6.98
381.177	6.54
381.386	6.78
381.594	7.15
381.803	7.16
382.011	7.2
382.219	6.9
382.428	6.44
382.636	6.73
382.845	6.16
383.053	5.55
383.261	5.32
383.469	5.52
383.678	5.61
383.886	5.58
384.094	5.77
384.302	5.74
384.511	5.45
384.719	6
384.927	5.69
385.135	5.65
385.343	5.64
385.552	6.44
385.76	6.65
385.968	6.55
386.176	6.03
386.384	5.79
386.592	5.81
386.8	6.41
387.008	5.89
387.216	5.72
387.424	5.8
387.633	5.3
387.841	4.56
388.049	4.23
388.257	3.71
388.465	3.88
388.672	3.96
388.88	3.75
389.088	3.51
389.296	3.4
389.504	3.65
389.712	3.72
389.92	3.96
390.128	3.96
390.336	3.97
390.544	4.47
390.751	4.87
390.959	4.83
391.167	5.12
391.375	4.97
391.583	5.25
391.79	5.04
391.998	4.99
392.206	4.72
392.414	4.83
392.621	5.08
392.829	5.04
393.037	4.59
393.244	4.78
393.452	4.58
393.66	4.7
393.867	4.53
394.075	4.51
394.283	4.29
394.49	4.51
394.698	4.71
394.905	5.04
395.113	4.79
395.32	4.98
395.528	4.86
395.735	4.82
395.943	4.79
396.15	4.6
396.358	4.64
396.565	4.78
396.773	4.94
396.98	4.65
397.188	4.21
397.395	4.44
397.602	4.6
397.81	4.27
398.017	4.59
398.225	4.88
398.432	5.21
398.639	4.73
398.847	5.04
399.054	5.14
399.261	4.73
399.468	4.52
399.676	4.44
399.883	4.06
400.09	4.47
400.297	4.6
400.505	4.4
400.712	4.75
400.919	5.49
401.126	5.3
401.333	5.16
401.54	5.48
401.748	5.75
401.955	5.68
402.162	5.72
402.369	5.56
402.576	5.14
402.783	5.1
402.99	4.93
403.197	4.44
403.404	4.26
403.611	4.29
403.818	4.39
404.025	4.32
404.232	4.27
404.439	4.49
404.646	4.34
404.853	4.38
405.06	4.58
405.267	4.42
405.474	4.53
405.681	4.59
405.887	4.62
406.094	4.25
406.301	3.98
406.508	4.05
406.715	4.25
406.922	4.43
407.128	4.28
407.335	3.84
407.542	3.83
407.749	3.9
407.955	3.88
408.162	3.77
408.369	4.39
408.575	4.65
408.782	4.45
408.989	3.73
409.195	3.72
409.402	3.86
409.609	3.92
409.815	3.84
410.022	3.74
410.228	3.97
410.435	4.15
410.642	3.89
410.848	3.59
411.055	3.7
411.261	3.75
411.468	3.64
411.674	3.55
411.881	3.5
412.087	3.56
412.294	3.95
412.5	3.84
412.706	3.36
412.913	3.02
413.119	3.09
413.326	3.28
413.532	3.42
413.738	3.74
413.945	3.48
414.151	3.51
414.357	3.67
414.564	3.69
414.77	3.71
414.976	3.99
415.182	3.91
415.389	4.09
415.595	3.81
415.801	3.7
416.007	3.39
416.214	3.48
416.42	3.37
416.626	3.19
416.832	3.19
417.038	3.12
417.244	3.21
417.45	3.56
417.657	3.5
417.863	3.5
418.069	3.77
418.275	3.87
418.481	3.9
418.687	3.98
418.893	3.99
419.099	3.94
419.305	3.91
419.511	3.9
419.717	3.86
419.923	3.86
420.129	4.18
420.335	4.2
420.541	4.12
420.746	4.13
420.952	4.23
421.158	4.31
421.364	4.29
421.57	4.42
421.776	4.54
421.982	4.48
422.187	4.55
422.393	4.4
422.599	4.45
422.805	4.56
423.01	4.62
423.216	4.68
423.422	4.59
423.628	4.68
423.833	4.57
424.039	4.47
424.245	4.58
424.45	4.45
424.656	4.38
424.862	4.1
425.067	3.99
425.273	4.03
425.478	3.84
425.684	3.75
425.889	3.68
426.095	3.76
426.301	3.64
426.506	3.39
426.712	3.54
426.917	3.48
427.123	3.66
427.328	3.64
427.533	3.63
427.739	3.72
427.944	3.89
428.15	3.75
428.355	3.54
428.561	3.71
428.766	3.99
428.971	3.74
429.177	3.88
429.382	3.9
429.587	3.77
429.793	3.74
429.998	4.05
430.203	3.87
430.408	3.76
430.614	3.83
430.819	3.59
431.024	3.64
431.229	3.86
431.434	3.8
431.64	3.87
431.845	4.16
432.05	4.03
432.255	3.76
432.46	3.87
432.665	4.04
432.87	4.02
433.076	4.14
433.281	4.05
433.486	3.93
433.691	3.96
433.896	4.02
434.101	3.95
434.306	4.04
434.511	3.98
434.716	3.97
434.921	3.84
435.126	4.05
435.331	4.11
435.535	4.07
435.74	4.14
435.945	4
436.15	3.96
436.355	3.86
436.56	3.8
436.765	3.53
436.97	3.68
437.174	3.75
437.379	3.43
437.584	3.3
437.789	3.27
437.993	3.1
438.198	3.17
438.403	3.02
438.608	2.97
438.812	3.08
439.017	3.38
439.222	3.39
439.426	3.3
439.631	3.41
439.836	3.46
440.04	3.61
440.245	3.78
440.45	3.79
440.654	3.76
440.859	3.82
441.063	3.74
441.268	3.81
441.472	3.61
441.677	3.67
441.881	3.57
442.086	3.39
442.29	3.21
442.495	3.06
442.699	3.16
442.904	3.34
443.108	3.42
443.312	3.35
443.517	3.36
443.721	3.38
443.925	3.48
444.13	3.62
444.334	3.67
444.538	3.8
444.743	3.92
444.947	3.93
445.151	3.96
445.356	3.9
445.56	3.98
445.764	3.89
445.968	4.02
446.173	3.98
446.377	4
446.581	4.19
446.785	4.15
446.989	4.06
447.193	4
447.398	4.02
447.602	4.03
447.806	4.08
448.01	4.05
448.214	3.9
448.418	3.94
448.622	3.82
448.826	3.81
449.03	3.83
449.234	3.88
449.438	3.68
449.642	3.49
449.846	3.52
450.05	3.33
450.254	3.35
450.458	3.52
450.662	3.31
450.866	3.35
451.069	3.25
451.273	3.08
451.477	3.17
451.681	3.36
451.885	3.42
452.089	3.36
452.292	3.48
452.496	3.58
452.7	3.55
452.904	3.83
453.107	3.91
453.311	3.91
453.515	3.94
453.719	3.88
453.922	3.99
454.126	3.77
454.33	3.81
454.533	3.71
454.737	3.62
454.94	3.59
455.144	3.7
455.348	3.43
455.551	3.45
455.755	3.57
455.958	3.77
456.162	3.63
456.365	3.96
456.569	4.01
456.772	4.01
456.976	4.05
457.179	4.11
457.383	4.02
457.586	4.21
457.79	4.09
457.993	4.1
458.196	3.94
458.4	4.08
458.603	3.84
458.807	3.74
459.01	3.87
459.213	3.83
459.417	3.82
459.62	3.5
459.823	3.5
460.026	3.48
460.23	3.44
460.433	3.44
460.636	3.36
460.839	3.42
461.042	3.5
461.246	3.29
461.449	3.34
461.652	3.19
461.855	3.36
462.058	3.23
462.261	3.23
462.464	3.13
