Data from 2937884_Reflection_1.txt Node
Date: Wed Jul 15 14:36:41 EDT 2015
User: robert
Spectrometer: USB4E03001
Autoset integration time: false
Trigger mode: 4
Integration Time (sec): 1.000000E-1
Scans to average: 10
Electric dark correction enabled: true
Nonlinearity correction enabled: false
Boxcar width: 5
Stray light correction enabled: false
XAxis mode: Wavelengths
Stop averaging: false
Number of Pixels in Spectrum: 3648
>>>>>Begin Spectral Data<<<<<
177.566	-56.6
177.785	-17.41
178.005	-13.07
178.225	-31.89
178.445	70.89
178.665	22.87
178.885	-146.59
179.105	11.04
179.324	-8.2
179.544	-66.82
179.764	33.83
179.984	-26.92
180.204	-50.95
180.423	-73.01
180.643	-298.25
180.863	408.53
181.083	148.35
181.302	544.32
181.522	225.73
181.742	196.12
181.961	127.38
182.181	164.96
182.401	93.07
182.621	100.79
182.84	109.96
183.06	98.61
183.279	122.64
183.499	140.46
183.719	96.24
183.938	148.93
184.158	227.02
184.377	73111.11
184.597	207.89
184.816	216.07
185.036	222.08
185.256	195.06
185.475	202.8
185.695	177.61
185.914	5627.43
186.134	-280.96
186.353	-373.4
186.572	-249.88
186.792	-72.75
187.011	23.99
187.231	-67.61
187.45	-0.64
187.67	-27.21
187.889	-47.43
188.108	-34.88
188.328	65.57
188.547	-139.66
188.766	-148.21
188.986	121.57
189.205	53.15
189.424	-28.92
189.644	41.39
189.863	-288.06
190.082	-21.67
190.302	58.06
190.521	64.89
190.74	119.31
190.959	13166.67
191.178	-472.96
191.398	171.79
191.617	167.87
191.836	73.61
192.055	103.59
192.274	54.24
192.494	236.65
192.713	1070.15
192.932	-189.23
193.151	-553.03
193.37	203.44
193.589	111.42
193.808	23.4
194.027	-133.24
194.246	-66.7
194.465	865.91
194.685	411.35
194.904	2333.33
195.123	403.79
195.342	546.01
195.561	273.41
195.78	175.92
195.999	120.68
196.218	110.08
196.436	111.75
196.655	43.12
196.874	47.64
197.093	-225.68
197.312	172
197.531	218.53
197.75	228.9
197.969	170.9
198.188	120.67
198.407	180.22
198.625	210.89
198.844	116.55
199.063	79.58
199.282	107.67
199.501	113.23
199.719	259.71
199.938	217.8
200.157	478.02
200.376	466.37
200.594	894.47
200.813	456.32
201.032	459.21
201.251	-387.59
201.469	-360.03
201.688	-326.56
201.907	-85.85
202.125	14.51
202.344	54.39
202.563	183.29
202.781	17.27
203	12.39
203.218	-74.06
203.437	-122.22
203.656	-69.79
203.874	-99.57
204.093	-90.34
204.311	-273.22
204.53	-364.36
204.748	-424.69
204.967	-230.7
205.185	-170.21
205.404	-414.04
205.622	-127.57
205.841	-72.07
206.059	-85.28
206.278	-23.49
206.496	-71.99
206.715	-119.99
206.933	-109.74
207.151	428.67
207.37	189.01
207.588	-178.23
207.806	122.67
208.025	-11.36
208.243	-97.39
208.461	-206.93
208.68	-96.65
208.898	16.33
209.116	47.33
209.335	-8.57
209.553	-668.29
209.771	-159.42
209.989	415.72
210.208	446.8
210.426	-116.21
210.644	-304.74
210.862	402.95
211.081	424.95
211.299	-93.74
211.517	15.29
211.735	-97.66
211.953	124.57
212.171	8.52
212.39	-4525.71
212.608	5.67
212.826	-20.28
213.044	14.26
213.262	10.2
213.48	84.38
213.698	153.1
213.916	133.94
214.134	328.14
214.352	442.23
214.57	83.77
214.788	81.88
215.006	125.42
215.224	114.66
215.442	204.35
215.66	-32.95
215.878	-9.14
216.096	67.88
216.314	79.84
216.532	32.34
216.75	50.52
216.968	-11.47
217.185	-2.62
217.403	-10.24
217.621	9.59
217.839	-32.59
218.057	-28.69
218.275	-54.11
218.492	-54.62
218.71	-181.1
218.928	-1556.22
219.146	897.29
219.363	-1511.68
219.581	4350.44
219.799	743.41
220.017	-772.63
220.234	-76.16
220.452	-157.7
220.67	-45.19
220.887	-9.18
221.105	10.31
221.323	38.46
221.54	51.2
221.758	31.29
221.976	18.15
222.193	28.43
222.411	14.19
222.629	20.34
222.846	27.28
223.064	28.82
223.281	27.66
223.499	36.23
223.716	50.38
223.934	58.63
224.151	62.79
224.369	103.66
224.586	116.28
224.804	107.89
225.021	87.09
225.239	66.4
225.456	48.09
225.674	38.74
225.891	27.85
226.108	16.58
226.326	-0.58
226.543	6.34
226.76	-0.47
226.978	3.7
227.195	6.36
227.413	1.74
227.63	1.83
227.847	11.13
228.064	8.08
228.282	11.23
228.499	12.28
228.716	15.21
228.934	16.3
229.151	16.84
229.368	13.3
229.585	13.25
229.802	17.21
230.02	19.29
230.237	14.83
230.454	14.35
230.671	14.8
230.888	15.87
231.105	14.06
231.323	15.66
231.54	15.88
231.757	19.46
231.974	20.25
232.191	14.91
232.408	13.63
232.625	19.56
232.842	23.13
233.059	18.49
233.276	12.4
233.493	16.41
233.71	10.55
233.927	6.53
234.144	6.91
234.361	5.53
234.578	-1.95
234.795	-4.45
235.012	-3.86
235.229	-5.28
235.446	2.03
235.663	8.14
235.879	-8.06
236.096	0.09
236.313	2.36
236.53	-2.76
236.747	-6.06
236.964	0.05
237.181	7.14
237.397	11.87
237.614	18.15
237.831	6.81
238.048	11.89
238.264	24.88
238.481	24.3
238.698	20.04
238.915	18.11
239.131	17.01
239.348	12.52
239.565	11.26
239.781	6.1
239.998	2.66
240.215	7.4
240.431	0.95
240.648	-0.99
240.865	-2.76
241.081	0.56
241.298	3.22
241.514	9.21
241.731	11.28
241.947	10.7
242.164	10.17
242.38	9.84
242.597	8.58
242.814	9.45
243.03	9.6
243.246	10.49
243.463	10.74
243.679	7.67
243.896	0.4
244.112	0.66
244.329	2.5
244.545	4.06
244.762	3.92
244.978	4.53
245.194	4.82
245.411	7.3
245.627	7.18
245.843	9.23
246.06	12.22
246.276	15.24
246.492	14.85
246.709	14.62
246.925	14.92
247.141	14.69
247.357	15.59
247.574	17.05
247.79	15.27
248.006	15.4
248.222	15.73
248.439	15.51
248.655	14.7
248.871	14.48
249.087	12.76
249.303	11.17
249.519	10.15
249.736	9.15
249.952	4.11
250.168	3.81
250.384	0.88
250.6	-0.56
250.816	-1.96
251.032	-0.7
251.248	-2.75
251.464	-0.29
251.68	1.17
251.896	2.39
252.112	1.24
252.328	5.02
252.544	6.42
252.76	6.94
252.976	4.16
253.192	3.5
253.408	3.61
253.624	5.57
253.84	5.19
254.056	3.37
254.272	3.06
254.487	6.28
254.703	-0.03
254.919	-0.29
255.135	1.61
255.351	1.35
255.567	4.56
255.782	7.07
255.998	8.48
256.214	7.81
256.43	6.66
256.646	8.48
256.861	2.79
257.077	2.96
257.293	1.81
257.508	4.24
257.724	5.72
257.94	6.15
258.155	5.27
258.371	6.28
258.587	7.27
258.802	9.79
259.018	8.82
259.234	9.87
259.449	11.95
259.665	13.24
259.88	11.63
260.096	12.93
260.312	12.39
260.527	12.3
260.743	13.4
260.958	13.4
261.174	12.75
261.389	13.53
261.605	12.8
261.82	12.08
262.036	10.82
262.251	11.62
262.466	10.19
262.682	9.53
262.897	9.3
263.113	5.14
263.328	3.52
263.543	4.4
263.759	1.5
263.974	3.79
264.189	5.21
264.405	5.53
264.62	5.72
264.835	4.36
265.051	4.74
265.266	7.41
265.481	7.26
265.696	8.48
265.912	6.78
266.127	9.52
266.342	9.88
266.557	9.08
266.773	9.17
266.988	9.6
267.203	9.37
267.418	11.23
267.633	9.83
267.848	9.42
268.064	9.5
268.279	10.81
268.494	9.41
268.709	5.28
268.924	4.62
269.139	4.01
269.354	3.06
269.569	2.16
269.784	1.51
269.999	-0.07
270.214	1.24
270.429	0.83
270.644	-0.38
270.859	2.28
271.074	4.17
271.289	3.69
271.504	5.08
271.719	4.97
271.934	6.53
272.149	4.36
272.363	5.95
272.578	4.77
272.793	4.62
273.008	7.12
273.223	6.74
273.438	9.91
273.653	10.61
273.867	9.06
274.082	9.61
274.297	8.93
274.512	11.49
274.726	9.19
274.941	11.73
275.156	12.43
275.371	10.06
275.585	7.46
275.8	3.68
276.015	4.37
276.229	4.65
276.444	4.16
276.659	3.7
276.873	2.78
277.088	5.27
277.302	2.01
277.517	4.53
277.732	3.6
277.946	6.01
278.161	8.54
278.375	9.26
278.59	8.26
278.804	7.91
279.019	8.22
279.233	7.56
279.448	8.42
279.662	10.67
279.877	8.12
280.091	11.25
280.306	11.1
280.52	11.06
280.735	10.19
280.949	11.06
281.163	11.21
281.378	11.63
281.592	11.77
281.806	10.25
282.021	8.74
282.235	10.51
282.449	8.31
282.664	7.18
282.878	6.39
283.092	5.12
283.307	4.6
283.521	4.2
283.735	3.33
283.949	2.73
284.164	3.97
284.378	5.46
284.592	5.38
284.806	6.9
285.02	7.59
285.234	8.39
285.449	9.2
285.663	8.78
285.877	9.58
286.091	9.59
286.305	10.1
286.519	9.67
286.733	8.94
286.947	7.04
287.161	6.53
287.375	6.63
287.589	7.2
287.803	6.33
288.017	6.27
288.231	3.94
288.445	4.55
288.659	4.02
288.873	4.23
289.087	5.79
289.301	6.52
289.515	5.23
289.729	5.29
289.943	5.11
290.157	6.61
290.371	7.21
290.584	9.63
290.798	9.68
291.012	11.7
291.226	12.82
291.44	11.38
291.654	10.91
291.867	12
292.081	11.08
292.295	10.17
292.509	9.73
292.722	9.04
292.936	7.89
293.15	6.88
293.364	5.79
293.577	3.36
293.791	4.33
294.005	3.96
294.218	4.16
294.432	5.89
294.645	6.91
294.859	7.02
295.073	8.88
295.286	9.82
295.5	10.96
295.713	11.2
295.927	11.1
296.14	11.62
296.354	11.12
296.568	11.51
296.781	11.51
296.994	10.75
297.208	11.24
297.421	10.64
297.635	9.8
297.848	8.71
298.062	8.19
298.275	8.3
298.489	7.55
298.702	8.08
298.915	7.79
299.129	7.54
299.342	6.94
299.555	5.96
299.769	6.38
299.982	7.07
300.195	8.47
300.409	7.82
300.622	8.51
300.835	9.63
301.048	11.42
301.262	11.15
301.475	11.36
301.688	11.68
301.901	10.67
302.115	9.98
302.328	9.97
302.541	8.59
302.754	9.9
302.967	10.52
303.18	8.73
303.393	9.39
303.607	9.57
303.82	10.36
304.033	11.1
304.246	14.53
304.459	14.49
304.672	12.83
304.885	11.81
305.098	10.97
305.311	12.01
305.524	13.81
305.737	12.67
305.95	12.67
306.163	11.74
306.376	11.9
306.589	10.06
306.802	10.5
307.015	11.07
307.228	12.73
307.44	13.87
307.653	12.76
307.866	11.19
308.079	9.92
308.292	10.31
308.505	10.1
308.718	9.2
308.93	8.23
309.143	8.92
309.356	9.5
309.569	12.28
309.781	11.35
309.994	11.26
310.207	12.85
310.42	12.42
310.632	12.84
310.845	12.39
311.058	12.93
311.27	13.6
311.483	13.01
311.696	14.09
311.908	12.5
312.121	13.49
312.333	14.39
312.546	14.78
312.759	16.04
312.971	15.57
313.184	17.63
313.396	16.93
313.609	18.27
313.821	18.6
314.034	16.87
314.246	18.2
314.459	17.24
314.671	15.29
314.884	12.44
315.096	11.99
315.309	13.02
315.521	11.61
315.733	11.8
315.946	8.74
316.158	9.34
316.371	10.64
316.583	7.95
316.795	6.49
317.008	8.7
317.22	10.68
317.432	10.33
317.644	8.67
317.857	10.28
318.069	9.68
318.281	10.98
318.494	11.78
318.706	12.69
318.918	14.36
319.13	15.53
319.342	13.43
319.555	14.57
319.767	13.78
319.979	14.47
320.191	14.02
320.403	17.26
320.615	16.39
320.827	16.42
321.039	16.64
321.252	17.76
321.464	15.73
321.676	17.28
321.888	14.24
322.1	15.1
322.312	15.64
322.524	14.44
322.736	13.1
322.948	16.03
323.16	13.85
323.372	14.09
323.584	10.92
323.796	13.65
324.007	13.99
324.219	14.3
324.431	15.82
324.643	15.99
324.855	15.36
325.067	15.44
325.279	13.41
325.491	15.52
325.702	13.39
325.914	16.87
326.126	16.54
326.338	15.04
326.55	16.08
326.761	14.13
326.973	13.05
327.185	14.2
327.396	12.35
327.608	11.16
327.82	9.57
328.032	11.46
328.243	9.06
328.455	9.22
328.666	10.11
328.878	10.48
329.09	12.65
329.301	12.32
329.513	12.5
329.725	14.67
329.936	15.94
330.148	15.33
330.359	13.7
330.571	15.14
330.782	14.63
330.994	16.63
331.205	15.63
331.417	14.62
331.628	15
331.84	14.5
332.051	13.97
332.262	15.09
332.474	16.08
332.685	18.1
332.897	15.44
333.108	15.32
333.319	12.82
333.531	14.35
333.742	13.98
333.953	14.98
334.165	15.18
334.376	15.9
334.587	16.34
334.799	16.55
335.01	14.97
335.221	17.07
335.432	16.39
335.644	18.02
335.855	16.88
336.066	17.05
336.277	15.89
336.488	16.27
336.7	16.65
336.911	17.49
337.122	19.75
337.333	20.68
337.544	20.08
337.755	20.12
337.966	19.46
338.177	20.02
338.388	20.15
338.599	21.36
338.811	21.43
339.022	20.46
339.233	19.27
339.444	16.05
339.655	14.49
339.866	15.71
340.076	18.37
340.287	18.17
340.498	19.79
340.709	18.2
340.92	18.43
341.131	17.79
341.342	18.18
341.553	18.96
341.764	19.7
341.975	20.04
342.185	20.53
342.396	17.7
342.607	17.45
342.818	15.86
343.029	18.22
343.239	16.79
343.45	17.67
343.661	17.48
343.872	15.62
344.082	15.72
344.293	16.62
344.504	14.34
344.714	16.24
344.925	17
345.136	17.23
345.346	16.49
345.557	17.18
345.768	18.27
345.978	19.45
346.189	20.59
346.399	21.28
346.61	21.23
346.821	22.63
347.031	22.08
347.242	22.18
347.452	23.07
347.663	23.82
347.873	24.46
348.084	22.28
348.294	20.77
348.504	20.61
348.715	19.21
348.925	19.8
349.136	19.26
349.346	19.13
349.557	18.43
349.767	17.18
349.977	17.67
350.188	18.07
350.398	19.45
350.608	19.51
350.819	17.88
351.029	19.8
351.239	18.56
351.449	18.16
351.66	18.83
351.87	20.38
352.08	21.29
352.29	20.26
352.501	20.41
352.711	19.64
352.921	19.22
353.131	21.41
353.341	20.18
353.552	20.7
353.762	20.08
353.972	19.81
354.182	19.36
354.392	19.09
354.602	18.05
354.812	17.6
355.022	18.04
355.232	18.7
355.442	18.41
355.652	18.09
355.862	17.05
356.072	18.43
356.282	18.14
356.492	16.79
356.702	16.61
356.912	18.04
357.122	17.95
357.332	17.6
357.542	16.84
357.752	15.55
357.962	16.44
358.171	16.12
358.381	13.92
358.591	13.42
358.801	13.8
359.011	13.68
359.221	13.87
359.43	13.41
359.64	12.33
359.85	12.41
360.06	13.16
360.269	13.57
360.479	14.66
360.689	15.49
360.899	16
361.108	16.95
361.318	17.11
361.528	16.98
361.737	16.32
361.947	17.47
362.156	18.48
362.366	18.05
362.576	17.86
362.785	17.47
362.995	17.61
363.204	17.99
363.414	17.05
363.623	16.77
363.833	15.89
364.042	16.4
364.252	17.06
364.461	16.3
364.671	16.62
364.88	16.2
365.09	16.12
365.299	16.7
365.509	16.01
365.718	15.66
365.927	15.54
366.137	16.4
366.346	17.13
366.555	17.31
366.765	17.54
366.974	18.25
367.183	18.21
367.393	18.06
367.602	18.22
367.811	18.09
368.021	19.12
368.23	18.88
368.439	18.82
368.648	18.73
368.857	17.08
369.067	16.57
369.276	16.12
369.485	15.95
369.694	17.36
369.903	16.19
370.112	16.03
370.321	16.16
370.531	16.29
370.74	15.4
370.949	14.9
371.158	15.28
371.367	16
371.576	15.97
371.785	16.72
371.994	16.12
372.203	17.29
372.412	17.09
372.621	16.25
372.83	16.13
373.039	15.79
373.248	15.92
373.457	15.16
373.666	13.85
373.874	13.65
374.083	11.69
374.292	11.38
374.501	9.82
374.71	10.17
374.919	10.88
375.128	11.22
375.336	11.81
375.545	10.92
375.754	12.02
375.963	12.83
376.171	12.52
376.38	13.41
376.589	12.79
376.798	13.58
377.006	13.5
377.215	12.92
377.424	12.53
377.632	12.02
377.841	12.27
378.05	11.73
378.258	11.85
378.467	12.08
378.675	11.19
378.884	11.46
379.093	11.58
379.301	11.37
379.51	11.28
379.718	12.02
379.927	12.83
380.135	13.48
380.344	13.98
380.552	13.66
380.761	13.3
380.969	14.54
381.177	14.39
381.386	14.43
381.594	14.47
381.803	14.8
382.011	14.41
382.219	13.59
382.428	13.39
382.636	13.49
382.845	12.74
383.053	12.6
383.261	12.06
383.469	12.6
383.678	12.97
383.886	12.65
384.094	12.27
384.302	11.39
384.511	10.97
384.719	10.45
384.927	9.71
385.135	10.5
385.343	10.66
385.552	10.95
385.76	10.71
385.968	10.03
386.176	10.28
386.384	9.99
386.592	10.7
386.8	11.6
387.008	11.23
387.216	11.43
387.424	11.41
387.633	11.44
387.841	11
388.049	10.92
388.257	11.06
388.465	10.88
388.672	11.07
388.88	11.29
389.088	10.62
389.296	11.01
389.504	10.81
389.712	9.76
389.92	10
390.128	9.46
390.336	9.19
390.544	9.12
390.751	9.22
390.959	9.4
391.167	8.83
391.375	8.54
391.583	9.25
391.79	9.26
391.998	10.07
392.206	10.14
392.414	10.4
392.621	10.58
392.829	10.71
393.037	10.87
393.244	10.78
393.452	11.19
393.66	11.42
393.867	10.73
394.075	10.55
394.283	10.86
394.49	10.47
394.698	10.89
394.905	11.08
395.113	10.88
395.32	10.27
395.528	9.96
395.735	9.71
395.943	10.22
396.15	10.58
396.358	10.64
396.565	10.14
396.773	10.02
396.98	10.08
397.188	9.42
397.395	9.57
397.602	9.67
397.81	9.72
398.017	9.1
398.225	9.01
398.432	8.42
398.639	8.47
398.847	8.79
399.054	8.77
399.261	8.18
399.468	8.41
399.676	7.81
399.883	8.12
400.09	8.07
400.297	8.26
400.505	7.73
400.712	8.04
400.919	8.31
401.126	8
401.333	7.93
401.54	7.81
401.748	7.39
401.955	7.7
402.162	7.37
402.369	7.56
402.576	8.01
402.783	7.99
402.99	7.98
403.197	7.53
403.404	7.65
403.611	7.57
403.818	7.85
404.025	7.91
404.232	7.96
404.439	7.82
404.646	7.35
404.853	7.04
405.06	7.27
405.267	7.45
405.474	7.47
405.681	7.36
405.887	7.52
406.094	7.49
406.301	7.69
406.508	7.57
406.715	7.99
406.922	8.38
407.128	8.4
407.335	8.05
407.542	7.85
407.749	7.98
407.955	7.78
408.162	7.94
408.369	7.78
408.575	8.01
408.782	8.15
408.989	7.77
409.195	7.61
409.402	7.49
409.609	7.87
409.815	7.91
410.022	8.17
410.228	8.08
410.435	7.74
410.642	7.72
410.848	7.79
411.055	7.52
411.261	8.1
411.468	8.03
411.674	8.11
411.881	7.79
412.087	7.82
412.294	7.62
412.5	7.66
412.706	8.04
412.913	8.34
413.119	8.1
413.326	8.59
413.532	7.95
413.738	8.45
413.945	8.66
414.151	9.08
414.357	9.09
414.564	8.88
414.77	8.94
414.976	8.72
415.182	8.79
415.389	8.85
415.595	8.83
415.801	9.16
416.007	8.9
416.214	8.51
416.42	8.27
416.626	8.06
416.832	8.2
417.038	8.16
417.244	7.97
417.45	7.74
417.657	7.62
417.863	7.41
418.069	7.16
418.275	7.19
418.481	7.51
418.687	7.61
418.893	7.62
419.099	7.6
419.305	7.52
419.511	7.62
419.717	7.7
419.923	7.69
420.129	7.73
420.335	7.82
420.541	7.76
420.746	7.74
420.952	7.76
421.158	7.81
421.364	7.72
421.57	7.59
421.776	7.68
421.982	7.59
422.187	7.76
422.393	7.76
422.599	7.72
422.805	7.75
423.01	7.88
423.216	7.78
423.422	7.65
423.628	7.78
423.833	7.9
424.039	7.62
424.245	7.67
424.45	7.5
424.656	7.46
424.862	7.54
425.067	7.65
425.273	7.48
425.478	7.52
425.684	7.65
425.889	7.39
426.095	7.44
426.301	7.61
426.506	7.74
426.712	7.66
426.917	7.55
427.123	7.49
427.328	7.53
427.533	7.29
427.739	7.28
427.944	7.11
428.15	7.38
428.355	7.43
428.561	7.41
428.766	7.28
428.971	7.43
429.177	7.55
429.382	7.36
429.587	7.15
429.793	7.24
429.998	7.07
430.203	7.1
430.408	6.88
430.614	6.89
430.819	6.93
431.024	6.96
431.229	6.73
431.434	6.39
431.64	6.67
431.845	6.72
432.05	6.7
432.255	7.02
432.46	7.22
432.665	7.33
432.87	7.29
433.076	7.31
433.281	7.33
433.486	7.29
433.691	7.55
433.896	7.58
434.101	7.3
434.306	7.26
434.511	6.91
434.716	6.9
434.921	7.02
435.126	7.04
435.331	6.87
435.535	6.7
435.74	6.86
435.945	6.57
436.15	6.22
436.355	6.39
436.56	6.45
436.765	6.73
436.97	6.71
437.174	6.69
437.379	6.73
437.584	6.92
437.789	6.97
437.993	6.99
438.198	7.22
438.403	7.51
438.608	7.47
438.812	7.53
439.017	7.48
439.222	7.51
439.426	7.48
439.631	7.42
439.836	7.46
440.04	7.55
440.245	7.52
440.45	7.45
440.654	7.44
440.859	7.55
441.063	7.4
441.268	7.34
441.472	7.2
441.677	7.07
441.881	6.98
442.086	6.81
442.29	6.68
442.495	6.62
442.699	6.54
442.904	6.18
443.108	5.99
443.312	6.05
443.517	5.95
443.721	5.97
443.925	5.96
444.13	6.03
444.334	6.07
444.538	6.25
444.743	6.44
444.947	6.56
445.151	7.02
445.356	7.17
445.56	7.23
445.764	7.28
445.968	7.21
446.173	7.39
446.377	7.29
446.581	7.19
446.785	7.17
446.989	6.93
447.193	7.04
447.398	6.97
447.602	6.87
447.806	6.88
448.01	6.93
448.214	6.98
448.418	6.8
448.622	6.97
448.826	7.21
449.03	7.04
449.234	7.18
449.438	7.15
449.642	7.04
449.846	7.02
450.05	7.12
450.254	7.02
450.458	7.1
450.662	7.07
450.866	7.08
451.069	6.97
451.273	7.02
451.477	7.05
451.681	6.97
451.885	6.87
452.089	6.96
452.292	6.72
452.496	6.88
452.7	6.72
452.904	6.8
453.107	6.69
453.311	6.53
453.515	6.49
453.719	6.37
453.922	6.49
454.126	6.55
454.33	6.39
454.533	6.62
454.737	6.61
454.94	6.56
455.144	6.48
455.348	6.5
455.551	6.58
455.755	6.74
455.958	6.83
456.162	6.6
456.365	6.81
456.569	7.07
456.772	6.84
456.976	6.64
457.179	6.51
457.383	6.55
457.586	6.75
457.79	6.89
457.993	6.74
458.196	6.91
458.4	7.08
458.603	6.73
458.807	6.47
459.01	6.43
459.213	6.64
459.417	6.84
459.62	6.8
459.823	6.68
460.026	6.67
460.23	6.72
460.433	6.68
460.636	6.58
460.839	6.73
461.042	6.73
461.246	6.89
461.449	6.76
461.652	6.73
461.855	6.75
462.058	6.62
462.261	6.46
462.464	6.3
462.668	6.3
