Data from 2937822_Reflection_2.txt Node
Date: Wed Jul 15 17:16:24 EDT 2015
User: robert
Spectrometer: USB4E03001
Autoset integration time: false
Trigger mode: 4
Integration Time (sec): 1.000000E-1
Scans to average: 10
Electric dark correction enabled: true
Nonlinearity correction enabled: false
Boxcar width: 5
Stray light correction enabled: false
XAxis mode: Wavelengths
Stop averaging: false
Number of Pixels in Spectrum: 3648
>>>>>Begin Spectral Data<<<<<
177.566	458.8
177.785	238.19
178.005	237.69
178.225	-347.5
178.445	20.83
178.665	105.75
178.885	58.07
179.105	133.44
179.324	70.52
179.544	96.35
179.764	21.61
179.984	-0.66
180.204	35.3
180.423	-20.87
180.643	-653.68
180.863	-50.74
181.083	-57.06
181.302	-72.64
181.522	-301.8
181.742	-61
181.961	-88.34
182.181	-376.12
182.401	3820.24
182.621	266.38
182.84	-150.04
183.06	-58.28
183.279	-65.65
183.499	-76.97
183.719	-219.8
183.938	-134.8
184.158	-90.47
184.377	-20.61
184.597	-21.41
184.816	-5.21
185.036	-0.6
185.256	-83.73
185.475	-62.25
185.695	-136.98
185.914	-101.05
186.134	-9.94
186.353	-20.39
186.572	-32.29
186.792	-32.55
187.011	-118.07
187.231	-126.76
187.45	-131.66
187.67	-85.48
187.889	-108.74
188.108	-245.94
188.328	-406.22
188.547	-1803.78
188.766	523.72
188.986	586.32
189.205	662.54
189.424	-68.01
189.644	-128.04
189.863	-139.17
190.082	-85.91
190.302	-104.26
190.521	-26.18
190.74	-32.28
190.959	-16.79
191.178	-25.15
191.398	-13.1
191.617	-12.58
191.836	-45.77
192.055	-30.59
192.274	-14.64
192.494	-6.01
192.713	14.35
192.932	-22.89
193.151	-31.3
193.37	-48.19
193.589	-28.98
193.808	-28.05
194.027	-13.96
194.246	-7.58
194.465	-10.14
194.685	-6.29
194.904	-29.58
195.123	-6.69
195.342	-34.95
195.561	-48.13
195.78	-27.81
195.999	-21.74
196.218	-42.43
196.436	-173.8
196.655	-172.3
196.874	-202.63
197.093	-209.55
197.312	-144.81
197.531	-433.22
197.75	-130.05
197.969	-147.69
198.188	-7124.71
198.407	355.48
198.625	391.98
198.844	381.67
199.063	468.26
199.282	846.09
199.501	422.85
199.719	398.84
199.938	251.37
200.157	359.66
200.376	425.08
200.594	370.53
200.813	980.31
201.032	-331.17
201.251	-18255
201.469	-196.44
201.688	15.54
201.907	46.94
202.125	-45.33
202.344	8.22
202.563	-300.39
202.781	-36.98
203	-131.82
203.218	-77.55
203.437	-72.44
203.656	-91.37
203.874	-118.64
204.093	-88.73
204.311	-78.52
204.53	-40.85
204.748	-62.28
204.967	-9.33
205.185	-19.19
205.404	6.41
205.622	-30.92
205.841	-100.07
206.059	-75.61
206.278	-57.36
206.496	-91.77
206.715	-126.13
206.933	-290.83
207.151	-227.81
207.37	-251.98
207.588	-143.91
207.806	-175.31
208.025	-403.77
208.243	-345.86
208.461	2285.77
208.68	792.6
208.898	419.82
209.116	131
209.335	53.57
209.553	32.78
209.771	-52.52
209.989	66.46
210.208	58.27
210.426	56.56
210.644	244.57
210.862	-70.81
211.081	300.69
211.299	-48442.86
211.517	-24.99
211.735	-38.4
211.953	-15.02
212.171	-49.24
212.39	-82.28
212.608	-82.16
212.826	-64.68
213.044	-25.87
213.262	-37.61
213.48	-27.89
213.698	-13.62
213.916	-20.37
214.134	-29.78
214.352	-32.92
214.57	-3.89
214.788	-24.71
215.006	-5.7
215.224	-15.07
215.442	-24.02
215.66	-4.05
215.878	21.76
216.096	8.73
216.314	12.42
216.532	4.23
216.75	20.76
216.968	6.61
217.185	32.87
217.403	31.51
217.621	7.99
217.839	-4.72
218.057	-156.1
218.275	-402.88
218.492	-127.89
218.71	-1722.29
218.928	492.02
219.146	396.44
219.363	293.06
219.581	265.52
219.799	370.09
220.017	319.04
220.234	294.54
220.452	711.12
220.67	888.32
220.887	361.45
221.105	332.74
221.323	314.43
221.54	280.17
221.758	190.02
221.976	141.74
222.193	228.8
222.411	38.93
222.629	-10.04
222.846	5.03
223.064	88.31
223.281	49.14
223.499	39.13
223.716	36.2
223.934	39.32
224.151	38.39
224.369	27.16
224.586	0.28
224.804	46.29
225.021	76.09
225.239	58.69
225.456	3.5
225.674	25.32
225.891	9.78
226.108	6.37
226.326	16.51
226.543	26.63
226.76	31.49
226.978	33.39
227.195	47.58
227.413	38.63
227.63	40.64
227.847	42.12
228.064	39.25
228.282	35.31
228.499	33.33
228.716	26.92
228.934	22.54
229.151	22.77
229.368	18.37
229.585	15.1
229.802	15.86
230.02	15.39
230.237	13.28
230.454	14.56
230.671	17.42
230.888	18.78
231.105	19.9
231.323	23.29
231.54	26.72
231.757	33.91
231.974	37.81
232.191	37.24
232.408	39.46
232.625	44.52
232.842	46.31
233.059	41.46
233.276	34.62
233.493	37.99
233.71	36.12
233.927	38.07
234.144	38.35
234.361	35.52
234.578	38.85
234.795	37.16
235.012	29.59
235.229	26.48
235.446	30.44
235.663	34.09
235.879	33.39
236.096	25.11
236.313	30.67
236.53	30.15
236.747	25.37
236.964	21.37
237.181	13.58
237.397	19.17
237.614	21.48
237.831	29.32
238.048	27.68
238.264	25.58
238.481	34.78
238.698	29.69
238.915	28.26
239.131	32.62
239.348	35.98
239.565	39.87
239.781	36.74
239.998	38.86
240.215	32.51
240.431	33.65
240.648	34.47
240.865	32.11
241.081	26.73
241.298	24.79
241.514	24.77
241.731	23.23
241.947	21.55
242.164	21.19
242.38	20.2
242.597	21.01
242.814	18.58
243.03	16.15
243.246	15.66
243.463	18.99
243.679	21.2
243.896	18.42
244.112	17.89
244.329	20.35
244.545	20.35
244.762	17.7
244.978	19.32
245.194	23
245.411	23.71
245.627	24.92
245.843	23.56
246.06	19.79
246.276	20.21
246.492	18.09
246.709	17.6
246.925	17.3
247.141	17.2
247.357	15.88
247.574	15.1
247.79	14.98
248.006	14.96
248.222	14.12
248.439	15.63
248.655	15.85
248.871	16.82
249.087	16.3
249.303	16.75
249.519	16.46
249.736	16.5
249.952	16.11
250.168	17.47
250.384	14.66
250.6	15.61
250.816	14.35
251.032	15.73
251.248	16.27
251.464	15.02
251.68	17.55
251.896	19.05
252.112	19.17
252.328	18.95
252.544	17.94
252.76	18.02
252.976	19.31
253.192	19.65
253.408	18.65
253.624	17.47
253.84	20.46
254.056	18.89
254.272	18.22
254.487	18.54
254.703	16.9
254.919	16.73
255.135	18.78
255.351	15.8
255.567	12.61
255.782	13.97
255.998	13.3
256.214	6.59
256.43	6.41
256.646	10.2
256.861	8.64
257.077	11.96
257.293	10.58
257.508	10.85
257.724	11.25
257.94	11.35
258.155	8.38
258.371	9.93
258.587	12.46
258.802	12.57
259.018	10.32
259.234	10.8
259.449	9.85
259.665	11.71
259.88	12.1
260.096	12.13
260.312	12.31
260.527	13.26
260.743	13.65
260.958	13.52
261.174	12.68
261.389	12.89
261.605	12.95
261.82	14.33
262.036	13
262.251	12.63
262.466	11.65
262.682	11.61
262.897	11
263.113	10.26
263.328	10.62
263.543	12.05
263.759	11.59
263.974	12.57
264.189	11.61
264.405	12.23
264.62	13.31
264.835	12.87
265.051	11.86
265.266	13.17
265.481	13.26
265.696	13.02
265.912	13.71
266.127	14.11
266.342	13.31
266.557	14.32
266.773	15.35
266.988	14.69
267.203	15.39
267.418	17.3
267.633	16.96
267.848	16.38
268.064	15.99
268.279	16.15
268.494	17.45
268.709	17.25
268.924	16.04
269.139	15.11
269.354	14.19
269.569	15.08
269.784	13.72
269.999	10.67
270.214	10.46
270.429	8.71
270.644	8.89
270.859	7.33
271.074	8.08
271.289	9.53
271.504	8.74
271.719	8.86
271.934	7.49
272.149	8.11
272.363	9.63
272.578	10.18
272.793	11.86
273.008	11.52
273.223	12.98
273.438	14.13
273.653	13.95
273.867	12.95
274.082	14.27
274.297	16.51
274.512	16.53
274.726	17.86
274.941	16.68
275.156	15.06
275.371	13.97
275.585	12.99
275.8	11.42
276.015	11.58
276.229	14.43
276.444	12.08
276.659	11.06
276.873	10.36
277.088	8.69
277.302	10.34
277.517	11.44
277.732	12.82
277.946	13.69
278.161	11.97
278.375	12.08
278.59	9
278.804	11.13
279.019	9.38
279.233	10.27
279.448	10.57
279.662	9.05
279.877	8.52
280.091	7.27
280.306	6.61
280.52	6.96
280.735	7.77
280.949	8.48
281.163	7.92
281.378	9.95
281.592	10.53
281.806	9.6
282.021	10.39
282.235	10.07
282.449	10.13
282.664	10.75
282.878	11.65
283.092	10.59
283.307	11.12
283.521	11.85
283.735	11.99
283.949	11.19
284.164	11.6
284.378	10.07
284.592	10.97
284.806	12.33
285.02	12.18
285.234	12.02
285.449	13.73
285.663	14.82
285.877	13.25
286.091	13.17
286.305	12.74
286.519	14.17
286.733	16.07
286.947	15.4
287.161	15.41
287.375	14.81
287.589	16.49
287.803	15.72
288.017	14.45
288.231	14.47
288.445	14.12
288.659	15.4
288.873	14.14
289.087	14.06
289.301	16.02
289.515	15.34
289.729	15.78
289.943	13.55
290.157	14.44
290.371	14.79
290.584	15.91
290.798	16.22
291.012	15.55
291.226	16.54
291.44	16.34
291.654	14.67
291.867	16
292.081	17.36
292.295	18.04
292.509	16.01
292.722	15.64
292.936	17.28
293.15	17
293.364	17.22
293.577	16.06
293.791	16.32
294.005	17.53
294.218	15.86
294.432	14.51
294.645	15.11
294.859	17.57
295.073	19.07
295.286	17.3
295.5	17.24
295.713	17.59
295.927	17.56
296.14	17.29
296.354	17.21
296.568	16.66
296.781	17.34
296.994	16.95
297.208	15.62
297.421	14.89
297.635	14.73
297.848	15.47
298.062	15.38
298.275	16.29
298.489	16.14
298.702	15.67
298.915	16.21
299.129	15.2
299.342	16.77
299.555	16.83
299.769	17.97
299.982	17.83
300.195	18.94
300.409	18.26
300.622	16.56
300.835	15.45
301.048	14.22
301.262	14.05
301.475	13.94
301.688	13.27
301.901	11.31
302.115	9.45
302.328	10.05
302.541	8.53
302.754	8.35
302.967	9.34
303.18	9.87
303.393	11.36
303.607	10.59
303.82	12.29
304.033	10.88
304.246	14.46
304.459	15.17
304.672	16.13
304.885	17.29
305.098	17.52
305.311	16.73
305.524	17.14
305.737	17.25
305.95	19.05
306.163	19
306.376	19.53
306.589	17.7
306.802	18.44
307.015	16.42
307.228	13.7
307.44	13.5
307.653	14.66
307.866	13.02
308.079	12.44
308.292	11.79
308.505	8.2
308.718	9.84
308.93	8.97
309.143	9.57
309.356	11.13
309.569	12.05
309.781	12.3
309.994	12.95
310.207	14.12
310.42	14.35
310.632	14.85
310.845	16.23
311.058	15.77
311.27	16.13
311.483	15.46
311.696	15.35
311.908	15.42
312.121	16.26
312.333	16.05
312.546	15.13
312.759	16.74
312.971	15.38
313.184	15.45
313.396	14.71
313.609	14.65
313.821	15.07
314.034	15.01
314.246	14.46
314.459	12.57
314.671	12.15
314.884	13.58
315.096	12.01
315.309	14.41
315.521	15.75
315.733	14.12
315.946	15.02
316.158	14.48
316.371	16.25
316.583	15.49
316.795	16.96
317.008	17.18
317.22	16.31
317.432	16.56
317.644	16.63
317.857	17.33
318.069	18.42
318.281	18.16
318.494	19.07
318.706	16.64
318.918	18.15
319.13	17.12
319.342	17.35
319.555	18.64
319.767	17.48
319.979	13.6
320.191	10.54
320.403	10.23
320.615	11.02
320.827	9.39
321.039	9.44
321.252	9.13
321.464	10.22
321.676	9.04
321.888	8.52
322.1	11.06
322.312	12.47
322.524	13.98
322.736	15.22
322.948	15.44
323.16	17.02
323.372	15.79
323.584	14.94
323.796	15.83
324.007	17.15
324.219	17.4
324.431	15.72
324.643	15.88
324.855	16.2
325.067	17.36
325.279	17.12
325.491	17.21
325.702	18.22
325.914	19.46
326.126	18.06
326.338	16.64
326.55	16.52
326.761	15.76
326.973	15.49
327.185	14.71
327.396	13.69
327.608	12.32
327.82	11.66
328.032	11.33
328.243	10.14
328.455	8.66
328.666	8.73
328.878	8.79
329.09	9.95
329.301	10.39
329.513	10.87
329.725	9.57
329.936	11.04
330.148	11.86
330.359	11.77
330.571	12.32
330.782	14.19
330.994	13.82
331.205	13.91
331.417	13.9
331.628	14.08
331.84	14.26
332.051	16.38
332.262	15.33
332.474	12.89
332.685	12.91
332.897	13.28
333.108	13.78
333.319	15.4
333.531	16.6
333.742	17.31
333.953	17.28
334.165	15.55
334.376	14.36
334.587	15.04
334.799	15.93
335.01	16.1
335.221	16.56
335.432	16.89
335.644	17.88
335.855	16.49
336.066	16.57
336.277	17
336.488	18.8
336.7	19.55
336.911	20
337.122	21.46
337.333	21.26
337.544	19.9
337.755	20.16
337.966	18.59
338.177	19.16
338.388	18.82
338.599	18.63
338.811	17.59
339.022	17.05
339.233	16.38
339.444	14.25
339.655	13.33
339.866	12.89
340.076	11.44
340.287	11.46
340.498	11.32
340.709	10.55
340.92	10.87
341.131	12.45
341.342	12.38
341.553	11.42
341.764	11.38
341.975	13.4
342.185	13.93
342.396	15.47
342.607	16.55
342.818	16.24
343.029	15.2
343.239	15.4
343.45	14.56
343.661	14.73
343.872	15.29
344.082	17.02
344.293	17.58
344.504	18.12
344.714	16.75
344.925	15.5
345.136	16.57
345.346	18.5
345.557	17.65
345.768	17.91
345.978	17.65
346.189	18.71
346.399	18.52
346.61	18.09
346.821	17.44
347.031	16.88
347.242	16.67
347.452	15.64
347.663	15.77
347.873	16.19
348.084	15.97
348.294	16.98
348.504	16.3
348.715	15.71
348.925	14.68
349.136	15.56
349.346	16.78
349.557	16.01
349.767	14.78
349.977	15.51
350.188	15.65
350.398	15.56
350.608	14.73
350.819	13.72
351.029	14.37
351.239	14.18
351.449	13.45
351.66	12.99
351.87	13.45
352.08	14.56
352.29	12.99
352.501	13.47
352.711	14.54
352.921	13
353.131	14.22
353.341	13.2
353.552	13.3
353.762	14.4
353.972	14.43
354.182	15.76
354.392	14.88
354.602	15.5
354.812	14.52
355.022	13.22
355.232	13.54
355.442	13.75
355.652	13.57
355.862	14.2
356.072	13.52
356.282	13.67
356.492	12.88
356.702	13.16
356.912	13.6
357.122	12.76
357.332	13.83
357.542	13.64
357.752	13.8
357.962	13.93
358.171	13.38
358.381	12.72
358.591	12.94
358.801	13.57
359.011	13.95
359.221	12.71
359.43	13.05
359.64	12.86
359.85	13.62
360.06	12.67
360.269	13.58
360.479	13.98
360.689	14.52
360.899	15.02
361.108	13.94
361.318	13.71
361.528	14.53
361.737	14.62
361.947	13.86
362.156	14.17
362.366	15.1
362.576	14.38
362.785	14.32
362.995	14.5
363.204	13.41
363.414	13.5
363.623	13
363.833	12.48
364.042	12.69
364.252	13.33
364.461	12.79
364.671	12
364.88	11.9
365.09	12.38
365.299	10.6
365.509	11.58
365.718	12.37
365.927	13.36
366.137	14.2
366.346	13.92
366.555	12.53
366.765	11.46
366.974	10.95
367.183	10.98
367.393	9.85
367.602	11.57
367.811	11.43
368.021	12
368.23	11.67
368.439	11.55
368.648	12.27
368.857	13.83
369.067	14.8
369.276	16.1
369.485	15.49
369.694	16.93
369.903	16.94
370.112	16.8
370.321	15.98
370.531	16.8
370.74	15.55
370.949	15.46
371.158	15.47
371.367	15.47
371.576	14.53
371.785	15.67
371.994	14.26
372.203	13.87
372.412	13.26
372.621	13.3
372.83	12.2
373.039	12.79
373.248	12.8
373.457	11.24
373.666	11.09
373.874	11.27
374.083	10.33
374.292	10.94
374.501	10.76
374.71	10.89
374.919	10.64
375.128	10.91
375.336	10.74
375.545	10.05
375.754	11.12
375.963	10.73
376.171	10.06
376.38	10.23
376.589	9.33
376.798	9.26
377.006	9.82
377.215	9.65
377.424	9.35
377.632	9.1
377.841	9.03
378.05	8.55
378.258	8.98
378.467	9.48
378.675	8.86
378.884	9.46
379.093	9.61
379.301	9.17
379.51	8.96
379.718	9.57
379.927	9.8
380.135	10.25
380.344	10.48
380.552	10.18
380.761	9.47
380.969	9.95
381.177	9.89
381.386	9.97
381.594	9.75
381.803	9.86
382.011	8.89
382.219	8.38
382.428	8.64
382.636	8.49
382.845	8.88
383.053	9.53
383.261	9.37
383.469	8.68
383.678	8.09
383.886	8.95
384.094	9.08
384.302	9.34
384.511	9.25
384.719	8.87
384.927	8.82
385.135	8.5
385.343	8.65
385.552	8.7
385.76	8.9
385.968	9.18
386.176	8.15
386.384	8.01
386.592	7.95
386.8	8.15
387.008	8.38
387.216	8.13
387.424	7.7
387.633	7.61
387.841	7.63
388.049	8.02
388.257	8.18
388.465	8.63
388.672	8.74
388.88	8.87
389.088	8.9
389.296	8.64
389.504	9.07
389.712	9.64
389.92	9.14
390.128	8.95
390.336	8.27
390.544	8.34
390.751	8.02
390.959	8.02
391.167	8.01
391.375	8.01
391.583	8.07
391.79	7.77
391.998	7.78
392.206	7.53
392.414	7.37
392.621	7.79
392.829	7.48
393.037	7.74
393.244	7.86
393.452	7.87
393.66	7.73
393.867	7.61
394.075	7.6
394.283	7.27
394.49	7.53
394.698	8.09
394.905	8.1
395.113	8.06
395.32	7.62
395.528	7.48
395.735	7.35
395.943	7.22
396.15	6.84
396.358	6.56
396.565	6.55
396.773	6.5
396.98	6.29
397.188	5.98
397.395	5.56
397.602	5.58
397.81	5
398.017	5.01
398.225	5.22
398.432	5.34
398.639	5.83
398.847	5.9
399.054	5.95
399.261	5.68
399.468	6.12
399.676	6.92
399.883	6.84
400.09	7.31
400.297	7.29
400.505	7.11
400.712	7.33
400.919	7.2
401.126	7.13
401.333	6.88
401.54	6.79
401.748	6.6
401.955	6.29
402.162	6.48
402.369	6
402.576	5.81
402.783	6.06
402.99	5.8
403.197	5.76
403.404	5.93
403.611	5.93
403.818	6.06
404.025	6.12
404.232	6
404.439	5.79
404.646	6.02
404.853	6.26
405.06	6.06
405.267	6.13
405.474	6.21
405.681	6.19
405.887	6.36
406.094	6.43
406.301	6.36
406.508	6.27
406.715	6.35
406.922	6.68
407.128	6.82
407.335	6.21
407.542	6.26
407.749	5.64
407.955	5.74
408.162	5.65
408.369	5.94
408.575	6.06
408.782	6.31
408.989	6.28
409.195	6.3
409.402	5.73
409.609	6.43
409.815	6.67
410.022	7.4
410.228	7.36
410.435	7.54
410.642	7.21
410.848	7.06
411.055	7.08
411.261	7.19
411.468	6.76
411.674	7.21
411.881	6.95
412.087	6.81
412.294	6.42
412.5	6.01
412.706	6
412.913	5.95
413.119	5.85
413.326	5.5
413.532	5.49
413.738	5.95
413.945	5.93
414.151	6.03
414.357	5.82
414.564	5.94
414.77	5.83
414.976	6.06
415.182	6.18
415.389	5.95
415.595	6.28
415.801	6.35
416.007	5.94
416.214	5.94
416.42	6
416.626	6.31
416.832	6.3
417.038	6.46
417.244	6.63
417.45	6.5
417.657	6.95
417.863	6.63
418.069	6.41
418.275	6.37
418.481	6.41
418.687	6.64
418.893	6.51
419.099	6.67
419.305	6.86
419.511	6.53
419.717	6.56
419.923	6.56
420.129	6.74
420.335	6.98
420.541	7.16
420.746	7.19
420.952	6.87
421.158	6.74
421.364	6.49
421.57	6.36
421.776	6.36
421.982	6.43
422.187	6.31
422.393	6.2
422.599	6.12
422.805	6.14
423.01	5.99
423.216	6.05
423.422	6.11
423.628	6.17
423.833	6.17
424.039	6.06
424.245	6.09
424.45	6.1
424.656	6.13
424.862	6.04
425.067	5.82
425.273	5.98
425.478	5.91
425.684	5.83
425.889	5.96
426.095	5.95
426.301	6.13
426.506	5.79
426.712	5.61
426.917	5.81
427.123	5.62
427.328	5.73
427.533	5.61
427.739	5.72
427.944	5.82
428.15	5.52
428.355	5.62
428.561	5.75
428.766	5.9
428.971	6.04
429.177	5.81
429.382	6.15
429.587	6.17
429.793	6.03
429.998	6.27
430.203	6.3
430.408	6.52
430.614	6.64
430.819	6.19
431.024	6.33
431.229	6.11
431.434	6.13
431.64	5.97
431.845	6.42
432.05	6.43
432.255	6.18
432.46	6.19
432.665	6.06
432.87	5.79
433.076	5.81
433.281	5.81
433.486	6.03
433.691	5.97
433.896	6.1
434.101	5.75
434.306	5.69
434.511	5.56
434.716	5.54
434.921	5.67
435.126	5.73
435.331	5.81
435.535	5.92
435.74	5.96
435.945	5.66
436.15	5.7
436.355	5.69
436.56	5.61
436.765	5.86
436.97	5.98
437.174	6.12
437.379	6.08
437.584	6.27
437.789	6.15
437.993	6.17
438.198	6.43
438.403	6.42
438.608	6.45
438.812	6.51
439.017	6.4
439.222	6.3
439.426	6.15
439.631	6.12
439.836	5.96
440.04	5.95
440.245	5.87
440.45	5.84
440.654	5.77
440.859	5.82
441.063	5.89
441.268	5.81
441.472	5.83
441.677	5.66
441.881	5.74
442.086	5.9
442.29	5.86
442.495	5.81
442.699	5.79
442.904	5.76
443.108	5.73
443.312	5.61
443.517	5.72
443.721	5.64
443.925	5.71
444.13	5.67
444.334	5.62
444.538	5.47
444.743	5.55
444.947	5.71
445.151	5.72
445.356	5.64
445.56	5.58
445.764	5.63
445.968	5.79
446.173	5.8
446.377	5.93
446.581	5.93
446.785	5.86
446.989	5.75
447.193	5.72
447.398	5.76
447.602	5.73
447.806	5.83
448.01	5.6
448.214	5.66
448.418	5.62
448.622	5.57
448.826	5.47
449.03	5.6
449.234	5.7
449.438	5.7
449.642	5.47
449.846	5.47
450.05	5.43
450.254	5.66
450.458	5.41
450.662	5.51
450.866	5.41
451.069	5.49
451.273	5.44
451.477	5.54
451.681	5.42
451.885	5.76
452.089	5.91
452.292	5.81
452.496	5.93
452.7	5.94
452.904	5.77
453.107	5.98
453.311	5.81
453.515	5.92
453.719	5.85
453.922	5.68
454.126	5.63
454.33	5.46
454.533	5.72
454.737	5.7
454.94	5.54
455.144	5.85
455.348	5.65
455.551	5.9
455.755	5.7
455.958	5.54
456.162	5.74
456.365	5.63
456.569	5.84
456.772	5.8
456.976	5.81
457.179	5.96
457.383	5.69
457.586	5.63
457.79	5.51
457.993	5.59
458.196	5.65
458.4	5.66
458.603	5.59
458.807	5.45
459.01	5.33
459.213	5.2
459.417	5.12
459.62	5.29
459.823	5.3
460.026	5.36
460.23	5.43
460.433	5.47
460.636	5.55
460.839	5.52
461.042	5.6
461.246	5.58
