Data from 2937817_Reflection_3.txt Node
Date: Wed Jul 15 17:29:35 EDT 2015
User: robert
Spectrometer: USB4E03001
Autoset integration time: false
Trigger mode: 4
Integration Time (sec): 1.000000E-1
Scans to average: 10
Electric dark correction enabled: true
Nonlinearity correction enabled: false
Boxcar width: 5
Stray light correction enabled: false
XAxis mode: Wavelengths
Stop averaging: false
Number of Pixels in Spectrum: 3648
>>>>>Begin Spectral Data<<<<<
177.566	729.13
177.785	219.06
178.005	48.8
178.225	292.28
178.445	61.73
178.665	90.29
178.885	12.99
179.105	6.1
179.324	27.3
179.544	24.98
179.764	259.2
179.984	15.23
180.204	30.55
180.423	9.64
180.643	-12.75
180.863	-53.14
181.083	-2.02
181.302	-1.09
181.522	-5.53
181.742	-21.07
181.961	1.21
182.181	13.79
182.401	24.01
182.621	8.78
182.84	-38.94
183.06	-22.62
183.279	-68.32
183.499	-166.95
183.719	-193.27
183.938	-697.01
184.158	-78.22
184.377	-440.94
184.597	-9893.48
184.816	479.47
185.036	364
185.256	-3285.33
185.475	-268.25
185.695	-233.12
185.914	-463.17
186.134	445.14
186.353	-210.36
186.572	-283.39
186.792	-231.48
187.011	-115.29
187.231	-110.65
187.45	-65.43
187.67	-28.61
187.889	-78.12
188.108	-65.41
188.328	-49.45
188.547	-44.97
188.766	-44.27
188.986	-60.48
189.205	-42.28
189.424	-147.36
189.644	-541.41
189.863	-1936.43
190.082	263.98
190.302	308.72
190.521	457.01
190.74	267.87
190.959	255.75
191.178	384.4
191.398	302.1
191.617	584.45
191.836	1071.37
192.055	117.32
192.274	-174
192.494	416.01
192.713	221.04
192.932	55.69
193.151	95.96
193.37	43.4
193.589	14.61
193.808	22.18
194.027	-2.48
194.246	37.76
194.465	125.8
194.685	95.55
194.904	206.25
195.123	279.39
195.342	-612.94
195.561	68.29
195.78	405.73
195.999	-207.8
196.218	-1284.64
196.436	-111.71
196.655	-105.79
196.874	-78.8
197.093	-69.55
197.312	-121.4
197.531	-93.33
197.75	-201.98
197.969	-539.96
198.188	-126.95
198.407	-46.06
198.625	-79.59
198.844	-283.81
199.063	-971.73
199.282	630.91
199.501	198.13
199.719	411.56
199.938	565.98
200.157	1430.43
200.376	-7824.32
200.594	1485.9
200.813	342.97
201.032	423.7
201.251	370.6
201.469	-216.99
201.688	-127.7
201.907	-58.91
202.125	-79.88
202.344	-68.13
202.563	-95.38
202.781	-111.86
203	-385.71
203.218	-173.21
203.437	-138.79
203.656	-39.74
203.874	-85.73
204.093	-1279.25
204.311	1171.64
204.53	-198.82
204.748	-240.66
204.967	-119.69
205.185	-99.86
205.404	-40.67
205.622	-9.72
205.841	-24.59
206.059	-80.2
206.278	-118.41
206.496	-108.5
206.715	-56.15
206.933	-150.14
207.151	-217.23
207.37	-257.12
207.588	-47.6
207.806	5470.69
208.025	363.67
208.243	701.31
208.461	-135.71
208.68	-213.6
208.898	-11.84
209.116	23.21
209.335	43.44
209.553	61.53
209.771	38.73
209.989	29.43
210.208	25.83
210.426	21.76
210.644	14.84
210.862	1.64
211.081	-39.35
211.299	-31.79
211.517	-5.25
211.735	-60.81
211.953	456.87
212.171	298.07
212.39	180.99
212.608	153.97
212.826	127.36
213.044	130.9
213.262	114.61
213.48	151.99
213.698	182.96
213.916	150.81
214.134	237.74
214.352	344.6
214.57	237.84
214.788	469.66
215.006	459.31
215.224	222.9
215.442	85.6
215.66	121.08
215.878	145.5
216.096	-57.95
216.314	39.47
216.532	13.81
216.75	21.09
216.968	-26.98
217.185	-39.02
217.403	-55.56
217.621	-43.59
217.839	-8.23
218.057	-0.45
218.275	-2.28
218.492	-17.95
218.71	-29.34
218.928	-19.58
219.146	-11.66
219.363	-125.55
219.581	-2820.97
219.799	-2718.02
220.017	56.46
220.234	88.96
220.452	501.12
220.67	1828.97
220.887	-2039.42
221.105	261.57
221.323	453.16
221.54	192.94
221.758	-616.23
221.976	13.11
222.193	757.7
222.411	1226.29
222.629	-217.57
222.846	31.71
223.064	39.8
223.281	20.54
223.499	58.96
223.716	63.24
223.934	-62.51
224.151	-3.38
224.369	-23.83
224.586	-39.98
224.804	-44.89
225.021	-33.88
225.239	15.72
225.456	34.16
225.674	17.33
225.891	-7.08
226.108	13.78
226.326	34.52
226.543	41.88
226.76	46.4
226.978	45.84
227.195	44.8
227.413	47.22
227.63	39.17
227.847	19.91
228.064	14.8
228.282	16.21
228.499	14.9
228.716	15.99
228.934	10.28
229.151	8.25
229.368	5.85
229.585	0.8
229.802	-2.4
230.02	-4.01
230.237	-1.08
230.454	-0.5
230.671	-1.82
230.888	-3.18
231.105	-7.3
231.323	-8.76
231.54	-12.96
231.757	-16.86
231.974	-9.93
232.191	-8.29
232.408	-9.23
232.625	-14.16
232.842	-8.41
233.059	-6.76
233.276	-4.67
233.493	14.16
233.71	21.29
233.927	16.64
234.144	15.84
234.361	20.43
234.578	15.24
234.795	20.12
235.012	26.3
235.229	24.08
235.446	21.74
235.663	21.84
235.879	19.47
236.096	20.03
236.313	19.06
236.53	12.17
236.747	7.21
236.964	12.18
237.181	2.08
237.397	0.94
237.614	-1.53
237.831	7.4
238.048	6.29
238.264	-9.44
238.481	-22.84
238.698	-9.25
238.915	-6.98
239.131	-0.05
239.348	1.16
239.565	7.44
239.781	0.51
239.998	0.21
240.215	-0.81
240.431	-0.28
240.648	-3.18
240.865	1.27
241.081	2.56
241.298	1.82
241.514	-0.42
241.731	-2.48
241.947	-5.13
242.164	-2.35
242.38	1.21
242.597	-1.06
242.814	1.72
243.03	4.81
243.246	5.97
243.463	5.36
243.679	8.75
243.896	8.23
244.112	9.2
244.329	11.81
244.545	11.73
244.762	11.39
244.978	13.49
245.194	11.37
245.411	9.63
245.627	7.93
245.843	7.77
246.06	6.91
246.276	6.56
246.492	6.31
246.709	5.92
246.925	6.17
247.141	4.74
247.357	3.5
247.574	4.52
247.79	3.51
248.006	4.17
248.222	4.37
248.439	3.83
248.655	3.73
248.871	3.57
249.087	2.23
249.303	0.19
249.519	0.01
249.736	0.5
249.952	-0.98
250.168	-0.05
250.384	-0.46
250.6	0.04
250.816	2.67
251.032	5.21
251.248	8.19
251.464	11.51
251.68	14.34
251.896	13.2
252.112	12.04
252.328	13.05
252.544	13
252.76	10.81
252.976	11.05
253.192	9.77
253.408	8.86
253.624	6.01
253.84	5.55
254.056	4.65
254.272	1.99
254.487	-0.9
254.703	-4.49
254.919	-0.65
255.135	-2.72
255.351	-8.65
255.567	-8.36
255.782	-6.24
255.998	-1.88
256.214	-2.93
256.43	-2.06
256.646	2.1
256.861	7.75
257.077	12.15
257.293	9.31
257.508	9.88
257.724	9.92
257.94	9.08
258.155	7.04
258.371	5.51
258.587	4.16
258.802	4.64
259.018	6.19
259.234	5.91
259.449	3.12
259.665	2.46
259.88	3.59
260.096	4.22
260.312	4.22
260.527	4.92
260.743	5.49
260.958	5.29
261.174	5.41
261.389	3.85
261.605	3.23
261.82	2.47
262.036	3.05
262.251	1.46
262.466	1.17
262.682	-1.77
262.897	-5.42
263.113	-9.43
263.328	-8.02
263.543	-11.13
263.759	-11.57
263.974	-11.49
264.189	-8.88
264.405	-6.11
264.62	-2.65
264.835	-1.99
265.051	-0.03
265.266	3.83
265.481	6.21
265.696	6.92
265.912	7.95
266.127	9.95
266.342	8.24
266.557	9.91
266.773	5.63
266.988	2.7
267.203	4.28
267.418	5.06
267.633	5.24
267.848	5.12
268.064	2.8
268.279	2.32
268.494	0.83
268.709	0.57
268.924	-1.84
269.139	0.04
269.354	0.3
269.569	-2.97
269.784	-3.59
269.999	-5.18
270.214	-4.82
270.429	-2.26
270.644	-3.18
270.859	-3.07
271.074	-2.01
271.289	-2.15
271.504	-0.98
271.719	-0.72
271.934	-0.6
272.149	-0.22
272.363	-0.09
272.578	-1.22
272.793	-2.94
273.008	-1.86
273.223	0.13
273.438	0.01
273.653	0.2
273.867	-2.27
274.082	-2.6
274.297	-4.99
274.512	-5.76
274.726	-5.58
274.941	-4.62
275.156	-2.23
275.371	-1.59
275.585	-4.38
275.8	-3.91
276.015	-3.29
276.229	-0.05
276.444	2.86
276.659	7.9
276.873	10.12
277.088	9.77
277.302	11.61
277.517	8.88
277.732	7.14
277.946	8.37
278.161	8.69
278.375	8.79
278.59	6.32
278.804	5.69
279.019	5.61
279.233	2.1
279.448	2.2
279.662	0.92
279.877	4.72
280.091	6.33
280.306	4.57
280.52	1.93
280.735	3.61
280.949	4.82
281.163	5.84
281.378	5.85
281.592	6.51
281.806	6.87
282.021	6.72
282.235	6.7
282.449	7.46
282.664	8.08
282.878	9.89
283.092	7.79
283.307	7.97
283.521	5.81
283.735	5.09
283.949	5.4
284.164	5.17
284.378	4.5
284.592	2.7
284.806	3.51
285.02	3.29
285.234	4.22
285.449	5.4
285.663	4.84
285.877	5.84
286.091	6.15
286.305	6.83
286.519	6.89
286.733	8.14
286.947	9.24
287.161	6.96
287.375	8.06
287.589	7.74
287.803	7.62
288.017	8.15
288.231	6.58
288.445	5.27
288.659	4.6
288.873	5.07
289.087	4.1
289.301	3.88
289.515	4.06
289.729	3.39
289.943	2.69
290.157	1.72
290.371	0.06
290.584	1.16
290.798	2.07
291.012	1.24
291.226	1.81
291.44	0.83
291.654	-0.02
291.867	0.58
292.081	0.54
292.295	-1.14
292.509	1.31
292.722	3.82
292.936	4.44
293.15	3.35
293.364	2.62
293.577	3
293.791	4.15
294.005	5.72
294.218	5.26
294.432	5.28
294.645	9.21
294.859	6.45
295.073	4.64
295.286	3.42
295.5	3.73
295.713	4.69
295.927	2.91
296.14	4.38
296.354	4.2
296.568	3.32
296.781	4.41
296.994	3.39
297.208	3.76
297.421	5.07
297.635	6.02
297.848	6.87
298.062	6.71
298.275	7.57
298.489	5.83
298.702	5.31
298.915	7.06
299.129	7.76
299.342	8.1
299.555	9.42
299.769	7.92
299.982	8.75
300.195	8.69
300.409	11.2
300.622	12.39
300.835	14.4
301.048	15.25
301.262	17.24
301.475	13.34
301.688	14.16
301.901	13.28
302.115	14.59
302.328	12.64
302.541	11.13
302.754	10.64
302.967	8.76
303.18	6.85
303.393	5.7
303.607	3.02
303.82	3.84
304.033	2.81
304.246	5.2
304.459	6.35
304.672	8.13
304.885	9.5
305.098	9.34
305.311	9.31
305.524	9.7
305.737	10.45
305.95	12.14
306.163	13.32
306.376	13.45
306.589	12.28
306.802	11.21
307.015	10.67
307.228	10.8
307.44	10.63
307.653	10.84
307.866	12.77
308.079	13.38
308.292	11.9
308.505	11.76
308.718	13.38
308.93	10.44
309.143	12.57
309.356	12.61
309.569	13.02
309.781	12.52
309.994	12.69
310.207	11.65
310.42	10.7
310.632	11.99
310.845	13.5
311.058	11.8
311.27	14.07
311.483	12.27
311.696	11.61
311.908	10.44
312.121	10.73
312.333	11.72
312.546	11.1
312.759	11.38
312.971	10.12
313.184	10.41
313.396	9.67
313.609	8.25
313.821	8.07
314.034	8.52
314.246	10.85
314.459	11.28
314.671	11.74
314.884	11.73
315.096	12.89
315.309	14.26
315.521	10.33
315.733	11.19
315.946	12.08
316.158	12.01
316.371	11.24
316.583	11.38
316.795	12.32
317.008	11.25
317.22	11.94
317.432	11.54
317.644	11.06
317.857	12.94
318.069	13.3
318.281	12.61
318.494	13.24
318.706	13.38
318.918	10.81
319.13	7.06
319.342	7.43
319.555	6.84
319.767	7.67
319.979	6.58
320.191	7.24
320.403	7.17
320.615	8.5
320.827	8.45
321.039	7.76
321.252	9.07
321.464	11.95
321.676	12.04
321.888	12.1
322.1	9.38
322.312	9.11
322.524	9.48
322.736	10.78
322.948	10.14
323.16	10.55
323.372	10.66
323.584	12.3
323.796	11.94
324.007	12.32
324.219	12.45
324.431	15.95
324.643	17.16
324.855	17.16
325.067	18.88
325.279	20.12
325.491	19.58
325.702	21.6
325.914	20.53
326.126	20.81
326.338	20.44
326.55	21.34
326.761	21.65
326.973	21.61
327.185	23.29
327.396	22.15
327.608	22.76
327.82	25.06
328.032	24.5
328.243	27.13
328.455	27.74
328.666	29.26
328.878	30.12
329.09	30.46
329.301	32.86
329.513	31.31
329.725	28.99
329.936	29.43
330.148	28.02
330.359	28.53
330.571	28.35
330.782	29.7
330.994	30.72
331.205	30.82
331.417	31.95
331.628	31.02
331.84	33.53
332.051	36.46
332.262	36.79
332.474	37.75
332.685	38.64
332.897	39.52
333.108	39.37
333.319	38.6
333.531	40.05
333.742	37.49
333.953	38.27
334.165	37.75
334.376	37.5
334.587	38.07
334.799	38.91
335.01	39.35
335.221	39.53
335.432	40.51
335.644	43.34
335.855	44.01
336.066	45.92
336.277	46.7
336.488	46.71
336.7	46.58
336.911	48.02
337.122	48.2
337.333	48.3
337.544	48.18
337.755	48.58
337.966	48.01
338.177	48.76
338.388	48.94
338.599	49.53
338.811	51.68
339.022	53.24
339.233	52.52
339.444	53.77
339.655	53.61
339.866	53.64
340.076	54.37
340.287	54.27
340.498	52.97
340.709	54.12
340.92	54
341.131	51.66
341.342	50.78
341.553	50.46
341.764	50.76
341.975	52.35
342.185	53.47
342.396	53.88
342.607	55.21
342.818	56.91
343.029	55.84
343.239	56
343.45	58.18
343.661	59.3
343.872	60.1
344.082	60.03
344.293	60.12
344.504	60.18
344.714	58.68
344.925	57.82
345.136	57.39
345.346	56.61
345.557	56.42
345.768	56.93
345.978	57.36
346.189	57.2
346.399	56.29
346.61	56.67
346.821	56.82
347.031	57.76
347.242	57.7
347.452	56.15
347.663	58.44
347.873	59.45
348.084	58.84
348.294	57.94
348.504	57.86
348.715	58.53
348.925	58.39
349.136	58.73
349.346	58.7
349.557	59.18
349.767	61.59
349.977	61.73
350.188	61.52
350.398	59.87
350.608	60.94
350.819	62.69
351.029	62.55
351.239	61.96
351.449	60.56
351.66	61.95
351.87	61.42
352.08	60.43
352.29	59.69
352.501	60.83
352.711	62.05
352.921	61.5
353.131	59.81
353.341	61
353.552	60.41
353.762	61.69
353.972	60.76
354.182	60.52
354.392	60.82
354.602	61.17
354.812	60.75
355.022	61.14
355.232	61.16
355.442	61.01
355.652	60.3
355.862	61.13
356.072	60.93
356.282	60.4
356.492	59.88
356.702	59.31
356.912	58.35
357.122	58.07
357.332	57.86
357.542	58.16
357.752	57.98
357.962	58.31
358.171	57.72
358.381	57.69
358.591	57.38
358.801	57.64
359.011	57.67
359.221	59.25
359.43	59.3
359.64	59.2
359.85	58.11
360.06	58.68
360.269	58.05
360.479	58.72
360.689	58.38
360.899	58.21
361.108	57.99
361.318	58.38
361.528	57.98
361.737	58.14
361.947	57.53
362.156	57.98
362.366	58.08
362.576	58.05
362.785	57.27
362.995	57.65
363.204	59.18
363.414	59.28
363.623	59.4
363.833	59.49
364.042	59
364.252	59.82
364.461	60.32
364.671	60.44
364.88	60.6
365.09	59.83
365.299	58.99
365.509	58.01
365.718	58.01
365.927	57.58
366.137	56.62
366.346	55.45
366.555	55.01
366.765	54.96
366.974	54.6
367.183	54.26
367.393	55.16
367.602	56
367.811	55.87
368.021	55.56
368.23	54.74
368.439	54.38
368.648	54.71
368.857	54.3
369.067	52.95
369.276	52.72
369.485	52.83
369.694	52.51
369.903	51.99
370.112	51.31
370.321	52.45
370.531	52.87
370.74	52.8
370.949	52.22
371.158	51.42
371.367	52.51
371.576	52.25
371.785	52.27
371.994	52.64
372.203	52.35
372.412	52.62
372.621	51.55
372.83	50.84
373.039	51.49
373.248	51.77
373.457	52.27
373.666	52.08
373.874	50.5
374.083	50.31
374.292	49.46
374.501	48.83
374.71	48.34
374.919	48.84
375.128	48.81
375.336	48.01
375.545	48.58
375.754	48.09
375.963	47.69
376.171	47.72
376.38	47.28
376.589	46.42
376.798	45.91
377.006	46.16
377.215	45.59
377.424	44.79
377.632	44.14
377.841	43.39
378.05	44.34
378.258	44.03
378.467	44.89
378.675	44.36
378.884	44.01
379.093	43.83
379.301	42.81
379.51	42.01
379.718	42.84
379.927	42.98
380.135	42.66
380.344	41.5
380.552	40.93
380.761	40.79
380.969	41.32
381.177	41.72
381.386	42.55
381.594	42.62
381.803	42.63
382.011	42.31
382.219	42.33
382.428	42.06
382.636	42.03
382.845	41.43
383.053	40.5
383.261	39.72
383.469	39.41
383.678	38.58
383.886	38.38
384.094	38.55
384.302	38.66
384.511	38.09
384.719	38.15
384.927	38.14
385.135	39.14
385.343	39.44
385.552	39.38
385.76	39.74
385.968	39.43
386.176	39.47
386.384	39.43
386.592	38.9
386.8	39.48
387.008	38.99
387.216	38.85
387.424	37.97
387.633	38.05
387.841	37.63
388.049	37.1
388.257	37.36
388.465	37.44
388.672	37.22
388.88	37.18
389.088	36.59
389.296	36.65
389.504	36.54
389.712	36.14
389.92	35.61
390.128	36.09
390.336	36.34
390.544	35.73
390.751	35.67
390.959	35.2
391.167	35
391.375	34.76
391.583	34.87
391.79	34.41
391.998	34.53
392.206	34.24
392.414	34.11
392.621	34.12
392.829	34.36
393.037	34.21
393.244	34.36
393.452	34.31
393.66	34.64
393.867	34.66
394.075	34.95
394.283	34.99
394.49	35.15
394.698	35.12
394.905	34.68
395.113	34.47
395.32	34.49
395.528	34.25
395.735	34.37
395.943	33.97
396.15	33.47
396.358	33.29
396.565	33.34
396.773	33.52
396.98	33.35
397.188	33.66
397.395	34.09
397.602	34.18
397.81	34.48
398.017	34.34
398.225	34.7
398.432	35.38
398.639	35.39
398.847	35.34
399.054	35.21
399.261	35.17
399.468	35.21
399.676	35.23
399.883	35.25
400.09	35.1
400.297	35.1
400.505	35.07
400.712	34.59
400.919	34.62
401.126	34.25
401.333	34.64
401.54	34.76
401.748	34.62
401.955	34.83
402.162	34.66
402.369	34.76
402.576	34.65
402.783	34.44
402.99	34.68
403.197	34.81
403.404	34.98
403.611	34.7
403.818	34.77
404.025	34.85
404.232	34.54
404.439	34.89
404.646	34.83
404.853	34.9
405.06	34.97
405.267	34.86
405.474	34.93
405.681	35.16
405.887	35.04
406.094	34.93
406.301	34.84
406.508	34.78
406.715	34.14
406.922	33.99
407.128	34.07
407.335	34.22
407.542	34.35
407.749	34.24
407.955	34.13
408.162	34.23
408.369	34.41
408.575	34.31
408.782	34.5
408.989	34.73
409.195	34.86
409.402	34.76
409.609	34.72
409.815	34.34
410.022	34.26
410.228	34.16
410.435	34.18
410.642	34.22
410.848	34.7
411.055	34.8
411.261	34.94
411.468	34.79
411.674	34.73
411.881	34.35
412.087	34.72
412.294	34.66
412.5	34.88
412.706	35.23
412.913	34.95
413.119	34.2
413.326	34.15
413.532	34.03
413.738	33.9
413.945	33.95
414.151	33.94
414.357	34.01
414.564	33.8
414.77	33.56
414.976	33.07
415.182	33.11
415.389	33.24
415.595	32.86
415.801	32.92
416.007	33.05
416.214	33.1
416.42	33.58
416.626	33.16
416.832	33.36
417.038	33.51
417.244	33.31
417.45	33.39
417.657	33.66
417.863	33.83
418.069	33.54
418.275	33.63
418.481	33.61
418.687	33.5
418.893	33.71
419.099	33.73
419.305	33.81
419.511	33.95
419.717	33.79
419.923	33.74
420.129	33.53
420.335	33.64
420.541	33.6
420.746	33.58
420.952	33.43
421.158	33.28
421.364	33.06
421.57	32.74
421.776	32.57
421.982	32.71
422.187	32.51
422.393	32.47
422.599	32.4
422.805	32.46
423.01	32.38
423.216	32.56
423.422	32.54
423.628	32.62
423.833	32.67
424.039	32.76
424.245	32.6
424.45	32.59
424.656	32.68
424.862	32.59
425.067	32.45
425.273	32.42
425.478	32.27
425.684	32.39
425.889	32.37
426.095	32.52
426.301	32.63
426.506	32.54
426.712	32.54
426.917	32.48
427.123	32.53
427.328	32.47
427.533	32.4
427.739	32.37
427.944	32.13
428.15	32.13
428.355	32.01
428.561	31.82
428.766	31.95
428.971	32.08
429.177	31.8
429.382	31.71
429.587	31.79
429.793	32.01
429.998	31.98
430.203	32.07
430.408	32.04
430.614	32.02
430.819	32.12
431.024	32.01
431.229	31.76
431.434	32.11
431.64	32.28
431.845	32.22
432.05	32.14
432.255	32.11
432.46	32.19
432.665	32.14
432.87	32.12
433.076	31.93
433.281	32.01
433.486	32.08
433.691	32.13
433.896	32.05
434.101	31.88
434.306	31.85
434.511	31.9
434.716	31.89
434.921	31.94
435.126	31.87
435.331	31.95
435.535	32.02
435.74	31.96
435.945	32.01
436.15	32.15
436.355	32.26
436.56	32.3
436.765	32.31
436.97	32.08
437.174	32.18
437.379	32.31
437.584	32.25
437.789	32.22
437.993	32.28
438.198	32.31
438.403	32.15
438.608	32.15
438.812	32.05
439.017	32.03
439.222	32.2
439.426	32.13
439.631	32.11
439.836	32.25
440.04	32.13
440.245	32.24
440.45	32.11
440.654	32.24
440.859	32.21
441.063	32.15
441.268	31.91
441.472	32.03
441.677	32.01
441.881	32.04
442.086	32.03
442.29	32.15
442.495	32.14
442.699	32.06
442.904	31.95
443.108	32.01
443.312	32.13
443.517	32.36
443.721	32.26
443.925	32.17
444.13	32.13
444.334	32.11
444.538	31.93
444.743	31.78
444.947	31.88
445.151	31.93
445.356	32.08
445.56	32.18
445.764	32.18
445.968	31.99
446.173	32.01
446.377	31.94
446.581	31.94
446.785	32.06
446.989	32.09
447.193	32.06
447.398	31.93
447.602	31.68
447.806	31.39
448.01	31.33
448.214	31.38
448.418	31.36
448.622	31.32
448.826	31.09
449.03	30.96
449.234	30.81
449.438	30.82
449.642	30.87
449.846	31.04
450.05	31.15
450.254	31.06
450.458	31.12
450.662	31.17
450.866	31.2
451.069	31.3
451.273	31.32
451.477	31.39
451.681	31.11
451.885	31.04
452.089	31.1
452.292	31.06
452.496	31.17
452.7	31.08
452.904	30.9
453.107	30.9
453.311	30.94
453.515	30.65
453.719	30.75
453.922	30.85
454.126	30.78
454.33	30.65
454.533	30.55
454.737	30.33
454.94	30.44
455.144	30.61
455.348	30.6
455.551	30.74
455.755	31.15
455.958	31
456.162	30.87
456.365	30.88
456.569	30.83
456.772	30.96
456.976	31.28
457.179	31.15
457.383	31.12
457.586	31.32
457.79	30.91
