Data from 2937834_Reflection_2.txt Node
Date: Wed Jul 15 16:36:26 EDT 2015
User: robert
Spectrometer: USB4E03001
Autoset integration time: false
Trigger mode: 4
Integration Time (sec): 1.000000E-1
Scans to average: 10
Electric dark correction enabled: true
Nonlinearity correction enabled: false
Boxcar width: 5
Stray light correction enabled: false
XAxis mode: Wavelengths
Stop averaging: false
Number of Pixels in Spectrum: 3648
>>>>>Begin Spectral Data<<<<<
177.566	263.35
177.785	227.93
178.005	-266.33
178.225	-28.5
178.445	45.79
178.665	43.15
178.885	101.92
179.105	177.44
179.324	174.57
179.544	205.2
179.764	154.83
179.984	163.39
180.204	-278.06
180.423	-133.03
180.643	5.38
180.863	89.95
181.083	40.54
181.302	721.98
181.522	298.33
181.742	58.08
181.961	103.92
182.181	103.61
182.401	99.13
182.621	227.35
182.84	44.92
183.06	69.86
183.279	9.81
183.499	39.28
183.719	54.31
183.938	47.91
184.158	56.47
184.377	88.72
184.597	78.5
184.816	76
185.036	73.59
185.256	77.13
185.475	97.6
185.695	118.56
185.914	80.62
186.134	91.52
186.353	89.92
186.572	72.35
186.792	63.97
187.011	53.4
187.231	39.24
187.45	58.91
187.67	79.65
187.889	60.57
188.108	88.37
188.328	86.18
188.547	97.1
188.766	78.7
188.986	68.53
189.205	60.28
189.424	79.66
189.644	95.43
189.863	93.45
190.082	80.07
190.302	73.75
190.521	71.79
190.74	72.96
190.959	77.09
191.178	87.14
191.398	190.08
191.617	121.55
191.836	33.8
192.055	133.8
192.274	95.7
192.494	89.77
192.713	40.95
192.932	-1.37
193.151	100.63
193.37	43.95
193.589	67.69
193.808	59.73
194.027	57.08
194.246	74.94
194.465	55.94
194.685	39.64
194.904	24.8
195.123	-2.08
195.342	27.67
195.561	6.73
195.78	5.92
195.999	-68.24
196.218	-101.35
196.436	-429.21
196.655	-283.65
196.874	-374.5
197.093	11772.31
197.312	429.44
197.531	-121.39
197.75	710.33
197.969	199.55
198.188	464.52
198.407	48.82
198.625	60.67
198.844	102.56
199.063	97.66
199.282	73.81
199.501	78.76
199.719	77.53
199.938	75.33
200.157	82.55
200.376	77.82
200.594	85.02
200.813	74.3
201.032	83.36
201.251	69.92
201.469	84.69
201.688	98.27
201.907	84.34
202.125	82.7
202.344	83.49
202.563	63.51
202.781	60.74
203	60.02
203.218	58.36
203.437	50.66
203.656	59.87
203.874	51.36
204.093	59.48
204.311	66
204.53	63.85
204.748	61.04
204.967	59.25
205.185	64.15
205.404	66.19
205.622	67.34
205.841	64.21
206.059	55.13
206.278	49.27
206.496	23.19
206.715	-4.95
206.933	-125.54
207.151	-196.52
207.37	6515.38
207.588	592.69
207.806	-192.09
208.025	-186.48
208.243	-103.81
208.461	36.71
208.68	237.51
208.898	347.33
209.116	408.85
209.335	156.93
209.553	236.32
209.771	230.81
209.989	207.27
210.208	138.14
210.426	78.47
210.644	73.76
210.862	34.64
211.081	21.72
211.299	30.08
211.517	36.84
211.735	38.5
211.953	41
212.171	31.78
212.39	8.95
212.608	14
212.826	28.53
213.044	34.1
213.262	38.6
213.48	43.81
213.698	39.32
213.916	37.22
214.134	51.96
214.352	65.51
214.57	69.95
214.788	88.61
215.006	108.28
215.224	100.71
215.442	83.51
215.66	83.54
215.878	83.12
216.096	76.07
216.314	68.63
216.532	48.7
216.75	50.56
216.968	32.96
217.185	25.69
217.403	-8.28
217.621	9.44
217.839	-4.22
218.057	23.73
218.275	27.07
218.492	47.67
218.71	40.56
218.928	51.23
219.146	31.83
219.363	47.48
219.581	58.7
219.799	79.05
220.017	71.2
220.234	65.81
220.452	59.6
220.67	46.18
220.887	51.55
221.105	59.95
221.323	52.11
221.54	55.85
221.758	51.27
221.976	42.5
222.193	50.99
222.411	53.04
222.629	67.59
222.846	48.93
223.064	58.91
223.281	33.44
223.499	39.79
223.716	50.04
223.934	33.79
224.151	35.63
224.369	49.72
224.586	48.27
224.804	44.78
225.021	26.71
225.239	36.49
225.456	25.01
225.674	21.92
225.891	13.35
226.108	3.37
226.326	10.77
226.543	12.7
226.76	11.58
226.978	11.04
227.195	6.14
227.413	3.24
227.63	7.25
227.847	8.24
228.064	11.5
228.282	13.24
228.499	13.13
228.716	15.46
228.934	15.4
229.151	16.93
229.368	18.01
229.585	16.71
229.802	15.13
230.02	15.92
230.237	15.82
230.454	13.75
230.671	17.53
230.888	16.17
231.105	15.74
231.323	18.3
231.54	17.73
231.757	15.15
231.974	16.21
232.191	20.06
232.408	17.74
232.625	14.02
232.842	18.72
233.059	11.87
233.276	22.94
233.493	20.79
233.71	13.26
233.927	16.17
234.144	14.85
234.361	13.69
234.578	17.04
234.795	18.09
235.012	22.56
235.229	21.19
235.446	20.45
235.663	18.19
235.879	17.58
236.096	21.17
236.313	21.24
236.53	23.15
236.747	29.12
236.964	25.03
237.181	21.46
237.397	30.46
237.614	29.18
237.831	27.93
238.048	26.85
238.264	24.94
238.481	21.7
238.698	17.11
238.915	18.45
239.131	17.02
239.348	17.48
239.565	19.73
239.781	13.81
239.998	17
240.215	18.36
240.431	18.15
240.648	21.39
240.865	22.72
241.081	25.89
241.298	26.34
241.514	23.55
241.731	24.23
241.947	22.18
242.164	19.58
242.38	18.62
242.597	20.1
242.814	20.57
243.03	20.93
243.246	21.18
243.463	19.2
243.679	17.34
243.896	18.9
244.112	19.8
244.329	22.48
244.545	24.58
244.762	25.01
244.978	21.75
245.194	20.52
245.411	18.7
245.627	17.03
245.843	16.57
246.06	15.6
246.276	15.44
246.492	15.07
246.709	14.27
246.925	12.83
247.141	13.85
247.357	14.86
247.574	14.92
247.79	14.33
248.006	14.73
248.222	15.19
248.439	15.95
248.655	14.84
248.871	15.03
249.087	15.04
249.303	15.65
249.519	13.64
249.736	14.44
249.952	15.04
250.168	15.02
250.384	13.65
250.6	13.25
250.816	12.17
251.032	14.39
251.248	12.36
251.464	11.92
251.68	13.46
251.896	13.93
252.112	13.6
252.328	14.15
252.544	14.64
252.76	14.31
252.976	13.57
253.192	15.02
253.408	14.67
253.624	16.84
253.84	17.55
254.056	17.58
254.272	18.54
254.487	15.64
254.703	15.48
254.919	15.65
255.135	17.95
255.351	17.7
255.567	16.06
255.782	16.97
255.998	13.92
256.214	11.29
256.43	12.25
256.646	12.06
256.861	11.74
257.077	10.17
257.293	9.41
257.508	9.74
257.724	11.37
257.94	11.11
258.155	9.19
258.371	9.71
258.587	11.64
258.802	10.24
259.018	10.95
259.234	12.61
259.449	11.13
259.665	11.04
259.88	10.88
260.096	10.42
260.312	10.41
260.527	11.91
260.743	11.53
260.958	10.96
261.174	10.94
261.389	10.74
261.605	10.08
261.82	10.84
262.036	11.26
262.251	10.92
262.466	10.25
262.682	9.65
262.897	7.04
263.113	6.66
263.328	6.63
263.543	6.59
263.759	5.18
263.974	4.7
264.189	5.05
264.405	3.85
264.62	3.64
264.835	5.09
265.051	6.64
265.266	9.54
265.481	10.72
265.696	11.06
265.912	13.67
266.127	13.02
266.342	12.35
266.557	12.77
266.773	12.78
266.988	12.48
267.203	12.49
267.418	12.58
267.633	9.79
267.848	10.68
268.064	11.15
268.279	10.53
268.494	11.84
268.709	13.46
268.924	13.37
269.139	13.56
269.354	14.29
269.569	13.43
269.784	13.23
269.999	14.99
270.214	14.05
270.429	12.95
270.644	13.89
270.859	13.66
271.074	12.64
271.289	12.83
271.504	15.87
271.719	15.64
271.934	15.91
272.149	15.13
272.363	14.96
272.578	16.34
272.793	17.24
273.008	15.78
273.223	15.94
273.438	16.61
273.653	16.51
273.867	14
274.082	12.94
274.297	14.08
274.512	14.76
274.726	14.36
274.941	12.2
275.156	11.77
275.371	11.56
275.585	10.75
275.8	9.14
276.015	10.32
276.229	9.61
276.444	10.5
276.659	10.27
276.873	10.17
277.088	11.09
277.302	11.74
277.517	11.63
277.732	11.72
277.946	10.35
278.161	12.31
278.375	9
278.59	9.62
278.804	9.42
279.019	8.87
279.233	8.82
279.448	7.04
279.662	7.92
279.877	8.76
280.091	9.14
280.306	11.16
280.52	10.6
280.735	11.46
280.949	12.71
281.163	12.15
281.378	12.08
281.592	12.33
281.806	11.27
282.021	10.45
282.235	8.9
282.449	9.22
282.664	9.32
282.878	9.31
283.092	10.9
283.307	12.21
283.521	13.29
283.735	13.66
283.949	12.51
284.164	15.52
284.378	15.66
284.592	15.41
284.806	15.35
285.02	14.28
285.234	13.83
285.449	12.68
285.663	10.65
285.877	10.36
286.091	9.51
286.305	9.71
286.519	8.78
286.733	8.06
286.947	8.61
287.161	8.6
287.375	9.91
287.589	10.58
287.803	11.95
288.017	12.75
288.231	12.24
288.445	12.67
288.659	14.96
288.873	14.35
289.087	16
289.301	15.87
289.515	15.73
289.729	15.22
289.943	14.42
290.157	12.94
290.371	12.12
290.584	12.17
290.798	13.24
291.012	10.23
291.226	10.16
291.44	8.21
291.654	7.29
291.867	5.58
292.081	5.93
292.295	5.92
292.509	6.43
292.722	7.06
292.936	7.87
293.15	8.15
293.364	10
293.577	11.03
293.791	13.6
294.005	16.59
294.218	18.44
294.432	18.29
294.645	19.97
294.859	19.91
295.073	20.71
295.286	20.39
295.5	20.35
295.713	19.75
295.927	19.59
296.14	18.35
296.354	16.93
296.568	16.75
296.781	16.45
296.994	15.01
297.208	15.48
297.421	15.04
297.635	14.4
297.848	13.26
298.062	13.9
298.275	13.1
298.489	13.17
298.702	12.61
298.915	12.27
299.129	12.12
299.342	12.7
299.555	11.82
299.769	13.15
299.982	14.45
300.195	15.77
300.409	15.58
300.622	16.06
300.835	16.16
301.048	16.77
301.262	16.65
301.475	18.02
301.688	17.67
301.901	17.22
302.115	15.34
302.328	14.26
302.541	14.2
302.754	13.94
302.967	14.43
303.18	13.05
303.393	14.5
303.607	16.52
303.82	15.88
304.033	15.86
304.246	17.63
304.459	16.8
304.672	17.27
304.885	16.02
305.098	17.35
305.311	17.17
305.524	19.34
305.737	17.95
305.95	16.67
306.163	15.81
306.376	16.41
306.589	15.08
306.802	16.13
307.015	17.21
307.228	18.18
307.44	16.56
307.653	17.09
307.866	16.69
308.079	17.75
308.292	16.11
308.505	17.4
308.718	15.52
308.93	16.62
309.143	17.55
309.356	18
309.569	17.78
309.781	19.34
309.994	18.1
310.207	17.66
310.42	16.64
310.632	16.72
310.845	15.81
311.058	16.12
311.27	15.34
311.483	14.3
311.696	14.37
311.908	13.92
312.121	12.84
312.333	13.48
312.546	13.06
312.759	13.38
312.971	12.68
313.184	11.93
313.396	12.22
313.609	11.33
313.821	9.94
314.034	8.25
314.246	9.21
314.459	9.64
314.671	10.09
314.884	8.55
315.096	8.49
315.309	9.94
315.521	10.67
315.733	11.78
315.946	12.02
316.158	14.28
316.371	13.79
316.583	12.26
316.795	11.96
317.008	10.51
317.22	12.54
317.432	13.46
317.644	14.46
317.857	14.91
318.069	16.07
318.281	16.32
318.494	15.82
318.706	16.99
318.918	17.63
319.13	17.27
319.342	17.68
319.555	18.39
319.767	18.77
319.979	17.53
320.191	17.85
320.403	15.68
320.615	16.2
320.827	15.77
321.039	16.15
321.252	17.88
321.464	18.12
321.676	18.41
321.888	17.48
322.1	17.56
322.312	19.43
322.524	19.88
322.736	20.59
322.948	20.66
323.16	20.99
323.372	20.63
323.584	18.85
323.796	19.52
324.007	19.8
324.219	20.3
324.431	18.82
324.643	16.79
324.855	14.9
325.067	14.94
325.279	15.39
325.491	15.56
325.702	14.23
325.914	14.46
326.126	13.59
326.338	12.88
326.55	12.33
326.761	12.04
326.973	13.18
327.185	13.47
327.396	12.53
327.608	11.82
327.82	12.35
328.032	10.96
328.243	10.12
328.455	9.66
328.666	9.33
328.878	9.98
329.09	10.07
329.301	8.81
329.513	10.67
329.725	10.31
329.936	9.96
330.148	8.59
330.359	9.58
330.571	10.47
330.782	10.94
330.994	12.22
331.205	11.3
331.417	11.99
331.628	12.74
331.84	12.56
332.051	12.45
332.262	13.03
332.474	15.86
332.685	18.72
332.897	17.77
333.108	19.31
333.319	17.73
333.531	18.05
333.742	18.81
333.953	18.69
334.165	17.5
334.376	17.37
334.587	18.6
334.799	17.14
335.01	16.04
335.221	16.71
335.432	15.88
335.644	16.92
335.855	17.37
336.066	17.03
336.277	16.29
336.488	16.97
336.7	18.09
336.911	17.73
337.122	17.53
337.333	17.07
337.544	16.27
337.755	16.14
337.966	13.98
338.177	13.49
338.388	14.19
338.599	14.07
338.811	12.84
339.022	11.88
339.233	11.21
339.444	11.36
339.655	13.73
339.866	14.72
340.076	15.73
340.287	17.1
340.498	17.95
340.709	17.03
340.92	18.83
341.131	20.53
341.342	20.99
341.553	21.18
341.764	21.99
341.975	20.81
342.185	22.14
342.396	21.61
342.607	22.55
342.818	22.7
343.029	22.93
343.239	22.29
343.45	22.01
343.661	22.22
343.872	22.09
344.082	20.95
344.293	19.97
344.504	18.16
344.714	18.24
344.925	17.16
345.136	16.42
345.346	16.22
345.557	15.97
345.768	14.99
345.978	15.41
346.189	15.38
346.399	16.48
346.61	16.16
346.821	16.28
347.031	16.29
347.242	16.13
347.452	15.76
347.663	16.55
347.873	16.55
348.084	17.71
348.294	16.66
348.504	16.13
348.715	15.19
348.925	15.33
349.136	16.82
349.346	15.82
349.557	16.67
349.767	18.49
349.977	17.99
350.188	18.56
350.398	18.27
350.608	19.95
350.819	19.04
351.029	19.19
351.239	20.18
351.449	19.45
351.66	18.92
351.87	18.8
352.08	17.6
352.29	17.17
352.501	16.64
352.711	16
352.921	15.84
353.131	16.84
353.341	17
353.552	17.44
353.762	16.58
353.972	17.6
354.182	18.72
354.392	18.59
354.602	18.74
354.812	18.7
355.022	18.82
355.232	18.51
355.442	18.81
355.652	18.42
355.862	16.5
356.072	17.08
356.282	16.3
356.492	15.96
356.702	15.02
356.912	14.73
357.122	15.05
357.332	14.96
357.542	13.97
357.752	14.29
357.962	13.71
358.171	14.78
358.381	14.5
358.591	14.42
358.801	13.88
359.011	14.14
359.221	14.26
359.43	14.01
359.64	14.03
359.85	13.59
360.06	13.84
360.269	13.9
360.479	13.89
360.689	14.1
360.899	14.94
361.108	15.5
361.318	15.61
361.528	15.5
361.737	15.39
361.947	15.54
362.156	16.08
362.366	15.65
362.576	16.05
362.785	15.89
362.995	15.71
363.204	15.13
363.414	14.31
363.623	14.7
363.833	14.23
364.042	14.78
364.252	14.65
364.461	14.17
364.671	14.13
364.88	13.65
365.09	14.43
365.299	14.93
365.509	16.14
365.718	16.27
365.927	15.53
366.137	15.61
366.346	15.03
366.555	15.34
366.765	16.06
366.974	16
367.183	16.54
367.393	15.39
367.602	14.53
367.811	13.53
368.021	13.6
368.23	14
368.439	14.63
368.648	14.66
368.857	13.76
369.067	13.02
369.276	12.19
369.485	12.44
369.694	12.66
369.903	13.53
370.112	13.88
370.321	14.31
370.531	14.06
370.74	13.62
370.949	14.02
371.158	14.65
371.367	15.56
371.576	16.19
371.785	15.66
371.994	15.87
372.203	15.19
372.412	14.85
372.621	13.97
372.83	14.12
373.039	14.58
373.248	14.04
373.457	14.27
373.666	13.6
373.874	13.23
374.083	13.8
374.292	13.17
374.501	13.04
374.71	12.96
374.919	14.05
375.128	13.63
375.336	12.92
375.545	12.56
375.754	12.15
375.963	12.26
376.171	11.73
376.38	10.67
376.589	10.54
376.798	11.07
377.006	10.56
377.215	9.67
377.424	10.49
377.632	11.46
377.841	11.77
378.05	11.81
378.258	11.17
378.467	11.55
378.675	11.68
378.884	12.14
379.093	11.84
379.301	12.29
379.51	12.89
379.718	12.82
379.927	12.05
380.135	12.51
380.344	12.05
380.552	12.45
380.761	12.66
380.969	12.68
381.177	12.74
381.386	12.21
381.594	12.45
381.803	11.81
382.011	10.97
382.219	10.97
382.428	10.43
382.636	10.35
382.845	10.06
383.053	9.58
383.261	9.71
383.469	9.37
383.678	10.01
383.886	9.56
384.094	9.39
384.302	9.51
384.511	9.69
384.719	9.71
384.927	10.18
385.135	9.89
385.343	10.11
385.552	9.99
385.76	9.68
385.968	9.15
386.176	9.27
386.384	9.56
386.592	9.77
386.8	9.56
387.008	9.46
387.216	9.39
387.424	9.51
387.633	9.55
387.841	9.09
388.049	9.27
388.257	9.62
388.465	9.34
388.672	9.48
388.88	9.42
389.088	9.45
389.296	9.06
389.504	8.55
389.712	8.59
389.92	8.59
390.128	8.92
390.336	8.93
390.544	8.84
390.751	8.9
390.959	8.42
391.167	7.87
391.375	7.64
391.583	8.04
391.79	8.38
391.998	8.36
392.206	7.96
392.414	8.11
392.621	8.22
392.829	8.12
393.037	8.07
393.244	8.12
393.452	8.34
393.66	8.51
393.867	8.6
394.075	8.33
394.283	8.35
394.49	8.88
394.698	8.86
394.905	8.69
395.113	8.54
395.32	8.54
395.528	8.48
395.735	8.34
395.943	8.33
396.15	8.06
396.358	8.35
396.565	8.39
396.773	7.98
396.98	8.07
397.188	7.83
397.395	7.81
397.602	7.78
397.81	8.03
398.017	8.17
398.225	7.84
398.432	8.06
398.639	7.92
398.847	7.62
399.054	7.59
399.261	7.13
399.468	7.47
399.676	7.57
399.883	7.45
400.09	7.39
400.297	7.08
400.505	6.99
400.712	6.99
400.919	6.56
401.126	6.78
401.333	6.63
401.54	6.74
401.748	6.76
401.955	6.46
402.162	6.37
402.369	6.32
402.576	6.71
402.783	6.86
402.99	6.95
403.197	7.25
403.404	7.31
403.611	7.44
403.818	7.38
404.025	7.18
404.232	7.31
404.439	7.47
404.646	7.13
404.853	7.25
405.06	7.28
405.267	7.23
405.474	7.13
405.681	7.25
405.887	7.66
406.094	7.78
406.301	7.75
406.508	7.87
406.715	8.18
406.922	8.42
407.128	8.37
407.335	8.15
407.542	7.8
407.749	7.72
407.955	7.35
408.162	7.01
408.369	7.21
408.575	7.5
408.782	7.36
408.989	6.9
409.195	6.96
409.402	6.89
409.609	7.36
409.815	7.37
410.022	7.63
410.228	7.87
410.435	7.61
410.642	7.16
410.848	6.96
411.055	7.23
411.261	7.31
411.468	7.28
411.674	7.43
411.881	7.23
412.087	7.27
412.294	7.36
412.5	7.13
412.706	7.3
412.913	7.71
413.119	7.81
413.326	7.64
413.532	7.93
413.738	8.1
413.945	7.68
414.151	7.59
414.357	7.55
414.564	7.12
414.77	6.98
414.976	6.83
415.182	6.73
415.389	6.91
415.595	6.98
415.801	6.84
416.007	6.29
416.214	6.21
416.42	6.19
416.626	6.16
416.832	6.28
417.038	6.53
417.244	6.34
417.45	6.15
417.657	5.78
417.863	5.82
418.069	5.87
418.275	6.07
418.481	6.18
418.687	6.26
418.893	6.18
419.099	6.07
419.305	6.14
419.511	6.27
419.717	6.42
419.923	6.47
420.129	6.51
420.335	6.4
420.541	6.57
420.746	6.79
420.952	6.88
421.158	6.98
421.364	7.19
421.57	7.11
421.776	7.15
421.982	7.18
422.187	7.29
422.393	7.2
422.599	7.1
422.805	7
423.01	6.72
423.216	6.68
423.422	6.6
423.628	6.54
423.833	6.48
424.039	6.42
424.245	6.44
424.45	6.58
424.656	6.57
424.862	6.77
425.067	6.73
425.273	6.91
425.478	7.03
425.684	7.05
425.889	6.89
426.095	6.99
426.301	7.11
426.506	7.12
426.712	6.89
426.917	6.82
427.123	6.63
427.328	6.9
427.533	6.92
427.739	6.53
427.944	6.8
428.15	7.09
428.355	6.94
428.561	6.96
428.766	6.86
428.971	6.73
429.177	6.84
429.382	6.84
429.587	6.64
429.793	6.61
429.998	6.85
430.203	6.65
430.408	6.38
430.614	6.52
430.819	6.35
431.024	6.27
431.229	6.57
431.434	6.36
431.64	6.62
431.845	6.64
432.05	6.53
432.255	6.4
432.46	6.42
432.665	6.63
432.87	6.51
433.076	6.43
433.281	6.51
433.486	6.43
433.691	6.55
433.896	6.54
434.101	6.38
434.306	6.4
434.511	6.43
434.716	6.4
434.921	6.18
435.126	6.21
435.331	6.33
435.535	6.07
435.74	6.15
435.945	6.04
436.15	5.83
436.355	5.84
436.56	5.73
436.765	5.7
436.97	5.74
437.174	5.83
437.379	5.96
437.584	5.81
437.789	6.04
437.993	5.87
438.198	6.05
438.403	6.03
438.608	6.21
438.812	6.22
439.017	6.36
439.222	6.32
439.426	6.41
439.631	6.3
439.836	6.48
440.04	6.48
440.245	6.56
440.45	6.55
440.654	6.57
440.859	6.65
441.063	6.69
441.268	6.53
441.472	6.43
441.677	6.36
441.881	6.35
442.086	6.13
442.29	6.05
442.495	6.11
442.699	6.12
442.904	6.14
443.108	5.89
443.312	5.99
443.517	6.17
443.721	6.31
443.925	6.29
444.13	6.44
444.334	6.73
444.538	6.95
444.743	6.8
444.947	6.7
445.151	6.7
445.356	6.78
445.56	6.59
445.764	6.5
445.968	6.43
446.173	6.4
446.377	6.33
446.581	6.4
446.785	6.21
446.989	6.28
447.193	6.24
447.398	6.13
447.602	6.02
447.806	5.96
448.01	5.92
448.214	5.83
448.418	5.77
448.622	5.81
448.826	5.62
449.03	5.57
449.234	5.52
449.438	5.41
449.642	5.58
449.846	5.53
450.05	5.68
450.254	5.82
450.458	5.84
450.662	5.91
450.866	5.82
451.069	5.72
451.273	5.89
451.477	5.63
451.681	5.91
451.885	6.1
452.089	6.42
452.292	6.33
452.496	6.35
452.7	6.48
452.904	6.56
453.107	6.61
453.311	6.64
453.515	6.73
453.719	7.02
453.922	6.78
454.126	6.59
454.33	6.49
454.533	6.64
454.737	6.38
454.94	6.49
455.144	6.36
455.348	6.31
455.551	6.49
455.755	6.32
455.958	6.15
456.162	6.28
456.365	6.25
456.569	6.22
456.772	6.01
456.976	6.1
457.179	6.02
457.383	6.05
457.586	6.02
457.79	5.9
457.993	5.91
458.196	6.08
458.4	5.93
458.603	5.79
458.807	5.78
459.01	5.9
459.213	6
459.417	5.88
459.62	5.9
459.823	5.93
460.026	5.99
460.23	5.9
460.433	5.78
460.636	5.87
460.839	6.06
461.042	6.12
461.246	6.1
461.449	5.99
461.652	6.17
461.855	6.19
462.058	6.13
462.261	5.97
462.464	6.03
462.668	6.07
462.871	6.09
