Data from 2937813_Reflection_2.txt Node
Date: Wed Jul 15 17:42:17 EDT 2015
User: robert
Spectrometer: USB4E03001
Autoset integration time: false
Trigger mode: 4
Integration Time (sec): 1.000000E-1
Scans to average: 10
Electric dark correction enabled: true
Nonlinearity correction enabled: false
Boxcar width: 5
Stray light correction enabled: false
XAxis mode: Wavelengths
Stop averaging: false
Number of Pixels in Spectrum: 3648
>>>>>Begin Spectral Data<<<<<
177.566	290.65
177.785	4666.67
178.005	96.89
178.225	5.79
178.445	34.77
178.665	7.53
178.885	164.13
179.105	220.49
179.324	591.14
179.544	-232.32
179.764	-72.44
179.984	-40.59
180.204	1014.29
180.423	-324.85
180.643	5665.22
180.863	2176.88
181.083	825.35
181.302	103.97
181.522	194.69
181.742	119.39
181.961	-120.13
182.181	-136.24
182.401	-258.8
182.621	-141.85
182.84	2268.59
183.06	3259.29
183.279	-108.79
183.499	-128.44
183.719	37.68
183.938	2.54
184.158	36.25
184.377	74.86
184.597	60.94
184.816	45.75
185.036	46.97
185.256	39.14
185.475	24.01
185.695	16.15
185.914	16.15
186.134	5.67
186.353	7.33
186.572	2.16
186.792	-1.79
187.011	9.6
187.231	-0.04
187.45	-19.2
187.67	-7.45
187.889	-5.96
188.108	-17.39
188.328	-34.35
188.547	-55.49
188.766	-124.81
188.986	-241.14
189.205	465.4
189.424	181.51
189.644	253.18
189.863	35.15
190.082	184.5
190.302	181.58
190.521	20.48
190.74	71.97
190.959	324.49
191.178	-169.29
191.398	218.13
191.617	56.34
191.836	163.89
192.055	195.1
192.274	112.42
192.494	236.19
192.713	250.54
192.932	159.92
193.151	195.4
193.37	391.11
193.589	118.28
193.808	155.43
194.027	61.52
194.246	10.74
194.465	41.22
194.685	472.15
194.904	-338.51
195.123	822.09
195.342	539.65
195.561	507.25
195.78	-198.3
195.999	-210.03
196.218	248.02
196.436	58.34
196.655	156.28
196.874	235.13
197.093	192.16
197.312	535.56
197.531	308.14
197.75	69.51
197.969	-0.79
198.188	6
198.407	2.99
198.625	-9.56
198.844	-28.88
199.063	5045.83
199.282	310.92
199.501	-1768.66
199.719	-74.26
199.938	-36.8
200.157	-359.14
200.376	128.09
200.594	144.91
200.813	144.43
201.032	110.86
201.251	218.23
201.469	772.83
201.688	1879.21
201.907	-226.83
202.125	212.25
202.344	309.87
202.563	385.13
202.781	225.63
203	175.11
203.218	149.29
203.437	124.4
203.656	142.03
203.874	149.37
204.093	95.84
204.311	80.48
204.53	73.96
204.748	49.18
204.967	26.86
205.185	15.82
205.404	-31.84
205.622	-31.22
205.841	-484.04
206.059	-267.4
206.278	-28.37
206.496	41.08
206.715	-14.51
206.933	-72.54
207.151	-90.19
207.37	-3978.69
207.588	-277.09
207.806	151.23
208.025	84.72
208.243	202.57
208.461	535.84
208.68	887.71
208.898	-485.09
209.116	36.76
209.335	102.46
209.553	119.1
209.771	173.59
209.989	149.51
210.208	146.97
210.426	215.08
210.644	46.77
210.862	76.42
211.081	79.82
211.299	103.12
211.517	182.02
211.735	194.73
211.953	241.31
212.171	262.66
212.39	205.52
212.608	234.01
212.826	207.77
213.044	327.19
213.262	399.03
213.48	246.51
213.698	20700
213.916	20.23
214.134	-30.37
214.352	-513.51
214.57	-295.93
214.788	2708
215.006	-427.24
215.224	221.03
215.442	1204.41
215.66	317.34
215.878	117.25
216.096	120.91
216.314	257.67
216.532	259.53
216.75	207.93
216.968	204.39
217.185	93.3
217.403	101.63
217.621	89.03
217.839	4.18
218.057	-303.97
218.275	49.3
218.492	57.06
218.71	38.95
218.928	73.58
219.146	74.73
219.363	108.82
219.581	97.75
219.799	91.71
220.017	79.32
220.234	82.96
220.452	56.74
220.67	26.63
220.887	-36.19
221.105	-161.75
221.323	-45.56
221.54	-94.43
221.758	289.66
221.976	257.42
222.193	-594.52
222.411	286.79
222.629	238.77
222.846	1012.97
223.064	346.6
223.281	292.37
223.499	244.13
223.716	204.41
223.934	218.45
224.151	1231.61
224.369	3295.04
224.586	903.38
224.804	-283.7
225.021	21.06
225.239	227.28
225.456	205.08
225.674	153.12
225.891	108.4
226.108	112.79
226.326	96.1
226.543	94.87
226.76	73.85
226.978	53.46
227.195	40.46
227.413	25.9
227.63	10.46
227.847	20.52
228.064	19.73
228.282	17.83
228.499	18.45
228.716	19.3
228.934	16.99
229.151	15.59
229.368	19.9
229.585	15.64
229.802	18.43
230.02	20.11
230.237	18.43
230.454	20.72
230.671	21.62
230.888	23.46
231.105	22.17
231.323	23.59
231.54	24.91
231.757	22
231.974	25.04
232.191	20.29
232.408	16.02
232.625	12.04
232.842	3.81
233.059	11.1
233.276	10.81
233.493	7.08
233.71	6.97
233.927	16.02
234.144	11.9
234.361	15.71
234.578	17.84
234.795	23.48
235.012	19.67
235.229	16.55
235.446	12.33
235.663	8.15
235.879	3.21
236.096	4.38
236.313	3.34
236.53	7.15
236.747	6.72
236.964	2.87
237.181	-4.32
237.397	-6.53
237.614	0.48
237.831	-9.06
238.048	-1.46
238.264	8.86
238.481	8.69
238.698	8.32
238.915	8.36
239.131	4.43
239.348	11.98
239.565	9.46
239.781	3.11
239.998	-0.76
240.215	1.45
240.431	-3.66
240.648	-4.65
240.865	-3.96
241.081	1.01
241.298	2.05
241.514	2.46
241.731	4.61
241.947	7.24
242.164	10.11
242.38	10.25
242.597	14.02
242.814	14.49
243.03	14.66
243.246	15.02
243.463	13.15
243.679	12
243.896	11.26
244.112	10.89
244.329	10.86
244.545	12.83
244.762	13.4
244.978	11.69
245.194	14.63
245.411	13.08
245.627	14.28
245.843	14.06
246.06	15.28
246.276	16.46
246.492	15.44
246.709	13.87
246.925	13.31
247.141	13.57
247.357	12.23
247.574	10.9
247.79	11.01
248.006	11
248.222	10.17
248.439	9.68
248.655	8.41
248.871	6.95
249.087	6.03
249.303	4.43
249.519	1.92
249.736	3
249.952	3.49
250.168	5.38
250.384	1.47
250.6	-0.41
250.816	-0.55
251.032	1.88
251.248	2.33
251.464	5.4
251.68	4.59
251.896	8.02
252.112	8.05
252.328	7.61
252.544	8.73
252.76	10.26
252.976	12.82
253.192	12.99
253.408	13.84
253.624	14.06
253.84	13.37
254.056	16.39
254.272	13.28
254.487	13.37
254.703	11.23
254.919	7.32
255.135	7.75
255.351	7.7
255.567	5.56
255.782	2.75
255.998	6.05
256.214	6.25
256.43	7.59
256.646	6.26
256.861	6.06
257.077	6
257.293	7
257.508	6.5
257.724	6.53
257.94	8.92
258.155	9.29
258.371	9.99
258.587	9.73
258.802	10.32
259.018	12.07
259.234	12.5
259.449	11.78
259.665	11.22
259.88	12.21
260.096	11.64
260.312	11.3
260.527	10.68
260.743	10.4
260.958	10.28
261.174	9.43
261.389	9.68
261.605	9.27
261.82	10.07
262.036	10.18
262.251	8.95
262.466	9.56
262.682	9.64
262.897	11.35
263.113	11.22
263.328	12.66
263.543	14.17
263.759	13.4
263.974	11.98
264.189	11.97
264.405	12.33
264.62	11.56
264.835	12.41
265.051	10.7
265.266	10.55
265.481	8.21
265.696	9.19
265.912	8.35
266.127	7.86
266.342	7.1
266.557	5.82
266.773	7.56
266.988	9.42
267.203	8.44
267.418	9.61
267.633	7.33
267.848	8.21
268.064	8.56
268.279	8.36
268.494	7.63
268.709	10.7
268.924	11.44
269.139	11.53
269.354	10.58
269.569	10.2
269.784	8.84
269.999	10.98
270.214	13.17
270.429	12.24
270.644	11.42
270.859	13.47
271.074	13.89
271.289	11.83
271.504	10.81
271.719	9.28
271.934	10.41
272.149	11.12
272.363	12.75
272.578	12.18
272.793	11.89
273.008	12.98
273.223	11.53
273.438	9.39
273.653	11.04
273.867	11.75
274.082	13.03
274.297	13.65
274.512	13.86
274.726	12.25
274.941	11.14
275.156	12.29
275.371	9.54
275.585	8.61
275.8	9.28
276.015	11.5
276.229	7.75
276.444	6.92
276.659	5.18
276.873	3.19
277.088	1.46
277.302	1.51
277.517	-0.91
277.732	1.29
277.946	1.6
278.161	4.01
278.375	3.47
278.59	6.13
278.804	5.75
279.019	4.41
279.233	5.18
279.448	5.92
279.662	5.05
279.877	6.32
280.091	5.28
280.306	8.41
280.52	6.05
280.735	3.42
280.949	4.62
281.163	6.98
281.378	7.29
281.592	9.65
281.806	10.47
282.021	11.54
282.235	10.54
282.449	13.07
282.664	12.36
282.878	13.26
283.092	15.83
283.307	15.59
283.521	14.77
283.735	13.15
283.949	12.07
284.164	12.48
284.378	11.93
284.592	13.74
284.806	12.12
285.02	12.77
285.234	13.01
285.449	12.32
285.663	11.55
285.877	11.33
286.091	13.95
286.305	14.33
286.519	13.62
286.733	13.39
286.947	12.65
287.161	13.32
287.375	12.31
287.589	11
287.803	9.1
288.017	8.22
288.231	6.36
288.445	4.37
288.659	4.61
288.873	4.69
289.087	6.1
289.301	6.84
289.515	9.13
289.729	8.1
289.943	7.45
290.157	9.53
290.371	10.45
290.584	13.17
290.798	13.98
291.012	13.14
291.226	13.74
291.44	14.53
291.654	13.31
291.867	11.21
292.081	10.42
292.295	12.49
292.509	12.18
292.722	11.13
292.936	10.4
293.15	10.75
293.364	10.14
293.577	10.96
293.791	9.37
294.005	8.32
294.218	5.51
294.432	7.77
294.645	7.2
294.859	6.08
295.073	6.71
295.286	5.28
295.5	5.97
295.713	6.04
295.927	6.04
296.14	6.94
296.354	7.9
296.568	9.84
296.781	10.54
296.994	10.9
297.208	11.19
297.421	11.26
297.635	12.42
297.848	11.08
298.062	11.76
298.275	11.48
298.489	12
298.702	13.35
298.915	13.73
299.129	13.14
299.342	14.59
299.555	16.08
299.769	15.91
299.982	16.03
300.195	15.17
300.409	15.14
300.622	15.57
300.835	12.76
301.048	12.06
301.262	9.76
301.475	10.69
301.688	8.7
301.901	7.31
302.115	9.22
302.328	9.1
302.541	11.68
302.754	11.02
302.967	9.56
303.18	11.1
303.393	9.34
303.607	11.75
303.82	10.69
304.033	10.98
304.246	11.36
304.459	10.24
304.672	10.74
304.885	11.3
305.098	11.59
305.311	13.85
305.524	14.27
305.737	16.5
305.95	15.84
306.163	16.71
306.376	15.92
306.589	15.96
306.802	14.9
307.015	13.26
307.228	12.25
307.44	14.05
307.653	11.61
307.866	9.73
308.079	8.59
308.292	9.04
308.505	11.27
308.718	14.4
308.93	13.83
309.143	15.15
309.356	16.14
309.569	15
309.781	14.75
309.994	14.72
310.207	15.67
310.42	14.96
310.632	15.42
310.845	13.92
311.058	11.44
311.27	12.64
311.483	13.32
311.696	11.82
311.908	11.55
312.121	9.54
312.333	9.55
312.546	9.77
312.759	10.16
312.971	9.17
313.184	9.15
313.396	9.45
313.609	7.94
313.821	8.36
314.034	10.19
314.246	9.61
314.459	11.92
314.671	12.25
314.884	10.19
315.096	11.33
315.309	8.86
315.521	7.73
315.733	6.96
315.946	8.22
316.158	7.15
316.371	7.02
316.583	9.69
316.795	9.72
317.008	10.93
317.22	13.37
317.432	11.83
317.644	16.72
317.857	16
318.069	16.86
318.281	14.08
318.494	12.69
318.706	12.15
318.918	14.12
319.13	13.34
319.342	12.88
319.555	10.39
319.767	12.39
319.979	10.17
320.191	12.32
320.403	9.17
320.615	10.95
320.827	10.53
321.039	10.78
321.252	8.54
321.464	9.58
321.676	11.23
321.888	14.11
322.1	12.62
322.312	11.94
322.524	9.64
322.736	12.33
322.948	11.99
323.16	11.41
323.372	9.65
323.584	10.28
323.796	8.22
324.007	5.75
324.219	3.52
324.431	4.49
324.643	5.57
324.855	6.93
325.067	7.04
325.279	6.9
325.491	8.88
325.702	9.88
325.914	9.43
326.126	10.8
326.338	10.34
326.55	11.54
326.761	10.59
326.973	10.62
327.185	10.69
327.396	10.17
327.608	11.39
327.82	11.79
328.032	12.72
328.243	13.26
328.455	14.39
328.666	16.48
328.878	17.12
329.09	18.53
329.301	17.32
329.513	14.61
329.725	15.19
329.936	15.13
330.148	14.23
330.359	13.16
330.571	13.4
330.782	11.78
330.994	10.69
331.205	10.34
331.417	9.42
331.628	9.78
331.84	14.13
332.051	15.88
332.262	15.44
332.474	16.13
332.685	15.37
332.897	15.27
333.108	16.73
333.319	15.58
333.531	14.74
333.742	17.22
333.953	17.44
334.165	15.61
334.376	14.69
334.587	14.03
334.799	13.56
335.01	15.7
335.221	15.95
335.432	15.02
335.644	16.63
335.855	15.09
336.066	13.87
336.277	12.94
336.488	15.94
336.7	14.68
336.911	17.36
337.122	19.6
337.333	19.85
337.544	18.58
337.755	18.88
337.966	17.26
338.177	18.68
338.388	17.12
338.599	18.9
338.811	17.1
339.022	18.43
339.233	16.57
339.444	13.7
339.655	13.07
339.866	14.22
340.076	14.97
340.287	15.5
340.498	15.89
340.709	16.48
340.92	15.57
341.131	16.53
341.342	14.9
341.553	13.98
341.764	14.32
341.975	12.51
342.185	11.57
342.396	9.24
342.607	10.11
342.818	10.04
343.029	10.29
343.239	11.66
343.45	10.59
343.661	11.25
343.872	11.98
344.082	11.6
344.293	13.63
344.504	15.11
344.714	15.58
344.925	15.94
345.136	17.45
345.346	16.98
345.557	15.42
345.768	15.13
345.978	15.59
346.189	15.17
346.399	15.32
346.61	13.97
346.821	13.53
347.031	14.05
347.242	13.78
347.452	11.91
347.663	13.2
347.873	13.1
348.084	14.54
348.294	14.45
348.504	14.17
348.715	14.55
348.925	15.09
349.136	15.16
349.346	13.5
349.557	14.91
349.767	15.99
349.977	14.17
350.188	15.69
350.398	15.13
350.608	15.08
350.819	14.71
351.029	14.44
351.239	14.66
351.449	13.79
351.66	12.41
351.87	10.31
352.08	8.89
352.29	8.21
352.501	6.53
352.711	7.33
352.921	7.71
353.131	9.21
353.341	9.24
353.552	10.39
353.762	11.01
353.972	14.81
354.182	15.68
354.392	16.08
354.602	17.25
354.812	16.3
355.022	16.18
355.232	15.13
355.442	15
355.652	15.71
355.862	14.65
356.072	12.86
356.282	12.33
356.492	11.83
356.702	11.9
356.912	11.67
357.122	14.33
357.332	12.95
357.542	13.69
357.752	13.71
357.962	13.05
358.171	12.6
358.381	13.32
358.591	12.83
358.801	12.68
359.011	13.09
359.221	13.71
359.43	13.07
359.64	14.52
359.85	14.36
360.06	13.24
360.269	13.7
360.479	13.19
360.689	13.65
360.899	13.17
361.108	13.93
361.318	13.79
361.528	13.82
361.737	13.81
361.947	13.12
362.156	12.87
362.366	13.37
362.576	12.96
362.785	13.62
362.995	14.43
363.204	14.68
363.414	14
363.623	14.75
363.833	14.5
364.042	13.88
364.252	14.38
364.461	14.17
364.671	15.35
364.88	14.22
365.09	13.93
365.299	13.98
365.509	13.97
365.718	14.73
365.927	13.27
366.137	13.68
366.346	13.54
366.555	12.25
366.765	12.95
366.974	11.68
367.183	12.31
367.393	12.83
367.602	11.44
367.811	11.94
368.021	11.66
368.23	12.22
368.439	10.96
368.648	11.25
368.857	11
369.067	10.48
369.276	10.1
369.485	10.07
369.694	9.9
369.903	9.53
370.112	9.42
370.321	8.96
370.531	9.24
370.74	9.46
370.949	8.84
371.158	9.72
371.367	10.35
371.576	11.08
371.785	12.18
371.994	11.75
372.203	13.08
372.412	12.98
372.621	12.93
372.83	11.87
373.039	12.29
373.248	12.49
373.457	12.54
373.666	12.17
373.874	12.18
374.083	11.91
374.292	12.4
374.501	11.9
374.71	12.01
374.919	11.56
375.128	11.2
375.336	11.96
375.545	12.08
375.754	11.58
375.963	10.99
376.171	10.61
376.38	10.26
376.589	9.55
376.798	9.77
377.006	9.34
377.215	9.92
377.424	10.82
377.632	9.91
377.841	9.38
378.05	10.04
378.258	9.74
378.467	9.74
378.675	9.69
378.884	10.08
379.093	10
379.301	10.52
379.51	10.25
379.718	10.37
379.927	10.83
380.135	11.45
380.344	11.31
380.552	13.2
380.761	13.57
380.969	14.02
381.177	13.54
381.386	13.29
381.594	12.87
381.803	13.72
382.011	12.95
382.219	12.71
382.428	12.8
382.636	12.18
382.845	10.75
383.053	10.61
383.261	10.16
383.469	10.58
383.678	10.55
383.886	10.39
384.094	9.37
384.302	9.38
384.511	8.82
384.719	8.35
384.927	8.71
385.135	8.76
385.343	8.52
385.552	8.59
385.76	8.01
385.968	7.8
386.176	7.57
386.384	7.95
386.592	8.43
386.8	8.67
387.008	8.91
387.216	8.7
387.424	8.98
387.633	8.45
387.841	8.1
388.049	8.51
388.257	8.23
388.465	8.44
388.672	8.51
388.88	8.23
389.088	8.16
389.296	7.58
389.504	7.43
389.712	7.4
389.92	7.81
390.128	7.83
390.336	7.79
390.544	8.22
390.751	8.37
390.959	8.05
391.167	7.95
391.375	7.77
391.583	8.14
391.79	8.2
391.998	7.88
392.206	7.51
392.414	7.2
392.621	6.86
392.829	6.6
393.037	6.64
393.244	6.32
393.452	6.05
393.66	6.28
393.867	6.21
394.075	6.01
394.283	5.91
394.49	6.07
394.698	6.06
394.905	6.23
395.113	6.08
395.32	5.82
395.528	5.94
395.735	6.47
395.943	6.1
396.15	6.07
396.358	6.27
396.565	6.35
396.773	6.52
396.98	6.22
397.188	6.52
397.395	6.66
397.602	6.26
397.81	6.33
398.017	5.85
398.225	6.22
398.432	6.13
398.639	6.1
398.847	6.27
399.054	6.09
399.261	6.56
399.468	6.09
399.676	5.98
399.883	6.38
400.09	6.31
400.297	6.36
400.505	6.24
400.712	6.36
400.919	6.25
401.126	6.02
401.333	6.21
401.54	6.56
401.748	6.8
401.955	6.95
402.162	6.9
402.369	7.04
402.576	7.53
402.783	7.3
402.99	6.98
403.197	6.94
403.404	6.82
403.611	6.76
403.818	6.47
404.025	6.53
404.232	6.56
404.439	6.85
404.646	6.79
404.853	6.56
405.06	6.56
405.267	6.9
405.474	7.23
405.681	7.28
405.887	6.93
406.094	6.78
406.301	6.75
406.508	6.37
406.715	6.02
406.922	5.99
407.128	5.81
407.335	6.04
407.542	5.67
407.749	4.91
407.955	4.94
408.162	5.22
408.369	5.62
408.575	5.6
408.782	5.84
408.989	5.82
409.195	5.7
409.402	5.8
409.609	5.55
409.815	5.59
410.022	6.03
410.228	6.15
410.435	6.18
410.642	6.24
410.848	6.07
411.055	6.39
411.261	6.5
411.468	6.46
411.674	6.2
411.881	6.18
412.087	6.34
412.294	5.89
412.5	5.91
412.706	5.71
412.913	5.26
413.119	5.05
413.326	4.64
413.532	4.88
413.738	4.95
413.945	5.37
414.151	5.45
414.357	5.31
414.564	5.93
414.77	5.73
414.976	6.13
415.182	6.18
415.389	6.66
415.595	6.49
415.801	6.35
416.007	6.51
416.214	6.24
416.42	6.52
416.626	7
416.832	6.87
417.038	6.99
417.244	6.78
417.45	6.76
417.657	6.54
417.863	6.77
418.069	6.74
418.275	6.55
418.481	6.56
418.687	6.41
418.893	6.08
419.099	5.97
419.305	5.95
419.511	6.07
419.717	6.2
419.923	6.28
420.129	6.2
420.335	6.31
420.541	6.25
420.746	6.24
420.952	6.25
421.158	6.34
421.364	6.38
421.57	6.36
421.776	6.27
421.982	6.24
422.187	6.23
422.393	6.23
422.599	6.11
422.805	6.07
423.01	6.12
423.216	6.17
423.422	6.07
423.628	6.06
423.833	6.03
424.039	6.08
424.245	6.13
424.45	6
424.656	5.99
424.862	6.01
425.067	6.36
425.273	6.27
425.478	5.99
425.684	5.99
425.889	6.04
426.095	5.91
426.301	5.99
426.506	5.9
426.712	6.05
426.917	6.13
427.123	6.09
427.328	5.75
427.533	5.97
427.739	6.42
427.944	6.58
428.15	6.65
428.355	6.91
428.561	6.76
428.766	6.8
428.971	6.61
429.177	6.65
429.382	6.6
429.587	6.65
429.793	6.45
429.998	6.1
430.203	5.86
430.408	5.43
430.614	5.47
430.819	5.52
431.024	5.2
431.229	5.43
431.434	5.28
431.64	5.3
431.845	5.51
432.05	5.68
432.255	5.73
432.46	5.73
432.665	5.99
432.87	5.88
433.076	5.84
433.281	6.04
433.486	5.94
433.691	6
433.896	5.94
434.101	5.97
434.306	5.88
434.511	5.79
434.716	5.76
434.921	5.77
435.126	5.81
435.331	5.82
435.535	5.91
435.74	5.91
435.945	5.91
436.15	5.87
436.355	5.68
436.56	5.72
436.765	5.93
436.97	5.88
437.174	5.9
437.379	5.79
437.584	5.92
437.789	5.89
437.993	5.98
438.198	5.99
438.403	6.11
438.608	6.05
438.812	6.06
439.017	6.05
439.222	6.26
439.426	6.03
439.631	6.06
439.836	5.83
440.04	5.85
440.245	5.86
440.45	5.99
440.654	5.9
440.859	6
441.063	5.97
441.268	5.96
441.472	5.92
441.677	6.02
441.881	6.05
442.086	6.25
442.29	6.23
442.495	6.27
442.699	6.3
442.904	6.38
443.108	6.45
443.312	6.31
443.517	6.27
443.721	6.06
443.925	6.2
444.13	6.23
444.334	6.18
444.538	6.07
444.743	6.01
444.947	5.83
445.151	5.78
445.356	5.75
445.56	5.94
445.764	5.82
445.968	5.88
446.173	5.94
446.377	5.86
446.581	5.92
446.785	6.01
446.989	6.02
447.193	6.05
447.398	6.19
447.602	6.16
447.806	6.28
448.01	6.33
448.214	6.3
448.418	6.23
448.622	6.22
448.826	6.05
449.03	6.15
449.234	5.97
449.438	5.88
449.642	6.02
449.846	6.11
450.05	5.94
450.254	5.98
450.458	6.22
450.662	6.23
450.866	6.32
451.069	6.29
451.273	6.1
451.477	6.33
451.681	6.25
451.885	5.82
452.089	5.71
452.292	5.76
452.496	5.82
452.7	5.62
452.904	5.55
453.107	5.46
453.311	5.62
453.515	5.59
453.719	5.46
453.922	5.53
454.126	5.66
454.33	5.6
454.533	5.5
454.737	5.5
454.94	5.84
455.144	5.93
455.348	6.05
455.551	6.03
455.755	6.09
455.958	6.08
456.162	6.4
456.365	6.22
456.569	6.14
456.772	6.08
456.976	6.06
457.179	5.95
457.383	5.87
457.586	5.71
457.79	5.39
457.993	5.37
458.196	5.32
458.4	5.16
458.603	5.2
458.807	5.26
459.01	5.28
459.213	5.37
459.417	5.31
459.62	5.35
459.823	5.47
460.026	5.66
460.23	5.81
460.433	5.96
460.636	6.09
460.839	6.15
461.042	6.24
461.246	6.34
461.449	6.19
461.652	6.27
461.855	6.3
462.058	6.27
462.261	6.2
462.464	6
462.668	5.87
462.871	5.78
463.074	5.75
463.277	5.63
463.48	5.56
