Data from 2937823_Reflection_3.txt Node
Date: Wed Jul 15 17:11:40 EDT 2015
User: robert
Spectrometer: USB4E03001
Autoset integration time: false
Trigger mode: 4
Integration Time (sec): 1.000000E-1
Scans to average: 10
Electric dark correction enabled: true
Nonlinearity correction enabled: false
Boxcar width: 5
Stray light correction enabled: false
XAxis mode: Wavelengths
Stop averaging: false
Number of Pixels in Spectrum: 3648
>>>>>Begin Spectral Data<<<<<
177.566	331.99
177.785	148.03
178.005	334.71
178.225	-4927.5
178.445	90.45
178.665	275.7
178.885	-21.98
179.105	169.87
179.324	203.61
179.544	3318.25
179.764	382
179.984	219.15
180.204	76.35
180.423	93.59
180.643	64.84
180.863	-26.02
181.083	-76.48
181.302	-180.86
181.522	-511.11
181.742	-161.69
181.961	-412.28
182.181	-994.03
182.401	9553.57
182.621	506.04
182.84	-455.42
183.06	-196.87
183.279	-139.25
183.499	-79.42
183.719	-125.67
183.938	-32.18
184.158	-38.75
184.377	11.92
184.597	44.31
184.816	64.41
185.036	55.38
185.256	44.94
185.475	36.74
185.695	-63.57
185.914	-103.98
186.134	-97.08
186.353	-115.32
186.572	-111.42
186.792	-156.32
187.011	-317.16
187.231	-357.92
187.45	-362.92
187.67	-211.84
187.889	-225.99
188.108	-408.75
188.328	-583.33
188.547	-1847.86
188.766	442.01
188.986	500
189.205	506.35
189.424	-93.44
189.644	-217.6
189.863	-166.57
190.082	-134.3
190.302	-127.35
190.521	-29.73
190.74	-34.25
190.959	-15.43
191.178	-46.55
191.398	-43.92
191.617	-43.63
191.836	-66.72
192.055	-36.69
192.274	-62.27
192.494	-68.02
192.713	-56.47
192.932	-93.78
193.151	-71.39
193.37	-77.09
193.589	-25.51
193.808	-36.81
194.027	-33.19
194.246	-30.04
194.465	-36.44
194.685	-9.65
194.904	-18.85
195.123	-4.64
195.342	-46.98
195.561	-46.89
195.78	-26.63
195.999	-20.57
196.218	-33.52
196.436	-74.88
196.655	-86.11
196.874	-99.44
197.093	-173.15
197.312	-143.06
197.531	-382.66
197.75	-159.8
197.969	-263.5
198.188	-11291.76
198.407	507.72
198.625	495.41
198.844	625.14
199.063	571.39
199.282	800.67
199.501	345.19
199.719	264.01
199.938	217.52
200.157	301.05
200.376	284.66
200.594	162.61
200.813	598.83
201.032	-286.17
201.251	-15230
201.469	-716.04
201.688	-168.2
201.907	-138.01
202.125	-237.89
202.344	-19.94
202.563	-330.22
202.781	-125.39
203	-203.12
203.218	-48.58
203.437	-45.99
203.656	-73.47
203.874	-95.6
204.093	-100.83
204.311	-69.96
204.53	-54.84
204.748	-108.62
204.967	-31.2
205.185	-49.21
205.404	-33.53
205.622	-40.5
205.841	-86.27
206.059	-65
206.278	-46.24
206.496	-42.32
206.715	-62.31
206.933	-88.42
207.151	-39.97
207.37	-54.96
207.588	11.45
207.806	-4.37
208.025	-43.61
208.243	72.75
208.461	17
208.68	-293
208.898	-205.49
209.116	34.39
209.335	5.17
209.553	62.76
209.771	82.24
209.989	149.83
210.208	147.29
210.426	137.09
210.644	686.05
210.862	232.97
211.081	527.08
211.299	-67842.86
211.517	-21.42
211.735	-57.34
211.953	-7.58
212.171	-45.59
212.39	-76.01
212.608	-41.34
212.826	-64.54
213.044	-0.84
213.262	-13.31
213.48	32.35
213.698	48.77
213.916	49.99
214.134	61.58
214.352	36.95
214.57	46.15
214.788	37.19
215.006	45.38
215.224	39.52
215.442	27
215.66	14.38
215.878	7.06
216.096	2.45
216.314	10.55
216.532	-19.06
216.75	-31.22
216.968	-36.18
217.185	-47.34
217.403	-74.82
217.621	-102.77
217.839	-110.59
218.057	-287.66
218.275	-672.78
218.492	-208.34
218.71	-2648.19
218.928	570.62
219.146	345.51
219.363	220.71
219.581	194.4
219.799	302.61
220.017	277.37
220.234	231.98
220.452	587.79
220.67	801.35
220.887	424.9
221.105	363.74
221.323	366.83
221.54	343
221.758	304.09
221.976	236.73
222.193	394.26
222.411	596.44
222.629	271.5
222.846	173.48
223.064	168.29
223.281	116.77
223.499	121.41
223.716	129.83
223.934	135.18
224.151	96.77
224.369	97.48
224.586	65.36
224.804	46.17
225.021	61.1
225.239	82.33
225.456	50.9
225.674	115.56
225.891	67.69
226.108	82.9
226.326	66.9
226.543	42.55
226.76	55.6
226.978	55.06
227.195	62.74
227.413	50.82
227.63	46.54
227.847	39.8
228.064	35.04
228.282	34.14
228.499	27.71
228.716	29.22
228.934	27.1
229.151	26.69
229.368	24.67
229.585	21.73
229.802	23.8
230.02	23.93
230.237	25.18
230.454	23.86
230.671	27.58
230.888	29.23
231.105	25.92
231.323	27.93
231.54	21.47
231.757	18.39
231.974	24.37
232.191	23.53
232.408	22.93
232.625	26.49
232.842	33.02
233.059	25.61
233.276	31.86
233.493	35.62
233.71	35.43
233.927	50.39
234.144	59.07
234.361	43.94
234.578	39.43
234.795	31.5
235.012	29.51
235.229	22.7
235.446	17.26
235.663	7.2
235.879	-4.52
236.096	-1.23
236.313	-2.45
236.53	-6.96
236.747	-2.89
236.964	-2.68
237.181	17.57
237.397	12.32
237.614	14.2
237.831	26.71
238.048	31.94
238.264	37.65
238.481	37.99
238.698	34.42
238.915	34.65
239.131	42.29
239.348	41.85
239.565	40.01
239.781	41.09
239.998	34.55
240.215	29.18
240.431	26.98
240.648	25.9
240.865	25.94
241.081	24.14
241.298	22.37
241.514	18.79
241.731	18.82
241.947	15.88
242.164	15.05
242.38	17.61
242.597	16.42
242.814	15.68
243.03	14.65
243.246	13.07
243.463	12.65
243.679	14.21
243.896	13.54
244.112	14.36
244.329	15.7
244.545	15.8
244.762	15.79
244.978	18.57
245.194	19.12
245.411	18.71
245.627	20.07
245.843	19.67
246.06	16.78
246.276	16.07
246.492	14.63
246.709	14.28
246.925	15.58
247.141	14.22
247.357	13.57
247.574	13.5
247.79	13.21
248.006	13.53
248.222	13.9
248.439	15.12
248.655	15.48
248.871	14.7
249.087	14.68
249.303	13.52
249.519	14.05
249.736	11.87
249.952	11.23
250.168	11.41
250.384	10.85
250.6	9.87
250.816	8.9
251.032	9.99
251.248	10.11
251.464	8.43
251.68	9.99
251.896	10.31
252.112	13.88
252.328	15.34
252.544	16.73
252.76	15.23
252.976	15.32
253.192	17.64
253.408	16.43
253.624	17.84
253.84	21.89
254.056	20.58
254.272	20.43
254.487	19.46
254.703	17.62
254.919	16.54
255.135	16.36
255.351	16.49
255.567	9.36
255.782	11.03
255.998	13.73
256.214	5.42
256.43	7.04
256.646	7.46
256.861	7.26
257.077	7.18
257.293	6.97
257.508	8.8
257.724	7.58
257.94	8.99
258.155	6.86
258.371	4.51
258.587	6.74
258.802	6.71
259.018	7.39
259.234	7.64
259.449	7
259.665	7.4
259.88	7.52
260.096	8.5
260.312	8.16
260.527	8.47
260.743	9.19
260.958	9.11
261.174	8.86
261.389	8.21
261.605	8.21
261.82	9.74
262.036	10.58
262.251	11.12
262.466	10.46
262.682	12.44
262.897	13.91
263.113	14.91
263.328	15.88
263.543	16.3
263.759	16.56
263.974	16.95
264.189	17.52
264.405	17.34
264.62	19.11
264.835	19.2
265.051	17.07
265.266	17.75
265.481	16.58
265.696	15.55
265.912	15.92
266.127	16.33
266.342	17.11
266.557	17.82
266.773	16.58
266.988	14.57
267.203	15.48
267.418	16.55
267.633	16.16
267.848	16.29
268.064	15.72
268.279	15.63
268.494	14.69
268.709	12.74
268.924	9.25
269.139	9.46
269.354	6.81
269.569	5.12
269.784	2.41
269.999	1.41
270.214	0.3
270.429	-0.61
270.644	0.26
270.859	1.57
271.074	2.01
271.289	4.2
271.504	3.83
271.719	4.68
271.934	5.07
272.149	5.89
272.363	5.43
272.578	6.5
272.793	8.3
273.008	9.08
273.223	10.55
273.438	11.66
273.653	11.99
273.867	11.43
274.082	15.28
274.297	14.65
274.512	17.12
274.726	19.24
274.941	19.3
275.156	18.08
275.371	15.91
275.585	13.63
275.8	13.75
276.015	12.87
276.229	13.66
276.444	11.43
276.659	13.46
276.873	12.19
277.088	10.38
277.302	10.2
277.517	12.42
277.732	13.16
277.946	13.95
278.161	12.96
278.375	13.68
278.59	14.29
278.804	13.61
279.019	12.45
279.233	12.67
279.448	13.75
279.662	14.65
279.877	11.95
280.091	12.39
280.306	13.31
280.52	12.44
280.735	12.92
280.949	12.32
281.163	12.66
281.378	12.13
281.592	11.77
281.806	11.22
282.021	9.17
282.235	10.19
282.449	9.66
282.664	9.28
282.878	10.89
283.092	9.5
283.307	11.17
283.521	11.42
283.735	13.47
283.949	14.73
284.164	13.88
284.378	14.32
284.592	14.26
284.806	14.18
285.02	14.78
285.234	14.54
285.449	14.94
285.663	14.53
285.877	13.2
286.091	12.95
286.305	11.57
286.519	11.47
286.733	12.99
286.947	12.75
287.161	14.48
287.375	13.12
287.589	13.2
287.803	13.91
288.017	14.03
288.231	14.94
288.445	14.12
288.659	15.23
288.873	17.23
289.087	15.29
289.301	15.02
289.515	12.95
289.729	15.43
289.943	15.12
290.157	16.41
290.371	16.73
290.584	17.99
290.798	19.27
291.012	19.27
291.226	18.45
291.44	19.44
291.654	20.61
291.867	23.47
292.081	23.12
292.295	23.23
292.509	22.82
292.722	20.98
292.936	21.74
293.15	21.11
293.364	19.99
293.577	20.16
293.791	20.28
294.005	19.97
294.218	17.18
294.432	17.15
294.645	18.78
294.859	19.65
295.073	21.24
295.286	18.95
295.5	17.53
295.713	18.48
295.927	18.62
296.14	17.96
296.354	17.38
296.568	17.55
296.781	15.95
296.994	15.01
297.208	13.46
297.421	13.61
297.635	14.64
297.848	15.56
298.062	16.17
298.275	15.98
298.489	15.25
298.702	15.11
298.915	15.72
299.129	16.24
299.342	17.45
299.555	18.91
299.769	18.98
299.982	17.91
300.195	18.9
300.409	17.91
300.622	17.57
300.835	18.56
301.048	19.49
301.262	18.9
301.475	19.37
301.688	19.36
301.901	18.07
302.115	17.08
302.328	17.42
302.541	16.28
302.754	15.67
302.967	16.34
303.18	16.32
303.393	16.84
303.607	17.39
303.82	18.39
304.033	16.35
304.246	17.63
304.459	17.15
304.672	18.51
304.885	18.59
305.098	18.36
305.311	17.87
305.524	18.79
305.737	18.13
305.95	17.23
306.163	16.43
306.376	18.18
306.589	18.81
306.802	19.19
307.015	18.57
307.228	17.24
307.44	16.37
307.653	16.23
307.866	15.4
308.079	16.03
308.292	16.54
308.505	15.64
308.718	14.31
308.93	11
309.143	12
309.356	13.36
309.569	14.88
309.781	16.09
309.994	18.42
310.207	19.45
310.42	18.43
310.632	19.54
310.845	21.43
311.058	22.82
311.27	24.51
311.483	23.77
311.696	22.29
311.908	22.15
312.121	23.06
312.333	20.99
312.546	19.69
312.759	21.34
312.971	19.6
313.184	18.62
313.396	17.79
313.609	16.64
313.821	18.94
314.034	19.73
314.246	18.75
314.459	19.76
314.671	20.85
314.884	22.15
315.096	21.06
315.309	21.67
315.521	21.87
315.733	21.99
315.946	21.92
316.158	21.59
316.371	21.33
316.583	21.48
316.795	18.9
317.008	19.22
317.22	19.43
317.432	20.78
317.644	21.67
317.857	21.86
318.069	22.16
318.281	23.84
318.494	23.5
318.706	22.03
318.918	22.32
319.13	22.64
319.342	21.66
319.555	21.28
319.767	19.11
319.979	18.04
320.191	18.56
320.403	18.03
320.615	17.41
320.827	14.98
321.039	15.63
321.252	15.3
321.464	17.4
321.676	16.46
321.888	16.12
322.1	18.5
322.312	19.48
322.524	17.53
322.736	17.75
322.948	17.8
323.16	20.85
323.372	19.75
323.584	20.61
323.796	20.23
324.007	21.38
324.219	22.31
324.431	21.06
324.643	21.34
324.855	22.89
325.067	22.25
325.279	22.92
325.491	23.89
325.702	24.67
325.914	25.67
326.126	24.62
326.338	24.3
326.55	24.54
326.761	23.63
326.973	24.3
327.185	23.35
327.396	24.68
327.608	23.86
327.82	23.5
328.032	25.62
328.243	26.38
328.455	27.13
328.666	28.8
328.878	29.88
329.09	31.98
329.301	31.07
329.513	31.59
329.725	31.58
329.936	33.12
330.148	33.48
330.359	33.22
330.571	32.84
330.782	34.26
330.994	34.5
331.205	35.03
331.417	35.25
331.628	35.55
331.84	36.04
332.051	37.8
332.262	37.89
332.474	36.71
332.685	38.38
332.897	39.81
333.108	39.77
333.319	39.76
333.531	38.69
333.742	40.15
333.953	41.35
334.165	41.67
334.376	41.47
334.587	41.17
334.799	41.99
335.01	40.74
335.221	39.71
335.432	40.76
335.644	41.84
335.855	43.04
336.066	43.28
336.277	43.54
336.488	43.61
336.7	43.97
336.911	45.14
337.122	45.97
337.333	47.33
337.544	46.53
337.755	46.73
337.966	46.15
338.177	46.78
338.388	46.64
338.599	46.4
338.811	46.88
339.022	45.24
339.233	45.41
339.444	44.51
339.655	43.14
339.866	44.63
340.076	44.09
340.287	43.86
340.498	43.95
340.709	42.72
340.92	42.63
341.131	42.63
341.342	43.4
341.553	41.65
341.764	40.68
341.975	42.25
342.185	42.69
342.396	43.02
342.607	44.35
342.818	43.66
343.029	44.25
343.239	44.47
343.45	45.75
343.661	46.9
343.872	49.34
344.082	50.55
344.293	51.08
344.504	50.37
344.714	49.73
344.925	49.14
345.136	48.66
345.346	48.4
345.557	49.38
345.768	48.29
345.978	48.12
346.189	47.44
346.399	47.06
346.61	46.12
346.821	45.99
347.031	47.6
347.242	48.92
347.452	49.13
347.663	48.52
347.873	47.59
348.084	48.42
348.294	47.55
348.504	46.28
348.715	47.95
348.925	47.41
349.136	46.82
349.346	46.29
349.557	44.11
349.767	43.59
349.977	45.35
350.188	45.47
350.398	44.94
350.608	44.87
350.819	45.16
351.029	44.52
351.239	44.95
351.449	46.82
351.66	45.79
351.87	46.79
352.08	47.7
352.29	46.15
352.501	46.75
352.711	46.31
352.921	47.16
353.131	48.49
353.341	47
353.552	46.85
353.762	45.28
353.972	46.44
354.182	46.54
354.392	46.32
354.602	47.56
354.812	46.51
355.022	47.07
355.232	47.1
355.442	47.16
355.652	47.3
355.862	47.98
356.072	47.33
356.282	47.09
356.492	46.05
356.702	45.68
356.912	45.78
357.122	46.7
357.332	47.29
357.542	46.88
357.752	46.68
357.962	47.46
358.171	47.17
358.381	47.4
358.591	46.94
358.801	47.53
359.011	48.37
359.221	47.09
359.43	46.77
359.64	45.26
359.85	45.09
360.06	44.7
360.269	44.32
360.479	44.35
360.689	45.01
360.899	44.61
361.108	44.87
361.318	44.92
361.528	45.84
361.737	45.19
361.947	45.3
362.156	45.31
362.366	45.16
362.576	45.34
362.785	45.15
362.995	45.25
363.204	45.42
363.414	44.38
363.623	44.14
363.833	43.83
364.042	44.26
364.252	45.5
364.461	45.7
364.671	46.06
364.88	45.41
365.09	45.61
365.299	45.45
365.509	45.25
365.718	45.63
365.927	44.79
366.137	45.06
366.346	45.28
366.555	45.2
366.765	44.43
366.974	43.84
367.183	44.52
367.393	43.28
367.602	43.13
367.811	43.34
368.021	44.57
368.23	44.89
368.439	44.46
368.648	43.6
368.857	42.75
369.067	42.71
369.276	43.57
369.485	42.75
369.694	43.45
369.903	43.32
370.112	42.41
370.321	40.95
370.531	40.92
370.74	40.3
370.949	40.59
371.158	39.93
371.367	39.96
371.576	38.6
371.785	39.05
371.994	38.51
372.203	37.92
372.412	38.5
372.621	38.23
372.83	37.82
373.039	38.39
373.248	37.91
373.457	37.96
373.666	37.24
373.874	36.96
374.083	36.32
374.292	36.69
374.501	37.16
374.71	36.64
374.919	36.7
375.128	37
375.336	35.92
375.545	35.8
375.754	35.64
375.963	35.77
376.171	36.86
376.38	36.93
376.589	36.5
376.798	36.65
377.006	36.24
377.215	36.38
377.424	35.72
377.632	35.86
377.841	35.26
378.05	35.67
378.258	35.97
378.467	34.94
378.675	34.14
378.884	34.27
379.093	33.54
379.301	33.56
379.51	33.01
379.718	33.21
379.927	33.4
380.135	34.21
380.344	33.42
380.552	33.33
380.761	32.86
380.969	33.3
381.177	33.22
381.386	33.22
381.594	33.48
381.803	33.64
382.011	33.23
382.219	32.4
382.428	32.37
382.636	32.46
382.845	32.59
383.053	32.88
383.261	32.74
383.469	32.28
383.678	32.08
383.886	32.26
384.094	31.65
384.302	31.65
384.511	31.83
384.719	31.25
384.927	31.88
385.135	31.7
385.343	31.72
385.552	31.43
385.76	31.25
385.968	30.94
386.176	30.15
386.384	30.34
386.592	29.65
386.8	29.81
387.008	29.93
387.216	29
387.424	28.42
387.633	27.77
387.841	27.91
388.049	27.55
388.257	27.72
388.465	27.56
388.672	27.39
388.88	27.97
389.088	27.84
389.296	27.57
389.504	27.58
389.712	27.64
389.92	27.77
390.128	27.48
390.336	27.45
390.544	27.26
390.751	27.35
390.959	27.15
391.167	26.78
391.375	26.63
391.583	26.88
391.79	26.73
391.998	26.82
392.206	26.63
392.414	26.44
392.621	26.28
392.829	26.18
393.037	26.39
393.244	26.62
393.452	26.69
393.66	26.66
393.867	26.32
394.075	26.16
394.283	25.85
394.49	26.14
394.698	26.63
394.905	26.57
395.113	26.41
395.32	26.18
395.528	25.95
395.735	25.64
395.943	25.72
396.15	25.52
396.358	25.46
396.565	25.44
396.773	25.25
396.98	24.81
397.188	24.65
397.395	24.38
397.602	24.32
397.81	23.98
398.017	24.46
398.225	24.5
398.432	24.32
398.639	24.38
398.847	24.9
399.054	25.23
399.261	25.23
399.468	25.64
399.676	26.31
399.883	25.83
400.09	26.41
400.297	26.07
400.505	25.7
400.712	26.09
400.919	26.16
401.126	25.63
401.333	25.26
401.54	24.99
401.748	25.22
401.955	25.08
402.162	25.55
402.369	25
402.576	25.06
402.783	24.88
402.99	24.67
403.197	24.84
403.404	24.85
403.611	24.85
403.818	24.75
404.025	24.47
404.232	24.21
404.439	24.05
404.646	24.23
404.853	24.27
405.06	24.35
405.267	24.29
405.474	24.28
405.681	24.45
405.887	24.35
406.094	24.78
406.301	24.73
406.508	24.68
406.715	24.96
406.922	25.36
407.128	25.27
407.335	24.91
407.542	24.93
407.749	24.68
407.955	24.25
408.162	24.41
408.369	24.17
408.575	24.23
408.782	24.43
408.989	24.19
409.195	23.91
409.402	23.93
409.609	24.4
409.815	24.53
410.022	24.64
410.228	24.9
410.435	24.97
410.642	24.89
410.848	24.85
411.055	24.83
411.261	24.86
411.468	24.55
411.674	24.4
411.881	24.36
412.087	24.12
412.294	23.86
412.5	23.78
412.706	23.39
412.913	23.44
413.119	23.74
413.326	23.47
413.532	23.51
413.738	23.94
413.945	23.63
414.151	23.41
414.357	23.49
414.564	23.83
414.77	23.62
414.976	23.83
415.182	23.7
415.389	23.25
415.595	23.24
415.801	23.15
416.007	22.8
416.214	23.1
416.42	23.13
416.626	22.97
416.832	22.74
417.038	22.83
417.244	22.84
417.45	22.73
417.657	22.74
417.863	22.65
418.069	22.34
418.275	22.22
418.481	22.29
418.687	22.45
418.893	22.54
419.099	22.51
419.305	22.58
419.511	22.36
419.717	22.44
419.923	22.52
420.129	22.58
420.335	22.77
420.541	22.9
420.746	22.88
420.952	22.75
421.158	22.72
421.364	22.49
421.57	22.38
421.776	22.46
421.982	22.61
422.187	22.51
422.393	22.42
422.599	22.49
422.805	22.35
423.01	22.2
423.216	22.23
423.422	22.2
423.628	22.32
423.833	22.35
424.039	22.11
424.245	21.89
424.45	21.77
424.656	21.76
424.862	21.62
425.067	21.59
425.273	21.66
425.478	21.59
425.684	21.54
425.889	21.61
426.095	21.65
426.301	21.84
426.506	21.57
426.712	21.49
426.917	21.65
427.123	21.54
427.328	21.52
427.533	21.56
427.739	21.78
427.944	21.76
428.15	21.59
428.355	21.59
428.561	21.54
428.766	21.84
428.971	22.01
429.177	21.89
429.382	22.01
429.587	22.31
429.793	21.99
429.998	21.84
430.203	21.91
430.408	22.15
430.614	21.94
430.819	21.82
431.024	22.02
431.229	22.02
431.434	22
431.64	21.84
431.845	21.96
432.05	22.17
432.255	22.08
432.46	21.94
432.665	21.77
432.87	21.79
433.076	22.05
433.281	21.95
433.486	22.08
433.691	22.09
433.896	22.13
434.101	21.78
434.306	21.56
434.511	21.5
434.716	21.56
434.921	21.68
435.126	21.58
435.331	21.46
435.535	21.66
435.74	21.64
435.945	21.43
436.15	21.63
436.355	21.63
436.56	21.61
436.765	21.82
436.97	21.81
437.174	21.8
437.379	21.9
437.584	22.01
437.789	21.84
437.993	21.81
438.198	21.93
438.403	21.92
438.608	22.05
438.812	22.12
439.017	21.94
439.222	21.93
439.426	21.93
439.631	21.92
439.836	21.78
440.04	21.79
440.245	21.69
440.45	21.68
440.654	21.44
440.859	21.52
441.063	21.58
441.268	21.69
441.472	21.55
441.677	21.57
441.881	21.62
442.086	21.6
442.29	21.65
442.495	21.62
442.699	21.65
442.904	21.89
443.108	21.81
443.312	21.66
443.517	21.58
443.721	21.72
443.925	21.67
444.13	21.62
444.334	21.54
444.538	21.37
444.743	21.44
444.947	21.46
445.151	21.34
445.356	21.15
445.56	21.19
445.764	21.2
445.968	21.27
446.173	21.21
446.377	21.28
446.581	21.41
446.785	21.33
446.989	21.18
447.193	21.14
447.398	21.27
447.602	21.42
447.806	21.5
448.01	21.45
448.214	21.49
448.418	21.42
448.622	21.38
448.826	21.33
449.03	21.46
449.234	21.66
449.438	21.68
449.642	21.59
449.846	21.53
450.05	21.48
450.254	21.34
450.458	21.15
450.662	21.14
450.866	21.01
451.069	21.06
451.273	21.01
451.477	20.8
451.681	20.81
451.885	20.84
452.089	20.96
452.292	20.94
452.496	21.21
452.7	21.24
452.904	21.29
453.107	21.55
453.311	21.49
453.515	21.42
453.719	21.65
453.922	21.36
454.126	21.14
454.33	21.02
454.533	20.97
454.737	20.74
454.94	20.55
