Data from 2937852_Reflection_2.txt Node
Date: Wed Jul 15 15:52:49 EDT 2015
User: robert
Spectrometer: USB4E03001
Autoset integration time: false
Trigger mode: 4
Integration Time (sec): 1.000000E-1
Scans to average: 10
Electric dark correction enabled: true
Nonlinearity correction enabled: false
Boxcar width: 5
Stray light correction enabled: false
XAxis mode: Wavelengths
Stop averaging: false
Number of Pixels in Spectrum: 3648
>>>>>Begin Spectral Data<<<<<
177.566	76.02
177.785	128.07
178.005	73.13
178.225	-106.02
178.445	-206.9
178.665	63.86
178.885	88.31
179.105	175
179.324	177.34
179.544	85.22
179.764	94.21
179.984	106.17
180.204	137.86
180.423	106.83
180.643	71.28
180.863	102.84
181.083	457.63
181.302	276.19
181.522	105.46
181.742	-82.09
181.961	77.06
182.181	-208.7
182.401	60.98
182.621	289.55
182.84	751.61
183.06	-1409.09
183.279	460.53
183.499	-91.95
183.719	-3500
183.938	1181.25
184.158	16.03
184.377	-17.01
184.597	-14.65
184.816	0.32
185.036	8.93
185.256	22.63
185.475	37.33
185.695	18.65
185.914	-4.75
186.134	16.86
186.353	34.64
186.572	12.55
186.792	17.09
187.011	23.17
187.231	-156.63
187.45	-331.75
187.67	-606.06
187.889	-800
188.108	24.08
188.328	45.87
188.547	-42.42
188.766	13.03
188.986	48.65
189.205	93.92
189.424	142.22
189.644	312.83
189.863	365.61
190.082	401.55
190.302	236.14
190.521	4430
190.74	315.38
190.959	210.71
191.178	113.22
191.398	74.09
191.617	30.28
191.836	-86.49
192.055	-45.87
192.274	1.84
192.494	-13.14
192.713	807.69
192.932	13333.33
193.151	601.04
193.37	459.83
193.589	210.26
193.808	520.59
194.027	-374.26
194.246	-337.5
194.465	1511.36
194.685	872.94
194.904	3833.33
195.123	2959.26
195.342	-754.08
195.561	-1023.21
195.78	-186.38
195.999	-243.18
196.218	-1497.44
196.436	403.64
196.655	908.62
196.874	379.61
197.093	-1224
197.312	-17.11
197.531	16.67
197.75	271.43
197.969	144.29
198.188	-148.15
198.407	217.14
198.625	121.43
198.844	194.06
199.063	251.52
199.282	75.29
199.501	1.85
199.719	48.32
199.938	62.8
200.157	310.34
200.376	229.2
200.594	154.55
200.813	123.78
201.032	189.41
201.251	-3500
201.469	343.84
201.688	1100
201.907	586.96
202.125	473.33
202.344	-182.98
202.563	136.36
202.781	59.37
203	102.22
203.218	54.01
203.437	35.46
203.656	10.75
203.874	39.39
204.093	11.64
204.311	14.1
204.53	-30.3
204.748	1.43
204.967	-25.15
205.185	-188.5
205.404	-289.22
205.622	-309.57
205.841	-236.14
206.059	-700
206.278	-64.66
206.496	-5400
206.715	-1.85
206.933	-26.53
207.151	309.68
207.37	26.75
207.588	-17.96
207.806	-50.28
208.025	-3.69
208.243	-145
208.461	-268.55
208.68	-169.77
208.898	-126.84
209.116	-44.8
209.335	-44.69
209.553	16.54
209.771	-250
209.989	-121.92
210.208	-12
210.426	316
210.644	-86.36
210.862	84.62
211.081	37.89
211.299	33.75
211.517	67.35
211.735	150.56
211.953	177.78
212.171	173.81
212.39	181.11
212.608	285.45
212.826	279.8
213.044	168.18
213.262	-315.22
213.48	110.48
213.698	-176.47
213.916	197.33
214.134	52.17
214.352	16.67
214.57	86.69
214.788	129.37
215.006	135.83
215.224	71.32
215.442	55.24
215.66	48.56
215.878	47.92
216.096	48.99
216.314	56.19
216.532	85.71
216.75	103.36
216.968	84.7
217.185	44.35
217.403	18.77
217.621	10.05
217.839	6.65
218.057	-112.62
218.275	-41.23
218.492	-108.25
218.71	-71.93
218.928	-73.85
219.146	-159.49
219.363	-460
219.581	-299.03
219.799	-114.19
220.017	-48.44
220.234	-443.59
220.452	-545.24
220.67	-120.65
220.887	68.78
221.105	10.38
221.323	39.55
221.54	13.23
221.758	17.47
221.976	53.74
222.193	38.49
222.411	58.05
222.629	42.76
222.846	42.74
223.064	70.67
223.281	133.33
223.499	222.31
223.716	458.67
223.934	225.56
224.151	424.44
224.369	1554.55
224.586	434.52
224.804	128.6
225.021	159.29
225.239	188.55
225.456	148.49
225.674	114.1
225.891	103.11
226.108	100.15
226.326	97.08
226.543	86.62
226.76	66.67
226.978	54.79
227.195	29.6
227.413	30.2
227.63	32.84
227.847	26.56
228.064	18.27
228.282	20.83
228.499	19.37
228.716	19.17
228.934	24.67
229.151	27.89
229.368	30.83
229.585	29.57
229.802	25.01
230.02	23.36
230.237	24.75
230.454	25.64
230.671	20.88
230.888	19.75
231.105	20.22
231.323	14.7
231.54	10.27
231.757	6.61
231.974	1
232.191	3.65
232.408	0.93
232.625	-2.69
232.842	7.7
233.059	12.49
233.276	16.35
233.493	17.69
233.71	19.05
233.927	24.19
234.144	24.51
234.361	26.32
234.578	22.87
234.795	24.72
235.012	27.27
235.229	29.24
235.446	31.2
235.663	27.24
235.879	23.9
236.096	24.55
236.313	23.21
236.53	26.58
236.747	28.5
236.964	32.91
237.181	40.49
237.397	42.94
237.614	41.67
237.831	34.18
238.048	36.3
238.264	34.07
238.481	34.68
238.698	30.03
238.915	25.21
239.131	19.59
239.348	18.47
239.565	19.82
239.781	18.68
239.998	12.12
240.215	13.67
240.431	13.22
240.648	13.64
240.865	9.9
241.081	9.79
241.298	11.11
241.514	13.68
241.731	13.55
241.947	12.15
242.164	14.19
242.38	14.16
242.597	13.96
242.814	14.69
243.03	14.06
243.246	15.69
243.463	18.3
243.679	18.4
243.896	19.65
244.112	19.03
244.329	20.99
244.545	20.86
244.762	23.35
244.978	23.45
245.194	19.89
245.411	22.93
245.627	23.24
245.843	22.38
246.06	22
246.276	21.09
246.492	20.68
246.709	18
246.925	16.93
247.141	16.77
247.357	16.55
247.574	17.51
247.79	16.62
248.006	16.82
248.222	16.6
248.439	16.23
248.655	16.33
248.871	16.63
249.087	16.2
249.303	15.45
249.519	15.15
249.736	15.51
249.952	14.85
250.168	16.17
250.384	15.65
250.6	16.23
250.816	15.81
251.032	13.21
251.248	14.45
251.464	15.4
251.68	15.74
251.896	14.55
252.112	16.17
252.328	14.35
252.544	12.69
252.76	11.57
252.976	10.28
253.192	9.28
253.408	11.83
253.624	10.8
253.84	11.47
254.056	11.18
254.272	11.43
254.487	9.01
254.703	11.4
254.919	15.72
255.135	14.84
255.351	15.46
255.567	18.75
255.782	16.09
255.998	13.89
256.214	12.51
256.43	12.1
256.646	9.93
256.861	10.16
257.077	11.17
257.293	5.62
257.508	4.05
257.724	2.33
257.94	0.84
258.155	1.55
258.371	2.86
258.587	3.78
258.802	7.1
259.018	8.8
259.234	9.89
259.449	10.47
259.665	11.9
259.88	13.14
260.096	14.49
260.312	14.3
260.527	14.89
260.743	15.67
260.958	15.54
261.174	15.8
261.389	15.9
261.605	15.17
261.82	14.17
262.036	14.47
262.251	13.98
262.466	12.15
262.682	12.42
262.897	12.43
263.113	10.38
263.328	12.36
263.543	12
263.759	9.62
263.974	10.73
264.189	11.98
264.405	10.25
264.62	10.45
264.835	11.35
265.051	14.81
265.266	12.75
265.481	15.34
265.696	16.07
265.912	15.48
266.127	17.64
266.342	16.15
266.557	16.94
266.773	17.37
266.988	17.34
267.203	17.23
267.418	13.76
267.633	15.14
267.848	13.63
268.064	13.35
268.279	11.05
268.494	10.02
268.709	9.75
268.924	8.05
269.139	6.4
269.354	6
269.569	5.25
269.784	4.28
269.999	4.31
270.214	5.67
270.429	3.21
270.644	3.16
270.859	4.17
271.074	6.24
271.289	6.42
271.504	8.26
271.719	7.53
271.934	8.49
272.149	9.92
272.363	10.14
272.578	10.15
272.793	10.27
273.008	11.14
273.223	9.9
273.438	9.68
273.653	8.85
273.867	9.98
274.082	10.81
274.297	10.51
274.512	11.01
274.726	10.84
274.941	9.96
275.156	10.07
275.371	9.47
275.585	12.03
275.8	11.12
276.015	13.42
276.229	10.4
276.444	10.85
276.659	10.9
276.873	9.81
277.088	10.12
277.302	9.44
277.517	10.29
277.732	9.97
277.946	9.65
278.161	10.97
278.375	11.22
278.59	12.66
278.804	10.52
279.019	12.8
279.233	15.52
279.448	16.19
279.662	16.89
279.877	17.08
280.091	18.74
280.306	17.97
280.52	15.75
280.735	14.25
280.949	14.08
281.163	14.21
281.378	10.55
281.592	7.76
281.806	7.08
282.021	6.03
282.235	5.21
282.449	4.24
282.664	5.4
282.878	5.12
283.092	4.04
283.307	3.94
283.521	4.98
283.735	7.3
283.949	7.94
284.164	7.15
284.378	8.07
284.592	8.34
284.806	8.75
285.02	8.31
285.234	8.94
285.449	10.92
285.663	11.13
285.877	11.18
286.091	10.69
286.305	10.21
286.519	11.01
286.733	11.21
286.947	11.66
287.161	12.32
287.375	12.61
287.589	12.24
287.803	11.28
288.017	11.55
288.231	13.38
288.445	14.31
288.659	15.76
288.873	15.82
289.087	16.63
289.301	17.15
289.515	16.65
289.729	17.44
289.943	18.62
290.157	18.71
290.371	19.63
290.584	18.39
290.798	17.7
291.012	17.22
291.226	17.08
291.44	16.16
291.654	15.23
291.867	15.44
292.081	14.38
292.295	15.13
292.509	14.2
292.722	12.58
292.936	13.02
293.15	12.45
293.364	12.49
293.577	13.76
293.791	11.26
294.005	11.9
294.218	11.52
294.432	11.96
294.645	12.91
294.859	13.57
295.073	14.09
295.286	12.58
295.5	12.46
295.713	12.91
295.927	12.9
296.14	15.26
296.354	14.84
296.568	15.97
296.781	15.31
296.994	14.4
297.208	13.67
297.421	14.06
297.635	15.55
297.848	15.65
298.062	15.76
298.275	15.91
298.489	15.75
298.702	15.99
298.915	14.99
299.129	15.85
299.342	15.64
299.555	18.08
299.769	17.44
299.982	17.7
300.195	17.24
300.409	17.42
300.622	16.57
300.835	16.85
301.048	18.65
301.262	19.28
301.475	19.12
301.688	19.54
301.901	19.34
302.115	19.32
302.328	18.18
302.541	17.7
302.754	18.23
302.967	16.71
303.18	16.37
303.393	15.46
303.607	15.95
303.82	15.45
304.033	15.98
304.246	15.83
304.459	15.82
304.672	15.85
304.885	17.35
305.098	17.53
305.311	19.43
305.524	18.26
305.737	16.22
305.95	15.77
306.163	16.18
306.376	15.64
306.589	14.14
306.802	14.6
307.015	14.61
307.228	15.48
307.44	13.84
307.653	13.22
307.866	12.88
308.079	14.83
308.292	14.68
308.505	15.9
308.718	14.92
308.93	14.74
309.143	15.8
309.356	16.59
309.569	16.62
309.781	17.02
309.994	17.21
310.207	18.5
310.42	18.81
310.632	19.34
310.845	18.91
311.058	19.81
311.27	21.39
311.483	20.88
311.696	19.72
311.908	19.54
312.121	18.87
312.333	20.54
312.546	20.78
312.759	20.4
312.971	18.74
313.184	17.98
313.396	16.51
313.609	14.07
313.821	14.51
314.034	15.63
314.246	15.67
314.459	16.23
314.671	13.85
314.884	13.85
315.096	13.86
315.309	16.57
315.521	17.63
315.733	19.47
315.946	21.26
316.158	19.83
316.371	18.3
316.583	17.96
316.795	17.07
317.008	18.78
317.22	18.37
317.432	17.93
317.644	18.48
317.857	18.99
318.069	19.8
318.281	19.68
318.494	19.91
318.706	21.08
318.918	20.52
319.13	20.67
319.342	19.48
319.555	21.03
319.767	20.44
319.979	17.56
320.191	16.41
320.403	16.23
320.615	16.8
320.827	16.38
321.039	16.49
321.252	15.46
321.464	16.69
321.676	17.33
321.888	16.19
322.1	15.47
322.312	15.61
322.524	14.91
322.736	12.65
322.948	11
323.16	12.32
323.372	11.6
323.584	13.75
323.796	14.06
324.007	13.43
324.219	13.22
324.431	15.54
324.643	16.27
324.855	17.81
325.067	18.83
325.279	18.44
325.491	18.25
325.702	19.91
325.914	20.6
326.126	20.3
326.338	19.4
326.55	19.04
326.761	17.04
326.973	18.78
327.185	17.37
327.396	17.64
327.608	18.68
327.82	18.99
328.032	17.22
328.243	15.09
328.455	16.13
328.666	17.61
328.878	18.17
329.09	18.6
329.301	14.62
329.513	15.87
329.725	16.77
329.936	16.59
330.148	16.2
330.359	16.65
330.571	17.41
330.782	17.89
330.994	19.43
331.205	20.67
331.417	21.47
331.628	23.46
331.84	22.9
332.051	22.57
332.262	23.16
332.474	20.32
332.685	21.25
332.897	19.92
333.108	18.52
333.319	16.37
333.531	15.91
333.742	16.28
333.953	16.63
334.165	16.48
334.376	15.75
334.587	15.5
334.799	17.03
335.01	16.65
335.221	18.9
335.432	18.91
335.644	19.31
335.855	18.58
336.066	17.77
336.277	16.97
336.488	18.85
336.7	19.53
336.911	18.95
337.122	20.09
337.333	21.1
337.544	19.43
337.755	19.41
337.966	19.74
338.177	19.82
338.388	22.28
338.599	22.5
338.811	20.19
339.022	18.88
339.233	19.93
339.444	18.12
339.655	17.05
339.866	16.59
340.076	16.86
340.287	17.19
340.498	17.29
340.709	15.53
340.92	16.61
341.131	15.76
341.342	15.73
341.553	16.65
341.764	17.04
341.975	15.69
342.185	17.09
342.396	16.91
342.607	16.86
342.818	17.85
343.029	16.82
343.239	16.42
343.45	18.45
343.661	18.38
343.872	16.52
344.082	17.48
344.293	19.93
344.504	19.48
344.714	18.02
344.925	18.17
345.136	18.5
345.346	19.17
345.557	18.82
345.768	18.67
345.978	19.12
346.189	20.61
346.399	20.34
346.61	19.8
346.821	19.37
347.031	20.98
347.242	20.38
347.452	19.26
347.663	19.36
347.873	20.04
348.084	20.16
348.294	19.68
348.504	18.56
348.715	18.2
348.925	17.93
349.136	16.95
349.346	16.78
349.557	17.58
349.767	17.72
349.977	17.04
350.188	16.5
350.398	17.71
350.608	18.77
350.819	18.85
351.029	17.63
351.239	17.95
351.449	18.22
351.66	17.73
351.87	16.74
352.08	16.9
352.29	18.66
352.501	19.04
352.711	17.99
352.921	18.06
353.131	18.89
353.341	20.28
353.552	19.39
353.762	21.21
353.972	21.11
354.182	22.18
354.392	21.16
354.602	19.14
354.812	18.94
355.022	18.65
355.232	18.97
355.442	19.17
355.652	19.82
355.862	21.33
356.072	20.24
356.282	19.84
356.492	19.91
356.702	19.97
356.912	21.05
357.122	20.43
357.332	19.5
357.542	17.68
357.752	17.71
357.962	17.65
358.171	15.6
358.381	16.89
358.591	17.92
358.801	17.58
359.011	18.61
359.221	18.79
359.43	19.82
359.64	19.51
359.85	19.78
360.06	19.28
360.269	18.69
360.479	20.19
360.689	19.29
360.899	18.58
361.108	17.65
361.318	17.81
361.528	17.35
361.737	16.34
361.947	16.56
362.156	16.48
362.366	16.33
362.576	17.03
362.785	16.35
362.995	16.76
363.204	16.88
363.414	17.49
363.623	17.05
363.833	16.69
364.042	17.51
364.252	17.89
364.461	18.54
364.671	17.97
364.88	16.65
365.09	16.88
365.299	15.61
365.509	15.7
365.718	15.46
365.927	15.36
366.137	16.01
366.346	15.65
366.555	14.4
366.765	14.46
366.974	15.47
367.183	14.99
367.393	13.97
367.602	14.17
367.811	14.01
368.021	14.47
368.23	13.7
368.439	12.71
368.648	12.41
368.857	13.73
369.067	13.21
369.276	12.71
369.485	13.72
369.694	13.84
369.903	13.92
370.112	13.95
370.321	13.12
370.531	13.33
370.74	14.61
370.949	14.81
371.158	14.53
371.367	14.96
371.576	14.69
371.785	14.34
371.994	14.64
372.203	14.75
372.412	14.81
372.621	15.4
372.83	15.36
373.039	14.73
373.248	13.72
373.457	13.56
373.666	13.86
373.874	13.77
374.083	14
374.292	14
374.501	13.1
374.71	12.68
374.919	12.17
375.128	12.51
375.336	11.79
375.545	12.7
375.754	13.22
375.963	12.64
376.171	12.58
376.38	13.29
376.589	13.96
376.798	14.31
377.006	14.39
377.215	13.8
377.424	13.94
377.632	14.62
377.841	14.29
378.05	14.82
378.258	14.88
378.467	15.2
378.675	14.39
378.884	13.59
379.093	13.97
379.301	14.21
379.51	14.77
379.718	15.04
379.927	14.7
380.135	15.39
380.344	14.52
380.552	14.35
380.761	14.05
380.969	14.31
381.177	14.26
381.386	14.29
381.594	13.54
381.803	13.16
382.011	12.56
382.219	12.9
382.428	12.64
382.636	12.5
382.845	13.07
383.053	12.32
383.261	11.93
383.469	12.19
383.678	12.46
383.886	13.38
384.094	13.49
384.302	13.23
384.511	12.92
384.719	12.59
384.927	12.85
385.135	12.4
385.343	12.97
385.552	12.78
385.76	12.43
385.968	11.97
386.176	11.59
386.384	11.31
386.592	11.06
386.8	10.71
387.008	10.91
387.216	10.69
387.424	10.39
387.633	10.61
387.841	10.57
388.049	10.39
388.257	10.94
388.465	10.46
388.672	10.66
388.88	10.88
389.088	11.21
389.296	11.34
389.504	10.81
389.712	10.6
389.92	10.56
390.128	10.53
390.336	10.01
390.544	9.81
390.751	10.45
390.959	9.76
391.167	9.43
391.375	9.37
391.583	9
391.79	9.26
391.998	9.68
392.206	9.52
392.414	9.65
392.621	9.72
392.829	9.2
393.037	8.85
393.244	9.48
393.452	9.86
393.66	9.63
393.867	9.6
394.075	9.86
394.283	9.7
394.49	9.64
394.698	9.54
394.905	9.99
395.113	9.86
395.32	10.17
395.528	10.5
395.735	10.22
395.943	10.2
396.15	10.15
396.358	9.86
396.565	9.92
396.773	9.76
396.98	9.8
397.188	9.58
397.395	10.37
397.602	9.96
397.81	9.49
398.017	9.65
398.225	9.71
398.432	9.66
398.639	9.34
398.847	9.64
399.054	9.73
399.261	9.74
399.468	9.43
399.676	9.03
399.883	9.38
400.09	9.28
400.297	9.45
400.505	9.36
400.712	9.48
400.919	9.85
401.126	9.45
401.333	9.46
401.54	9.27
401.748	9.71
401.955	9.95
402.162	9.69
402.369	9.9
402.576	9.65
402.783	10.02
402.99	10.31
403.197	10.44
403.404	10.56
403.611	10.32
403.818	10.58
404.025	10.19
404.232	9.89
404.439	9.61
404.646	9.54
404.853	9.56
405.06	9.42
405.267	9.18
405.474	8.95
405.681	8.99
405.887	9.2
406.094	9.2
406.301	9.42
406.508	9.66
406.715	10.3
406.922	10.54
407.128	10.73
407.335	10.54
407.542	10.48
407.749	10.45
407.955	9.79
408.162	9.81
408.369	9.48
408.575	9.56
408.782	9.28
408.989	8.88
409.195	8.72
409.402	8.62
409.609	8.58
409.815	8.73
410.022	8.79
410.228	9.57
410.435	9.69
410.642	9.86
410.848	9.85
411.055	10.13
411.261	10.11
411.468	9.87
411.674	9.75
411.881	9.92
412.087	9.72
412.294	9.82
412.5	9.36
412.706	9.08
412.913	8.92
413.119	9.06
413.326	8.59
413.532	8.5
413.738	8.81
413.945	9.05
414.151	8.75
414.357	8.99
414.564	8.89
414.77	8.81
414.976	8.84
415.182	8.82
415.389	8.68
415.595	8.9
415.801	8.89
416.007	8.96
416.214	8.61
416.42	8.94
416.626	8.61
416.832	8.8
417.038	8.94
417.244	8.9
417.45	9.03
417.657	8.92
417.863	8.96
418.069	8.97
418.275	8.98
418.481	9.05
418.687	9.06
418.893	9.26
419.099	9.04
419.305	9.19
419.511	9.39
419.717	9.31
419.923	9.46
420.129	9.54
420.335	9.54
420.541	9.59
420.746	9.61
420.952	9.5
421.158	9.46
421.364	9.51
421.57	9.46
421.776	9.44
421.982	9.55
422.187	9.48
422.393	9.26
422.599	9.16
422.805	9.03
423.01	8.95
423.216	8.98
423.422	8.97
423.628	9
423.833	8.86
424.039	8.73
424.245	8.54
424.45	8.43
424.656	8.67
424.862	8.72
425.067	8.71
425.273	8.72
425.478	8.8
425.684	8.77
425.889	8.71
426.095	8.77
426.301	8.58
426.506	8.64
426.712	8.55
426.917	8.52
427.123	8.64
427.328	8.57
427.533	8.89
427.739	8.92
427.944	8.91
428.15	8.75
428.355	8.71
428.561	9.12
428.766	9
428.971	9.44
429.177	9.11
429.382	9.03
429.587	9.12
429.793	8.81
429.998	8.79
430.203	8.8
430.408	8.89
430.614	9
430.819	8.92
431.024	9.31
431.229	9.01
431.434	9.03
431.64	8.89
431.845	8.78
432.05	8.8
432.255	8.72
432.46	8.66
432.665	8.56
432.87	8.46
433.076	8.57
433.281	8.47
433.486	8.7
433.691	8.64
433.896	8.78
434.101	8.75
434.306	8.64
434.511	8.55
434.716	8.51
434.921	8.95
435.126	9.09
435.331	8.81
435.535	8.86
435.74	8.87
435.945	8.83
436.15	9.05
436.355	9.13
436.56	9.26
436.765	9.34
436.97	9.55
437.174	9.36
437.379	9.5
437.584	9.64
437.789	9.38
437.993	9.2
438.198	9.46
438.403	9.21
438.608	9.02
438.812	8.98
439.017	8.87
439.222	8.84
439.426	8.55
439.631	8.28
439.836	8.42
440.04	8.41
440.245	8.41
440.45	8.26
440.654	8.32
440.859	8.41
441.063	8.43
441.268	8.45
441.472	8.34
441.677	8.43
441.881	8.54
442.086	8.33
442.29	8.41
442.495	8.57
442.699	8.74
442.904	8.73
443.108	8.9
443.312	8.97
443.517	9.08
443.721	9.28
443.925	9.31
444.13	9.23
444.334	9.13
444.538	9.03
444.743	8.93
444.947	8.81
445.151	8.72
445.356	8.54
445.56	8.49
445.764	8.37
445.968	8.04
446.173	8.04
446.377	7.99
446.581	8.14
446.785	8.28
446.989	8.24
447.193	8.19
447.398	8.2
447.602	8.2
447.806	8.22
448.01	8.24
448.214	8.46
448.418	8.54
448.622	8.41
448.826	8.24
449.03	8.18
449.234	8.13
449.438	8.2
449.642	8.19
449.846	8.1
450.05	8.09
450.254	8.16
450.458	8.08
450.662	7.82
450.866	8.02
451.069	7.85
451.273	7.84
451.477	7.6
451.681	7.35
451.885	7.43
452.089	7.53
452.292	7.61
452.496	7.56
452.7	7.46
452.904	7.61
453.107	7.65
453.311	7.95
453.515	7.8
453.719	8.15
453.922	8.25
454.126	8.21
454.33	8.22
454.533	8.11
454.737	8.02
454.94	8.11
455.144	8.1
455.348	8.2
455.551	8.2
455.755	8.32
455.958	8.11
456.162	8.05
456.365	8.04
456.569	7.94
456.772	7.86
456.976	8.1
457.179	8.07
457.383	8.21
457.586	8.05
457.79	8.07
457.993	8.01
458.196	8.12
458.4	8.06
458.603	8.07
458.807	8.21
459.01	8.26
459.213	8.21
459.417	8.26
459.62	8.26
459.823	8.34
460.026	8.34
460.23	8.43
460.433	8.45
460.636	8.61
