Data from 2937869_Reflection_2.txt Node
Date: Wed Jul 15 15:02:57 EDT 2015
User: robert
Spectrometer: USB4E03001
Autoset integration time: false
Trigger mode: 4
Integration Time (sec): 1.000000E-1
Scans to average: 10
Electric dark correction enabled: true
Nonlinearity correction enabled: false
Boxcar width: 5
Stray light correction enabled: false
XAxis mode: Wavelengths
Stop averaging: false
Number of Pixels in Spectrum: 3648
>>>>>Begin Spectral Data<<<<<
177.566	-1780.81
177.785	-355.25
178.005	593.63
178.225	294.54
178.445	247.82
178.665	252.88
178.885	4.94
179.105	954.55
179.324	-192.49
179.544	-100.99
179.764	-124.18
179.984	-85.36
180.204	-24.29
180.423	-46.34
180.643	-37.68
180.863	-100.9
181.083	-153.43
181.302	-207.41
181.522	-63.89
181.742	-72
181.961	-241.01
182.181	125.83
182.401	-30.99
182.621	31.7
182.84	-13.4
183.06	15.91
183.279	28.79
183.499	14.57
183.719	0.8
183.938	4.83
184.158	56.22
184.377	52.91
184.597	92.78
184.816	120.07
185.036	275.37
185.256	194.57
185.475	147.75
185.695	-473.91
185.914	-12.83
186.134	-1.32
186.353	-14.86
186.572	63.93
186.792	32.25
187.011	71.47
187.231	132
187.45	102.42
187.67	95.47
187.889	56.26
188.108	99.08
188.328	165.83
188.547	160.79
188.766	534.55
188.986	376.37
189.205	331.15
189.424	211.5
189.644	406.04
189.863	627.29
190.082	712.01
190.302	-30692.86
190.521	-1123.84
190.74	3.46
190.959	50.67
191.178	102.22
191.398	109.26
191.617	92.67
191.836	70.82
192.055	75.66
192.274	81.85
192.494	40.39
192.713	-32
192.932	-13.91
193.151	-98.91
193.37	-98.47
193.589	-981.42
193.808	-2656.79
194.027	375.03
194.246	200.84
194.465	204.73
194.685	247.91
194.904	224.61
195.123	213.51
195.342	178.98
195.561	189.17
195.78	192.87
195.999	141.68
196.218	132.65
196.436	116.46
196.655	121.05
196.874	103.3
197.093	124.35
197.312	147.4
197.531	122.94
197.75	108.32
197.969	134.84
198.188	148.03
198.407	136.01
198.625	164.41
198.844	111.86
199.063	39.8
199.282	-91.02
199.501	-55.8
199.719	-16.45
199.938	-53.46
200.157	-285.36
200.376	-216.77
200.594	-177.87
200.813	-298.1
201.032	-858.16
201.251	-348.65
201.469	-134.46
201.688	113.07
201.907	127.11
202.125	142.61
202.344	223.5
202.563	179.18
202.781	190.61
203	210.35
203.218	216.84
203.437	166.77
203.656	1140.03
203.874	-664.33
204.093	-242.89
204.311	-135.06
204.53	-74.65
204.748	-84.23
204.967	-77.79
205.185	-72.88
205.404	-80.88
205.622	-141.74
205.841	-225.61
206.059	-708.97
206.278	10695.31
206.496	1599.17
206.715	579.13
206.933	1634.95
207.151	251.01
207.37	205.5
207.588	268.74
207.806	225.46
208.025	210.3
208.243	-476.08
208.461	-64.96
208.68	-51.64
208.898	-270.06
209.116	-215.92
209.335	310.96
209.553	292.78
209.771	951.5
209.989	169.72
210.208	-53.57
210.426	-2245.56
210.644	100.8
210.862	-88.03
211.081	12.54
211.299	515.88
211.517	-104.82
211.735	8.67
211.953	-45.23
212.171	-78.24
212.39	-24.13
212.608	-137.45
212.826	-215.94
213.044	-2577.78
213.262	640.06
213.48	-1004.78
213.698	480.88
213.916	74.81
214.134	10.8
214.352	9.66
214.57	8.48
214.788	7.71
215.006	13.05
215.224	5.71
215.442	20.47
215.66	100.38
215.878	92.27
216.096	105.85
216.314	122.7
216.532	153.28
216.75	75.6
216.968	122.94
217.185	150.66
217.403	218.88
217.621	558.38
217.839	558.48
218.057	269.38
218.275	-95.41
218.492	-620.96
218.71	-338.97
218.928	-156.35
219.146	-36.59
219.363	-4.86
219.581	38.14
219.799	105.89
220.017	118.26
220.234	135.14
220.452	151.07
220.67	186.29
220.887	216.08
221.105	191.52
221.323	520.81
221.54	-418.79
221.758	-37.14
221.976	-9.97
222.193	6.93
222.411	21.55
222.629	8.27
222.846	34.52
223.064	68.71
223.281	50.91
223.499	52.79
223.716	108.77
223.934	133.17
224.151	228.17
224.369	186.89
224.586	311.11
224.804	436.48
225.021	1051.6
225.239	453.14
225.456	170.5
225.674	179.73
225.891	216.01
226.108	134.15
226.326	69.44
226.543	13.88
226.76	-168.78
226.978	-140.08
227.195	-59.6
227.413	-38.15
227.63	-14.27
227.847	-42.72
228.064	1.71
228.282	2.53
228.499	4.03
228.716	6.43
228.934	9.68
229.151	14.99
229.368	17.42
229.585	15.7
229.802	15.59
230.02	19.52
230.237	22.25
230.454	8.47
230.671	7.99
230.888	8.64
231.105	12.96
231.323	14.57
231.54	7.01
231.757	7.73
231.974	13.56
232.191	19.43
232.408	8.64
232.625	1.08
232.842	27.88
233.059	25.29
233.276	30.11
233.493	9.34
233.71	10.02
233.927	14.23
234.144	10.61
234.361	15.71
234.578	20.78
234.795	27.89
235.012	25.68
235.229	24.38
235.446	29.58
235.663	27.96
235.879	33.08
236.096	30.55
236.313	31.61
236.53	45.15
236.747	43.07
236.964	32.04
237.181	23.29
237.397	33.71
237.614	27.43
237.831	22.93
238.048	22.92
238.264	21.36
238.481	19.79
238.698	22.83
238.915	15.36
239.131	20
239.348	32.22
239.565	34.74
239.781	30.28
239.998	28.35
240.215	28.57
240.431	25.37
240.648	21.5
240.865	23.65
241.081	19.02
241.298	16.27
241.514	12.21
241.731	12.67
241.947	14.58
242.164	13.87
242.38	15
242.597	15.83
242.814	15.38
243.03	19.07
243.246	16.29
243.463	18.25
243.679	18.32
243.896	19.16
244.112	18.93
244.329	20.03
244.545	22.19
244.762	23.96
244.978	23.28
245.194	23.34
245.411	18.62
245.627	23.46
245.843	23.83
246.06	21.29
246.276	19.64
246.492	18.16
246.709	17.95
246.925	17.87
247.141	17
247.357	17.72
247.574	17.16
247.79	17.9
248.006	16.86
248.222	15.62
248.439	15.09
248.655	15.9
248.871	15.19
249.087	14.04
249.303	11.51
249.519	9.82
249.736	7.44
249.952	8.49
250.168	8.12
250.384	7.42
250.6	8.59
250.816	12.92
251.032	14.36
251.248	14.17
251.464	13.08
251.68	15.47
251.896	13.47
252.112	12.93
252.328	11.42
252.544	11.28
252.76	10.04
252.976	9.84
253.192	9.02
253.408	10.5
253.624	13.56
253.84	16.03
254.056	16.55
254.272	17.38
254.487	19.82
254.703	23.58
254.919	24.68
255.135	26.38
255.351	28.87
255.567	28.24
255.782	22.11
255.998	19.19
256.214	16.89
256.43	15.28
256.646	16.56
256.861	14.95
257.077	10.78
257.293	9.14
257.508	5.84
257.724	1.87
257.94	2.09
258.155	2.94
258.371	3.77
258.587	6.14
258.802	8.2
259.018	9.18
259.234	10.54
259.449	11.38
259.665	11.13
259.88	11.35
260.096	12.25
260.312	13.38
260.527	14.16
260.743	14.53
260.958	13.69
261.174	11.89
261.389	12.8
261.605	12.4
261.82	12
262.036	13.01
262.251	13.74
262.466	13.9
262.682	11.82
262.897	12.06
263.113	11.35
263.328	9.27
263.543	13.14
263.759	12.14
263.974	10.48
264.189	8.59
264.405	3.87
264.62	2.51
264.835	0.09
265.051	0.41
265.266	-1.8
265.481	-4.99
265.696	-0.85
265.912	-1.31
266.127	-0.01
266.342	2.69
266.557	4.9
266.773	7.7
266.988	8.61
267.203	8.75
267.418	8.95
267.633	9.98
267.848	13.64
268.064	12.32
268.279	11.88
268.494	9.94
268.709	8.8
268.924	9.27
269.139	10.52
269.354	9.26
269.569	9.94
269.784	8.84
269.999	9.24
270.214	8.65
270.429	10.44
270.644	10.42
270.859	9.24
271.074	9.75
271.289	10.68
271.504	9.17
271.719	10.23
271.934	8.81
272.149	9.93
272.363	10.35
272.578	10.53
272.793	10.9
273.008	11.43
273.223	12.63
273.438	12.12
273.653	10.94
273.867	10.42
274.082	11.27
274.297	11.49
274.512	11.54
274.726	9.62
274.941	9.38
275.156	7.19
275.371	6.8
275.585	8.06
275.8	7.61
276.015	7.8
276.229	8.06
276.444	6.63
276.659	4.93
276.873	4.83
277.088	6.88
277.302	4.26
277.517	4.54
277.732	5.82
277.946	3.86
278.161	6.95
278.375	6.06
278.59	8.25
278.804	8.21
279.019	11.39
279.233	13.06
279.448	9.14
279.662	12.32
279.877	13.36
280.091	13.93
280.306	15.75
280.52	14.24
280.735	14.9
280.949	14.02
281.163	13.6
281.378	13.92
281.592	11.55
281.806	14.39
282.021	13.03
282.235	11.07
282.449	9.43
282.664	10.4
282.878	9.42
283.092	10.43
283.307	10.29
283.521	9.29
283.735	9.7
283.949	11.19
284.164	11.29
284.378	11.4
284.592	13.72
284.806	13.58
285.02	11.47
285.234	13.4
285.449	12.19
285.663	13.11
285.877	13.77
286.091	13.08
286.305	12.27
286.519	11.19
286.733	11.9
286.947	10.26
287.161	10.19
287.375	9.61
287.589	8.24
287.803	7.82
288.017	6.77
288.231	5.96
288.445	7.05
288.659	8.72
288.873	8.96
289.087	9.48
289.301	10.98
289.515	12.17
289.729	12.83
289.943	14.02
290.157	15.2
290.371	16.17
290.584	17.65
290.798	16.42
291.012	14.31
291.226	15.09
291.44	13.25
291.654	12.54
291.867	10.35
292.081	11.61
292.295	9.85
292.509	8.31
292.722	7.96
292.936	7.03
293.15	7.76
293.364	9.33
293.577	10.45
293.791	13.21
294.005	14.69
294.218	15.23
294.432	15.23
294.645	15.99
294.859	16.97
295.073	15.17
295.286	15.91
295.5	15.74
295.713	16.42
295.927	15.37
296.14	12.58
296.354	11.17
296.568	12.24
296.781	12.39
296.994	12.77
297.208	12.84
297.421	14.43
297.635	13.74
297.848	13.98
298.062	12.64
298.275	12.7
298.489	12.86
298.702	13.46
298.915	12.35
299.129	11.18
299.342	10.56
299.555	11.55
299.769	9.66
299.982	10.36
300.195	9.32
300.409	10.44
300.622	10.06
300.835	10.13
301.048	8.83
301.262	8.36
301.475	9.72
301.688	9.89
301.901	10.09
302.115	10.21
302.328	11.18
302.541	11.58
302.754	10.27
302.967	11.2
303.18	13.33
303.393	14.87
303.607	15.93
303.82	16.17
304.033	16.07
304.246	14.12
304.459	15.62
304.672	14.65
304.885	14.79
305.098	16.56
305.311	15.73
305.524	14.51
305.737	15.01
305.95	15.74
306.163	14.99
306.376	15.73
306.589	15.37
306.802	14.41
307.015	13.65
307.228	14.23
307.44	14.9
307.653	16.42
307.866	17.91
308.079	16.83
308.292	15.78
308.505	16.01
308.718	14.22
308.93	16.07
309.143	16.77
309.356	17.52
309.569	15.48
309.781	15.7
309.994	15.49
310.207	16.49
310.42	18.38
310.632	18.26
310.845	19.28
311.058	19.18
311.27	18.66
311.483	16.09
311.696	15.27
311.908	16.4
312.121	13.83
312.333	13.29
312.546	12.01
312.759	10.73
312.971	10.93
313.184	8.18
313.396	9.32
313.609	10.05
313.821	11.81
314.034	12.41
314.246	11.49
314.459	13.07
314.671	10.84
314.884	9.31
315.096	8.74
315.309	9.45
315.521	11.16
315.733	10.06
315.946	8.95
316.158	12.09
316.371	13.48
316.583	14.07
316.795	11.6
317.008	13.39
317.22	14.96
317.432	15.19
317.644	15.44
317.857	14.79
318.069	15.83
318.281	15.93
318.494	15.74
318.706	15.76
318.918	17.01
319.13	17.69
319.342	18.12
319.555	16.61
319.767	15.11
319.979	13.71
320.191	14.38
320.403	13.56
320.615	12.78
320.827	12.14
321.039	10.28
321.252	10.07
321.464	12.31
321.676	12.86
321.888	13.61
322.1	16.27
322.312	16.48
322.524	15.76
322.736	16.15
322.948	19.24
323.16	16.58
323.372	17.69
323.584	16.13
323.796	17.58
324.007	16.67
324.219	16.84
324.431	17.84
324.643	18.14
324.855	17.88
325.067	17.59
325.279	14.93
325.491	15.84
325.702	15.2
325.914	17.28
326.126	15.37
326.338	15.71
326.55	16.2
326.761	13.79
326.973	13.9
327.185	14.68
327.396	15.29
327.608	15.25
327.82	15.04
328.032	14.49
328.243	15.2
328.455	15.86
328.666	15.73
328.878	15.45
329.09	16.8
329.301	17.98
329.513	18.34
329.725	18.26
329.936	19.47
330.148	20.48
330.359	22.46
330.571	20.66
330.782	19.66
330.994	20.41
331.205	21.02
331.417	21.77
331.628	19.16
331.84	19.37
332.051	18.95
332.262	17.72
332.474	17.04
332.685	15.57
332.897	15.97
333.108	17.75
333.319	14.53
333.531	15.28
333.742	13.67
333.953	13.83
334.165	12.83
334.376	13.63
334.587	12.26
334.799	12.97
335.01	13.06
335.221	14.13
335.432	14.05
335.644	15.25
335.855	14.58
336.066	14.65
336.277	15.44
336.488	16.87
336.7	16.19
336.911	16.73
337.122	17.9
337.333	16.79
337.544	15.65
337.755	16.33
337.966	17.22
338.177	17.08
338.388	18.01
338.599	18.62
338.811	16.02
339.022	15.41
339.233	16.03
339.444	15.49
339.655	16.05
339.866	16.06
340.076	14.74
340.287	15.38
340.498	14.87
340.709	12.9
340.92	11.03
341.131	12.89
341.342	13.84
341.553	15.38
341.764	15.97
341.975	15.34
342.185	15.55
342.396	16.4
342.607	16.02
342.818	15.48
343.029	15.63
343.239	17.31
343.45	15.71
343.661	14.86
343.872	14.2
344.082	13.84
344.293	14.54
344.504	15.07
344.714	14.53
344.925	15.12
345.136	15.67
345.346	16.29
345.557	15.79
345.768	17.68
345.978	17.76
346.189	17.91
346.399	17.93
346.61	18.34
346.821	17.36
347.031	17.56
347.242	16.96
347.452	14.99
347.663	14.3
347.873	14.41
348.084	13.17
348.294	13.97
348.504	10.75
348.715	10.12
348.925	10.78
349.136	11.48
349.346	10.16
349.557	9.52
349.767	11.99
349.977	13.46
350.188	13.02
350.398	12.5
350.608	13.21
350.819	14.05
351.029	14.18
351.239	13.2
351.449	12
351.66	12.39
351.87	13.15
352.08	13.19
352.29	14.17
352.501	15.25
352.711	15.96
352.921	15.7
353.131	16.32
353.341	15.11
353.552	16.13
353.762	17.44
353.972	17.1
354.182	17.1
354.392	17.35
354.602	15.67
354.812	15.06
355.022	16.16
355.232	16.94
355.442	18.01
355.652	19.24
355.862	18.65
356.072	18.83
356.282	17.97
356.492	17.13
356.702	16.24
356.912	15.3
357.122	15.54
357.332	14.44
357.542	12.46
357.752	11.63
357.962	11.02
358.171	11.93
358.381	11.36
358.591	12.53
358.801	13.32
359.011	14.93
359.221	16.38
359.43	15.98
359.64	15.42
359.85	15.75
360.06	16.02
360.269	16.17
360.479	14.83
360.689	15.37
360.899	14.75
361.108	15.55
361.318	14.07
361.528	14.06
361.737	14.58
361.947	14.88
362.156	15.13
362.366	14.64
362.576	14.14
362.785	15.05
362.995	14.85
363.204	14.99
363.414	13.4
363.623	14.38
363.833	13.28
364.042	12.62
364.252	12.08
364.461	11.89
364.671	12.63
364.88	13.73
365.09	12.56
365.299	12.4
365.509	12.42
365.718	13.59
365.927	12.17
366.137	13.08
366.346	12.2
366.555	12.76
366.765	13.33
366.974	13.11
367.183	11.85
367.393	12.7
367.602	12.31
367.811	12.19
368.021	11.93
368.23	12.69
368.439	12.41
368.648	12.66
368.857	12.58
369.067	12.16
369.276	11.92
369.485	12.91
369.694	12.39
369.903	13.11
370.112	13.17
370.321	12.56
370.531	12.84
370.74	12.41
370.949	13.29
371.158	13.69
371.367	14.19
371.576	14.2
371.785	13.82
371.994	13.66
372.203	13.46
372.412	13.31
372.621	13.34
372.83	12.79
373.039	13.85
373.248	12.98
373.457	12.76
373.666	11.84
373.874	11.5
374.083	11.57
374.292	11.73
374.501	11.69
374.71	11.62
374.919	12.23
375.128	12.6
375.336	11.58
375.545	11.65
375.754	11.49
375.963	11.22
376.171	12.07
376.38	11.84
376.589	10.65
376.798	10.34
377.006	10.88
377.215	10.42
377.424	10.13
377.632	10.3
377.841	10.66
378.05	10.63
378.258	11.44
378.467	11.27
378.675	10.74
378.884	11.79
379.093	11.37
379.301	11.18
379.51	11.54
379.718	11.13
379.927	10.83
380.135	10.92
380.344	10.64
380.552	9.53
380.761	9.03
380.969	9.32
381.177	9.69
381.386	9.66
381.594	9.43
381.803	8.91
382.011	8.94
382.219	8.91
382.428	8.86
382.636	9.02
382.845	9.16
383.053	8.79
383.261	8.22
383.469	7.93
383.678	8.02
383.886	8.5
384.094	8.48
384.302	8.74
384.511	8.89
384.719	8.71
384.927	8.54
385.135	9.27
385.343	9.13
385.552	9.65
385.76	9.67
385.968	9.4
386.176	9.04
386.384	8.75
386.592	8.56
386.8	8.61
387.008	8.59
387.216	8.3
387.424	7.61
387.633	7.79
387.841	7.19
388.049	6.8
388.257	6.67
388.465	7.15
388.672	7.22
388.88	6.79
389.088	6.5
389.296	6
389.504	6.4
389.712	6.18
389.92	6.8
390.128	7.22
390.336	7.23
390.544	7.59
390.751	7.29
390.959	7.23
391.167	7.41
391.375	7.48
391.583	7.66
391.79	7.81
391.998	8.56
392.206	8.47
392.414	8.34
392.621	8.07
392.829	7.91
393.037	7.98
393.244	8.07
393.452	7.95
393.66	7.42
393.867	7.46
394.075	7.03
394.283	6.59
394.49	6.05
394.698	6
394.905	6.07
395.113	6.1
395.32	5.86
395.528	5.67
395.735	5.87
395.943	6.6
396.15	6.66
396.358	6.63
396.565	6.66
396.773	6.75
396.98	6.71
397.188	7.1
397.395	7.2
397.602	7.36
397.81	7.21
398.017	7.53
398.225	7.21
398.432	7.03
398.639	7.47
398.847	7.12
399.054	6.97
399.261	6.82
399.468	6.62
399.676	6.36
399.883	6.34
400.09	6.71
400.297	6.25
400.505	6.47
400.712	6.8
400.919	6.77
401.126	7.07
401.333	7.5
401.54	7.61
401.748	7.7
401.955	7.98
402.162	7.49
402.369	7.25
402.576	7.64
402.783	7.64
402.99	7.12
403.197	6.85
403.404	7.07
403.611	7.08
403.818	6.97
404.025	6.76
404.232	6.86
404.439	6.91
404.646	7.1
404.853	6.82
405.06	6.41
405.267	6.81
405.474	6.88
405.681	6.72
405.887	6.51
406.094	6.66
406.301	6.81
406.508	6.46
406.715	6.68
406.922	6.69
407.128	6.64
407.335	6.86
407.542	6.62
407.749	6.5
407.955	6.57
408.162	6.53
408.369	6.68
408.575	6.66
408.782	6.52
408.989	6.52
409.195	6.4
409.402	6.42
409.609	6.14
409.815	6.37
410.022	6.6
410.228	6.78
410.435	6.84
410.642	6.81
410.848	6.63
411.055	6.95
411.261	6.61
411.468	6.59
411.674	6.9
411.881	7.22
412.087	7.11
412.294	6.81
412.5	6.45
412.706	6.72
412.913	6.35
413.119	6.62
413.326	6.38
413.532	6.68
413.738	6.71
413.945	6.42
414.151	6.26
414.357	6.16
414.564	6.63
414.77	6.66
414.976	6.22
415.182	6.61
415.389	6.21
415.595	6.52
415.801	6.4
416.007	6.64
416.214	6.47
416.42	6.77
416.626	7.03
416.832	6.91
417.038	6.77
417.244	6.96
417.45	6.82
417.657	7.05
417.863	7.28
418.069	7.33
418.275	7.08
418.481	7.39
418.687	7.21
418.893	7.12
419.099	7.04
419.305	6.97
419.511	6.77
419.717	6.93
419.923	6.98
420.129	6.81
420.335	6.82
420.541	6.79
420.746	6.6
420.952	6.56
421.158	6.48
421.364	6.48
421.57	6.62
421.776	6.88
421.982	6.84
422.187	6.82
422.393	6.81
422.599	6.91
422.805	7.26
423.01	7.37
423.216	7.37
423.422	7.43
423.628	7.43
423.833	7.57
424.039	7.49
424.245	7.52
424.45	7.46
424.656	7.4
424.862	7.28
425.067	6.91
425.273	6.9
425.478	7.06
425.684	7.05
425.889	7.05
426.095	6.91
426.301	6.92
426.506	6.85
426.712	6.95
426.917	7.08
427.123	7.1
427.328	7.28
427.533	7.12
427.739	6.95
427.944	7.03
428.15	7.11
428.355	6.97
428.561	7.05
428.766	6.95
428.971	6.99
429.177	6.91
429.382	6.75
429.587	6.69
429.793	6.78
429.998	6.65
430.203	6.48
430.408	6.11
430.614	6.32
430.819	6.35
431.024	6.48
431.229	6.36
431.434	6.07
431.64	6.29
431.845	6.36
432.05	6.45
432.255	6.46
432.46	6.51
432.665	6.69
432.87	6.67
433.076	6.61
433.281	6.63
433.486	6.81
433.691	7.24
433.896	7.2
434.101	6.96
434.306	6.99
434.511	7.04
434.716	7.1
434.921	7.13
435.126	6.95
435.331	6.84
435.535	6.67
435.74	6.59
435.945	6.38
436.15	6.32
436.355	6.65
436.56	6.63
436.765	6.89
436.97	6.77
437.174	6.89
437.379	7.21
437.584	7.25
437.789	7.17
437.993	7.03
438.198	6.89
438.403	6.95
438.608	6.99
438.812	7
439.017	6.81
439.222	6.86
439.426	6.89
439.631	6.82
439.836	6.86
440.04	6.85
440.245	7.02
440.45	7.05
440.654	6.97
440.859	6.85
441.063	6.81
441.268	6.75
441.472	6.76
441.677	6.54
441.881	6.3
442.086	6.31
442.29	6.46
442.495	6.2
442.699	6.25
442.904	6.48
443.108	6.51
443.312	6.26
443.517	6.36
443.721	6.35
443.925	6.49
444.13	6.6
444.334	6.39
444.538	6.4
444.743	6.56
444.947	6.61
445.151	6.4
445.356	6.2
445.56	6.19
445.764	6.2
445.968	6.27
446.173	6.36
446.377	6.46
446.581	6.62
446.785	6.59
446.989	6.58
447.193	6.45
447.398	6.46
447.602	6.59
447.806	6.7
448.01	6.55
448.214	6.45
448.418	6.28
448.622	6.33
448.826	6.14
449.03	6.13
449.234	6.17
449.438	6.04
449.642	6.03
449.846	5.74
450.05	5.77
450.254	5.83
450.458	5.89
450.662	6.04
450.866	5.79
451.069	5.95
451.273	6.12
451.477	5.99
451.681	6.35
451.885	6.51
452.089	6.78
452.292	6.66
452.496	6.92
452.7	6.93
452.904	6.98
453.107	7.11
453.311	7.04
453.515	6.84
453.719	6.86
453.922	6.6
454.126	6.35
454.33	6.43
454.533	6.53
454.737	6.49
454.94	6.52
455.144	6.25
455.348	6.11
455.551	6.1
455.755	6.19
455.958	6.02
456.162	6.38
456.365	6.45
456.569	6.44
456.772	6.68
456.976	6.62
457.179	6.62
457.383	6.75
457.586	6.77
457.79	6.69
457.993	6.46
458.196	6.59
458.4	6.37
458.603	6.39
458.807	6.33
459.01	6.12
459.213	6.13
459.417	6.09
459.62	6.13
459.823	6.03
460.026	6
460.23	6.1
460.433	6.06
460.636	6.19
460.839	6.07
461.042	6.14
461.246	6.27
