Data from 2937856_Reflection_2.txt Node
Date: Wed Jul 15 15:39:45 EDT 2015
User: robert
Spectrometer: USB4E03001
Autoset integration time: false
Trigger mode: 4
Integration Time (sec): 1.000000E-1
Scans to average: 10
Electric dark correction enabled: true
Nonlinearity correction enabled: false
Boxcar width: 5
Stray light correction enabled: false
XAxis mode: Wavelengths
Stop averaging: false
Number of Pixels in Spectrum: 3648
>>>>>Begin Spectral Data<<<<<
177.566	-98.31
177.785	-461.9
178.005	46.56
178.225	59.42
178.445	159.48
178.665	127.65
178.885	82.6
179.105	121.32
179.324	167.08
179.544	-384.03
179.764	-2837.5
179.984	482.23
180.204	344.61
180.423	115.63
180.643	122.3
180.863	119.56
181.083	114.64
181.302	121.72
181.522	163.69
181.742	171.71
181.961	131.41
182.181	103.1
182.401	120.11
182.621	100.11
182.84	113.33
183.06	146.35
183.279	153.2
183.499	115.77
183.719	125.69
183.938	88.06
184.158	84.71
184.377	95.53
184.597	228.26
184.816	159.38
185.036	131.88
185.256	294.23
185.475	145.82
185.695	205.8
185.914	407.51
186.134	309.85
186.353	415.65
186.572	1475.59
186.792	420.19
187.011	373.77
187.231	195.47
187.45	268.25
187.67	335.66
187.889	422.77
188.108	656.76
188.328	370.91
188.547	595.57
188.766	42322.73
188.986	955.49
189.205	425.53
189.424	235.45
189.644	328.61
189.863	411.18
190.082	401.51
190.302	446.2
190.521	279.48
190.74	306.62
190.959	222.18
191.178	133.33
191.398	101.2
191.617	125.04
191.836	156.8
192.055	19.49
192.274	91.27
192.494	-128.29
192.713	-5.56
192.932	14.28
193.151	34.14
193.37	22.49
193.589	40.16
193.808	73.14
194.027	80.03
194.246	141.4
194.465	185.21
194.685	212.34
194.904	285.51
195.123	1004.14
195.342	-827.4
195.561	-255.96
195.78	-101.56
195.999	-61.68
196.218	-98
196.436	-44.18
196.655	-19747.06
196.874	446.68
197.093	183.39
197.312	48.73
197.531	-15.74
197.75	-103.75
197.969	-139.25
198.188	-220.09
198.407	-41.11
198.625	17.18
198.844	25.41
199.063	18
199.282	49.51
199.501	-18.09
199.719	24.66
199.938	43.22
200.157	90.69
200.376	49.63
200.594	26.79
200.813	-28.97
201.032	134.43
201.251	239.85
201.469	4255.41
201.688	334.5
201.907	213.66
202.125	112.36
202.344	92.77
202.563	60.14
202.781	19.57
203	48.21
203.218	85.93
203.437	163.13
203.656	-1071.91
203.874	11.47
204.093	15.41
204.311	65.51
204.53	189.64
204.748	144.71
204.967	96.26
205.185	100.17
205.404	72.24
205.622	79.91
205.841	86.02
206.059	141.6
206.278	189.16
206.496	152.49
206.715	134.1
206.933	154.44
207.151	177.78
207.37	-87.91
207.588	-175.17
207.806	-228.44
208.025	-169.08
208.243	-208.9
208.461	417.9
208.68	95.3
208.898	295.25
209.116	55.48
209.335	112.3
209.553	157.07
209.771	77.83
209.989	133.72
210.208	-1.85
210.426	321.01
210.644	119.89
210.862	42.77
211.081	-75.47
211.299	-351.98
211.517	-168.4
211.735	-2.44
211.953	28.09
212.171	-0.72
212.39	20.29
212.608	-14.91
212.826	-23.39
213.044	-116.9
213.262	311.82
213.48	225.34
213.698	136.74
213.916	350.7
214.134	30.34
214.352	-475.21
214.57	190.02
214.788	260.92
215.006	314.41
215.224	-210.55
215.442	190.38
215.66	179.19
215.878	229.28
216.096	374.57
216.314	-7804.35
216.532	684.98
216.75	163.01
216.968	158.72
217.185	150.85
217.403	136.81
217.621	125.53
217.839	121.09
218.057	169.97
218.275	145.42
218.492	152.65
218.71	134.51
218.928	125.29
219.146	283.51
219.363	287.43
219.581	553.77
219.799	755.13
220.017	-9330.43
220.234	-398.4
220.452	-222.22
220.67	-1206
220.887	-1208.17
221.105	-5435.07
221.323	-616.48
221.54	726.79
221.758	452.92
221.976	216.35
222.193	150.5
222.411	128.59
222.629	35.34
222.846	25.19
223.064	46.68
223.281	19.53
223.499	25.77
223.716	12.33
223.934	-10.59
224.151	2.23
224.369	14.86
224.586	30.52
224.804	23.22
225.021	87.24
225.239	226.28
225.456	65.33
225.674	798.26
225.891	-31.67
226.108	-202.97
226.326	181.08
226.543	63.39
226.76	49.8
226.978	36.56
227.195	30.78
227.413	23.61
227.63	26.14
227.847	29.26
228.064	24.9
228.282	19.85
228.499	20.52
228.716	12.63
228.934	9.69
229.151	12.87
229.368	13.81
229.585	11.98
229.802	13.7
230.02	9.15
230.237	7.08
230.454	7.41
230.671	14.96
230.888	13.95
231.105	16.39
231.323	16.38
231.54	17.9
231.757	17.88
231.974	21.63
232.191	22.14
232.408	28.37
232.625	32.33
232.842	32.86
233.059	28.47
233.276	32.26
233.493	36.1
233.71	39.34
233.927	36.87
234.144	38.7
234.361	38.2
234.578	39.53
234.795	33.52
235.012	34.08
235.229	30.79
235.446	25.4
235.663	22.07
235.879	24.05
236.096	27.82
236.313	30.62
236.53	32.85
236.747	31.43
236.964	29.18
237.181	35.94
237.397	28.12
237.614	26.16
237.831	34.5
238.048	35.64
238.264	28.28
238.481	27.5
238.698	24.66
238.915	25.45
239.131	27.61
239.348	26.77
239.565	27.47
239.781	26.53
239.998	28.7
240.215	24.42
240.431	23.07
240.648	24.97
240.865	20.38
241.081	17.94
241.298	13.67
241.514	13.74
241.731	12.88
241.947	12.04
242.164	11.13
242.38	12.44
242.597	14.63
242.814	13.48
243.03	13.12
243.246	13.19
243.463	12.54
243.679	14.26
243.896	13.83
244.112	14.3
244.329	12.74
244.545	15.06
244.762	14.37
244.978	13.72
245.194	12.94
245.411	14.37
245.627	16.57
245.843	17.78
246.06	16
246.276	16.78
246.492	17.13
246.709	17.19
246.925	16.59
247.141	15.96
247.357	15.83
247.574	16.5
247.79	16.55
248.006	15.23
248.222	15.84
248.439	16.11
248.655	14.46
248.871	12.56
249.087	13.84
249.303	14.05
249.519	13.53
249.736	14.28
249.952	13.74
250.168	13.31
250.384	13.76
250.6	14.14
250.816	14.46
251.032	15.83
251.248	16.89
251.464	15.73
251.68	14.48
251.896	15.45
252.112	12.41
252.328	14.13
252.544	14.58
252.76	16.48
252.976	16.77
253.192	16.5
253.408	18.67
253.624	21.32
253.84	20.61
254.056	21.74
254.272	24
254.487	24.85
254.703	24.44
254.919	21.52
255.135	17.78
255.351	14.7
255.567	15.33
255.782	11.88
255.998	8.39
256.214	9.89
256.43	9.23
256.646	8.98
256.861	12.96
257.077	14.75
257.293	15.68
257.508	17.38
257.724	16.72
257.94	15.84
258.155	12.9
258.371	12.22
258.587	10.45
258.802	10.65
259.018	9.98
259.234	9.45
259.449	8.87
259.665	9.11
259.88	8.74
260.096	8.91
260.312	8.57
260.527	9.88
260.743	10.77
260.958	11.59
261.174	11.59
261.389	10.77
261.605	10.77
261.82	10.26
262.036	10.04
262.251	11
262.466	9.74
262.682	10.18
262.897	11.78
263.113	10.63
263.328	9.13
263.543	9.47
263.759	10.61
263.974	8.36
264.189	10.42
264.405	10.27
264.62	8.84
264.835	9.9
265.051	11.19
265.266	8.78
265.481	9.11
265.696	10.72
265.912	10.92
266.127	12.4
266.342	13.28
266.557	12.21
266.773	14.75
266.988	14.88
267.203	14.53
267.418	13.27
267.633	12.61
267.848	13.07
268.064	11.36
268.279	12.71
268.494	13.05
268.709	13.17
268.924	12.89
269.139	11.33
269.354	11.73
269.569	13.53
269.784	13.31
269.999	14.08
270.214	14.07
270.429	15.52
270.644	13.71
270.859	12.96
271.074	14.27
271.289	14.76
271.504	15.41
271.719	15.76
271.934	14.13
272.149	13.85
272.363	13.8
272.578	14.96
272.793	14.4
273.008	14.85
273.223	15
273.438	14.05
273.653	13.56
273.867	12.54
274.082	12.17
274.297	13.49
274.512	15.37
274.726	14.95
274.941	13.77
275.156	13.68
275.371	14
275.585	14.38
275.8	15.61
276.015	16.2
276.229	15.47
276.444	13.51
276.659	13.85
276.873	12.21
277.088	11.85
277.302	11.71
277.517	11.83
277.732	11.63
277.946	10.82
278.161	9.4
278.375	8.91
278.59	10.44
278.804	11.09
279.019	10.31
279.233	10.66
279.448	11.55
279.662	12.54
279.877	13.33
280.091	12.18
280.306	12.88
280.52	13.53
280.735	13.53
280.949	12.07
281.163	12.66
281.378	12.96
281.592	12.01
281.806	12.28
282.021	10.95
282.235	9.99
282.449	11.28
282.664	11.46
282.878	10.7
283.092	12.06
283.307	13.97
283.521	14.59
283.735	15.42
283.949	16.66
284.164	16.61
284.378	16.42
284.592	16.73
284.806	15.56
285.02	15.75
285.234	14.64
285.449	12.1
285.663	11.76
285.877	12.18
286.091	10.44
286.305	10.03
286.519	8.63
286.733	9.02
286.947	8.96
287.161	9.34
287.375	8.64
287.589	10.22
287.803	12.23
288.017	11.65
288.231	10.52
288.445	11.8
288.659	12.6
288.873	13.97
289.087	12.44
289.301	11.86
289.515	12.08
289.729	11.82
289.943	10.78
290.157	10.49
290.371	11.13
290.584	11.08
290.798	10.52
291.012	10.42
291.226	9.78
291.44	10.44
291.654	10.37
291.867	10.97
292.081	11.35
292.295	11.84
292.509	11.18
292.722	10.61
292.936	11.25
293.15	11.18
293.364	10.18
293.577	10.8
293.791	11.67
294.005	13.94
294.218	13.67
294.432	14.84
294.645	15.32
294.859	15.01
295.073	15.08
295.286	13.63
295.5	13.54
295.713	14.66
295.927	14.34
296.14	14.21
296.354	13.13
296.568	12.37
296.781	10.75
296.994	11.35
297.208	11.81
297.421	11.43
297.635	12.15
297.848	12.19
298.062	12.18
298.275	11.3
298.489	12.05
298.702	12.02
298.915	11.13
299.129	11.06
299.342	10.6
299.555	10.6
299.769	9.92
299.982	11.93
300.195	12.02
300.409	10.53
300.622	11.79
300.835	11.91
301.048	11.23
301.262	12.95
301.475	13.69
301.688	14.2
301.901	15.11
302.115	16.68
302.328	15.66
302.541	15.88
302.754	16.02
302.967	17.18
303.18	16.49
303.393	16.38
303.607	16.73
303.82	16.18
304.033	15.99
304.246	15.07
304.459	15.05
304.672	14.03
304.885	14.69
305.098	14.58
305.311	13.24
305.524	13.11
305.737	12.44
305.95	12.82
306.163	12.47
306.376	11.24
306.589	10.53
306.802	10.14
307.015	10.67
307.228	10.65
307.44	12.16
307.653	12.84
307.866	13.35
308.079	15.21
308.292	14.67
308.505	15.75
308.718	15.97
308.93	15.79
309.143	15.82
309.356	15.47
309.569	16.1
309.781	15.23
309.994	14.84
310.207	13.01
310.42	12.5
310.632	11.82
310.845	11.02
311.058	11.6
311.27	11.81
311.483	12.23
311.696	12.44
311.908	11.93
312.121	12.3
312.333	13.06
312.546	14.35
312.759	14.55
312.971	15
313.184	15.22
313.396	13.98
313.609	13.58
313.821	12.51
314.034	12.69
314.246	12.81
314.459	13.16
314.671	14.12
314.884	14.62
315.096	15.11
315.309	16.06
315.521	16.1
315.733	16.55
315.946	18.32
316.158	18.91
316.371	18.52
316.583	17.49
316.795	17.43
317.008	14.5
317.22	14.7
317.432	14.56
317.644	13.6
317.857	14.2
318.069	14.61
318.281	11.73
318.494	13.51
318.706	15.03
318.918	13.68
319.13	14.75
319.342	17.1
319.555	16.06
319.767	16.37
319.979	15.86
320.191	15.82
320.403	15.75
320.615	18.64
320.827	15.37
321.039	15.94
321.252	18.19
321.464	16.15
321.676	15.57
321.888	16.22
322.1	15.12
322.312	15.06
322.524	15.03
322.736	14.88
322.948	13.54
323.16	14.66
323.372	13.21
323.584	14.05
323.796	14.05
324.007	13.6
324.219	14.09
324.431	14.13
324.643	15.38
324.855	13.64
325.067	13.76
325.279	14.5
325.491	13.85
325.702	13.14
325.914	11.68
326.126	12.33
326.338	14.11
326.55	13.85
326.761	13.05
326.973	13.29
327.185	15.3
327.396	15.37
327.608	15.55
327.82	16.03
328.032	17.41
328.243	17.24
328.455	16.95
328.666	15.47
328.878	14.5
329.09	15.33
329.301	14.4
329.513	13.72
329.725	14.47
329.936	12.97
330.148	14.08
330.359	12.24
330.571	12.27
330.782	13.08
330.994	11.35
331.205	12.23
331.417	11.89
331.628	12.3
331.84	12.39
332.051	11.9
332.262	13.22
332.474	12.63
332.685	15.04
332.897	16.07
333.108	15.31
333.319	16.52
333.531	15.31
333.742	16.31
333.953	15.93
334.165	15.48
334.376	16.35
334.587	15.96
334.799	16.13
335.01	14.57
335.221	14.08
335.432	13.15
335.644	13.05
335.855	15.78
336.066	16.11
336.277	15.68
336.488	15.4
336.7	13.89
336.911	15.66
337.122	14.19
337.333	15.61
337.544	17.41
337.755	18.18
337.966	16.72
338.177	14.26
338.388	14.56
338.599	15.87
338.811	15.66
339.022	15.21
339.233	13.93
339.444	16.16
339.655	15.59
339.866	13.61
340.076	14.17
340.287	15.74
340.498	15.52
340.709	14.23
340.92	13.1
341.131	14.06
341.342	14.93
341.553	14.6
341.764	13.08
341.975	12.92
342.185	13.71
342.396	14.48
342.607	13.96
342.818	15.7
343.029	16.14
343.239	17.3
343.45	17.52
343.661	18.44
343.872	18.12
344.082	18.15
344.293	18.15
344.504	16.96
344.714	15.28
344.925	17.21
345.136	16.02
345.346	15.56
345.557	13.82
345.768	13.95
345.978	12.82
346.189	12.91
346.399	14.57
346.61	14.09
346.821	15.31
347.031	15.46
347.242	15.06
347.452	15.33
347.663	15.85
347.873	17.39
348.084	16.89
348.294	16.58
348.504	17.19
348.715	15.96
348.925	15.23
349.136	14.45
349.346	14.1
349.557	12.91
349.767	14.74
349.977	15.06
350.188	15.19
350.398	15.55
350.608	16.96
350.819	16.01
351.029	14.96
351.239	16.22
351.449	16.8
351.66	17.23
351.87	16.93
352.08	16.3
352.29	16.7
352.501	15.44
352.711	15.55
352.921	15.66
353.131	16.45
353.341	17.59
353.552	15.71
353.762	15.14
353.972	14.16
354.182	14.53
354.392	13.54
354.602	13.4
354.812	12.11
355.022	12.19
355.232	12.38
355.442	12.6
355.652	11.72
355.862	13.52
356.072	12.15
356.282	13.3
356.492	13.58
356.702	14.1
356.912	13.85
357.122	16.29
357.332	15.32
357.542	15.31
357.752	15.48
357.962	15.59
358.171	15.59
358.381	16.51
358.591	15.95
358.801	16.19
359.011	15.54
359.221	16.46
359.43	15.76
359.64	17.34
359.85	16.18
360.06	15.24
360.269	15.41
360.479	14.77
360.689	14.47
360.899	14.94
361.108	14.82
361.318	15.19
361.528	14.22
361.737	13.35
361.947	12.83
362.156	12.8
362.366	13.02
362.576	13.33
362.785	13.4
362.995	12.99
363.204	13.45
363.414	12.38
363.623	11.66
363.833	11.97
364.042	12.82
364.252	12.23
364.461	12.39
364.671	13.17
364.88	13.15
365.09	13.53
365.299	14.44
365.509	14.76
365.718	15.57
365.927	15.49
366.137	15.16
366.346	15.52
366.555	14.54
366.765	14.32
366.974	14.07
367.183	13.09
367.393	12.78
367.602	12.76
367.811	11.91
368.021	11.39
368.23	12.34
368.439	12.17
368.648	11.08
368.857	12.13
369.067	12.83
369.276	11.73
369.485	12.7
369.694	11.85
369.903	11.64
370.112	11.35
370.321	11.73
370.531	11.28
370.74	11.45
370.949	10.99
371.158	11
371.367	10.3
371.576	10.52
371.785	9.8
371.994	10.58
372.203	10.68
372.412	10.98
372.621	11.03
372.83	11.45
373.039	10.94
373.248	11.48
373.457	10.76
373.666	10.65
373.874	10.31
374.083	10.69
374.292	10.48
374.501	11.07
374.71	10.76
374.919	10.92
375.128	10.02
375.336	9.72
375.545	9.79
375.754	10.05
375.963	10.19
376.171	10.71
376.38	11.02
376.589	10.93
376.798	10.74
377.006	11.11
377.215	11.7
377.424	11.78
377.632	12.06
377.841	11.86
378.05	12.37
378.258	12.16
378.467	12.08
378.675	11.87
378.884	11.68
379.093	10.92
379.301	10.48
379.51	9.44
379.718	9.9
379.927	8.91
380.135	9.01
380.344	8.63
380.552	8.35
380.761	8.06
380.969	7.83
381.177	7.58
381.386	8
381.594	8.4
381.803	8.71
382.011	8.32
382.219	9.35
382.428	9.61
382.636	9.37
382.845	9.6
383.053	9.5
383.261	9.45
383.469	9.75
383.678	9.74
383.886	9.39
384.094	9.31
384.302	9.43
384.511	9.68
384.719	9.4
384.927	9.5
385.135	9.44
385.343	9.64
385.552	9.84
385.76	9.31
385.968	9.25
386.176	9.37
386.384	9.06
386.592	9.29
386.8	8.77
387.008	8.62
387.216	8.72
387.424	8.43
387.633	8.41
387.841	8.16
388.049	8.4
388.257	8.28
388.465	7.78
388.672	7.63
388.88	7.11
389.088	7.23
389.296	7.62
389.504	7.28
389.712	7.79
389.92	7.16
390.128	7.05
390.336	7.26
390.544	7.65
390.751	7.88
390.959	8.03
391.167	8.28
391.375	8.17
391.583	7.68
391.79	7.83
391.998	7.67
392.206	8.05
392.414	7.86
392.621	8.02
392.829	7.36
393.037	7.34
393.244	7.43
393.452	7.55
393.66	7.55
393.867	8
394.075	7.95
394.283	7.92
394.49	7.61
394.698	7.72
394.905	7.48
395.113	7.93
395.32	7.7
395.528	7.64
395.735	7.01
395.943	6.93
396.15	6.54
396.358	6.59
396.565	6.57
396.773	7.01
396.98	6.93
397.188	6.57
397.395	6.66
397.602	7.11
397.81	7.27
398.017	7.75
398.225	7.66
398.432	7.64
398.639	7.57
398.847	7.85
399.054	7.62
399.261	7.75
399.468	7.89
399.676	7.5
399.883	7.39
400.09	7.3
400.297	7.15
400.505	7.43
400.712	7.76
400.919	8.15
401.126	7.92
401.333	7.86
401.54	7.82
401.748	7.93
401.955	8.13
402.162	7.94
402.369	7.54
402.576	7.26
402.783	7.18
402.99	6.86
403.197	6.51
403.404	6.48
403.611	6.45
403.818	6.68
404.025	6.74
404.232	6.79
404.439	6.82
404.646	7.08
404.853	7.31
405.06	7.14
405.267	7
405.474	6.94
405.681	6.93
405.887	7.08
406.094	6.81
406.301	6.49
406.508	6.3
406.715	6.37
406.922	6.14
407.128	6.06
407.335	6.07
407.542	6.32
407.749	6.25
407.955	6.02
408.162	5.91
408.369	6.11
408.575	6.29
408.782	6.21
408.989	6.04
409.195	6.02
409.402	5.89
409.609	5.84
409.815	5.59
410.022	5.91
410.228	6.33
410.435	6.33
410.642	6.3
410.848	6.59
411.055	7.12
411.261	7.44
411.468	7.48
411.674	7.51
411.881	7.75
412.087	7.94
412.294	7.79
412.5	7.62
412.706	7.52
412.913	7.6
413.119	7.33
413.326	7.49
413.532	7.54
413.738	7.65
413.945	7.77
414.151	7.61
414.357	7.32
414.564	7.06
414.77	7.12
414.976	7.39
415.182	7.04
415.389	6.95
415.595	6.41
415.801	5.98
416.007	6.18
416.214	6.11
416.42	5.99
416.626	6.2
416.832	6.44
417.038	6.3
417.244	6.3
417.45	6.58
417.657	6.58
417.863	6.66
418.069	6.82
418.275	6.5
418.481	6.47
418.687	6.52
418.893	6.31
419.099	6.25
419.305	6.15
419.511	6.04
419.717	5.89
419.923	5.89
420.129	5.72
420.335	5.55
420.541	5.67
420.746	5.68
420.952	5.71
421.158	5.86
421.364	5.92
421.57	5.96
421.776	5.97
421.982	5.99
422.187	5.9
422.393	5.95
422.599	6.19
422.805	6.3
423.01	6.4
423.216	6.44
423.422	6.33
423.628	6.18
423.833	6.14
424.039	6.11
424.245	6.09
424.45	6.08
424.656	6.07
424.862	5.88
425.067	5.66
425.273	5.6
425.478	5.46
425.684	5.51
425.889	5.67
426.095	5.73
426.301	5.73
426.506	5.84
426.712	5.85
426.917	5.71
427.123	5.57
427.328	5.59
427.533	5.51
427.739	5.6
427.944	5.74
428.15	5.59
428.355	5.54
428.561	5.56
428.766	5.37
428.971	5.24
429.177	5.49
429.382	5.82
429.587	6.04
429.793	6.1
429.998	5.98
430.203	6.02
430.408	5.89
430.614	6.08
430.819	5.94
431.024	5.94
431.229	6.13
431.434	6.25
431.64	6.12
431.845	6
432.05	6.15
432.255	6.43
432.46	6.32
432.665	6.47
432.87	6.31
433.076	6.36
433.281	6.26
433.486	6.3
433.691	6.09
433.896	6.08
434.101	6.08
434.306	5.88
434.511	5.9
434.716	6
434.921	5.96
435.126	5.94
435.331	6.05
435.535	6.08
435.74	6.1
435.945	6.29
436.15	6.46
436.355	6.43
436.56	6.59
436.765	6.48
436.97	6.48
437.174	6.45
437.379	6.44
437.584	6.28
437.789	6.43
437.993	6.38
438.198	6.11
438.403	5.94
438.608	5.96
438.812	5.75
439.017	5.48
439.222	5.39
439.426	5.18
439.631	5.16
439.836	5.23
440.04	5.19
440.245	4.99
440.45	5.18
440.654	5.17
440.859	5.14
441.063	5.12
441.268	5.29
441.472	5.29
441.677	5.45
441.881	5.51
442.086	5.51
442.29	5.44
442.495	5.66
442.699	5.47
442.904	5.51
443.108	5.51
443.312	5.5
443.517	5.43
443.721	5.47
443.925	5.56
444.13	5.42
444.334	5.33
444.538	5.37
444.743	5.4
444.947	5.4
445.151	5.41
445.356	5.45
445.56	5.58
445.764	5.47
445.968	5.38
446.173	5.34
446.377	5.48
446.581	5.5
446.785	5.49
446.989	5.41
447.193	5.45
447.398	5.44
447.602	5.27
447.806	5.24
448.01	5.32
448.214	5.28
448.418	5.33
448.622	5.27
448.826	5.4
449.03	5.41
449.234	5.51
449.438	5.52
449.642	5.41
449.846	5.75
450.05	5.88
450.254	5.86
450.458	5.82
450.662	5.67
450.866	5.63
451.069	5.55
451.273	5.51
451.477	5.51
451.681	5.55
451.885	5.7
452.089	5.62
452.292	5.61
452.496	5.62
452.7	5.77
452.904	5.78
453.107	5.81
453.311	5.69
453.515	5.71
453.719	5.74
453.922	5.55
454.126	5.43
454.33	5.28
454.533	5.25
454.737	5.37
454.94	5.28
455.144	5.43
455.348	5.54
455.551	5.61
455.755	5.55
455.958	5.65
456.162	5.77
456.365	5.77
456.569	5.88
456.772	5.74
456.976	5.62
457.179	5.59
457.383	5.43
457.586	5.26
457.79	5.38
457.993	5.57
458.196	5.38
458.4	5.48
458.603	5.35
458.807	5.3
459.01	5.39
459.213	5.31
459.417	5.23
459.62	5.16
459.823	5.21
460.026	5.06
460.23	5.04
460.433	5.05
460.636	4.99
460.839	4.81
