Data from 2937830_Reflection_1.txt Node
Date: Wed Jul 15 16:48:06 EDT 2015
User: robert
Spectrometer: USB4E03001
Autoset integration time: false
Trigger mode: 4
Integration Time (sec): 1.000000E-1
Scans to average: 10
Electric dark correction enabled: true
Nonlinearity correction enabled: false
Boxcar width: 5
Stray light correction enabled: false
XAxis mode: Wavelengths
Stop averaging: false
Number of Pixels in Spectrum: 3648
>>>>>Begin Spectral Data<<<<<
177.566	-758.93
177.785	-492.98
178.005	183.14
178.225	237.33
178.445	375.94
178.665	135.87
178.885	161.66
179.105	438.36
179.324	-503.8
179.544	-346.87
179.764	-210.94
179.984	-194.34
180.204	-184.71
180.423	-342.99
180.643	-445.61
180.863	-272.83
181.083	-553.41
181.302	2703.51
181.522	-2638.3
181.742	364.32
181.961	339.76
182.181	369.32
182.401	301.11
182.621	121.87
182.84	167.53
183.06	224.56
183.279	476.88
183.499	394.24
183.719	32.05
183.938	86.69
184.158	82.74
184.377	55.23
184.597	40.61
184.816	59.61
185.036	45.99
185.256	72.46
185.475	65.46
185.695	115.19
185.914	104.74
186.134	114.98
186.353	98.27
186.572	87.03
186.792	122.53
187.011	220.17
187.231	124
187.45	82.65
187.67	56.67
187.889	155.57
188.108	43.14
188.328	36.97
188.547	17.27
188.766	-8.13
188.986	-64.28
189.205	-59.84
189.424	-61.12
189.644	-94.17
189.863	-131.74
190.082	-62.69
190.302	-151.48
190.521	-51.71
190.74	-64.74
190.959	-136.68
191.178	-198.98
191.398	-21.82
191.617	0.69
191.836	-19.57
192.055	7.5
192.274	-8.7
192.494	4.89
192.713	5.6
192.932	-44.48
193.151	-23.92
193.37	-80.15
193.589	-72.91
193.808	-69.49
194.027	-33.73
194.246	-1.02
194.465	-22.48
194.685	-48.07
194.904	-38.45
195.123	-26.96
195.342	-9.68
195.561	-16.85
195.78	3.93
195.999	34.92
196.218	21.18
196.436	-4.41
196.655	-6.9
196.874	-17.37
197.093	-8.35
197.312	5.67
197.531	0.28
197.75	1.26
197.969	-10.2
198.188	-42.23
198.407	-131.71
198.625	-94.55
198.844	-77.05
199.063	-129.34
199.282	7.29
199.501	15.69
199.719	-94.31
199.938	-190.21
200.157	-751.6
200.376	-223.24
200.594	-163.38
200.813	-253.01
201.032	-478.45
201.251	-231.11
201.469	-82.74
201.688	-47.73
201.907	-8.61
202.125	13.97
202.344	25.71
202.563	26.11
202.781	28.95
203	30.4
203.218	29.15
203.437	27.43
203.656	25.8
203.874	-8.59
204.093	-50.19
204.311	-104.86
204.53	-92.48
204.748	-18.78
204.967	-35.29
205.185	-21.44
205.404	-99.96
205.622	-44.11
205.841	-58.96
206.059	-216.02
206.278	-137.41
206.496	-77.57
206.715	-18.98
206.933	-21.88
207.151	-18.12
207.37	1.34
207.588	-7.58
207.806	14.07
208.025	8.53
208.243	3.05
208.461	18.53
208.68	18.68
208.898	15.62
209.116	3.32
209.335	7
209.553	-10.95
209.771	-30.41
209.989	-54.46
210.208	-133.12
210.426	-95.52
210.644	-114.63
210.862	-122.78
211.081	-90.92
211.299	-117.27
211.517	-260.66
211.735	-144.57
211.953	-123.77
212.171	-39.28
212.39	-18.43
212.608	3.32
212.826	-9.39
213.044	-20.21
213.262	-8.43
213.48	23.66
213.698	52.73
213.916	65.53
214.134	77.53
214.352	27.92
214.57	39.15
214.788	46.81
215.006	13.59
215.224	33.28
215.442	27.77
215.66	-3.72
215.878	-2.42
216.096	-12.6
216.314	-13.94
216.532	-1.79
216.75	24.38
216.968	4.26
217.185	5.2
217.403	26.21
217.621	3.62
217.839	4.29
218.057	22.33
218.275	23.46
218.492	27.25
218.71	32.29
218.928	15.47
219.146	28.74
219.363	28.36
219.581	23.26
219.799	32.73
220.017	38.31
220.234	41.82
220.452	53.01
220.67	42.17
220.887	32.99
221.105	43.84
221.323	38.27
221.54	32.56
221.758	26.9
221.976	38.98
222.193	24.05
222.411	71.74
222.629	13.2
222.846	36.59
223.064	30.69
223.281	-19.55
223.499	-18.02
223.716	-16.25
223.934	-20.72
224.151	-10.61
224.369	-12.2
224.586	0.88
224.804	4.58
225.021	14.71
225.239	11.53
225.456	15.1
225.674	32.97
225.891	20.17
226.108	17.44
226.326	20.47
226.543	7.36
226.76	5.29
226.978	3.49
227.195	-2.03
227.413	-9.82
227.63	-11.15
227.847	-8.17
228.064	-1.93
228.282	3.39
228.499	7.17
228.716	5.75
228.934	9.51
229.151	9.15
229.368	9.15
229.585	13.06
229.802	17.61
230.02	21.17
230.237	22.04
230.454	20.73
230.671	18.39
230.888	17.76
231.105	15.35
231.323	15.72
231.54	15.81
231.757	13.23
231.974	11.26
232.191	2.4
232.408	-1.79
232.625	-8.37
232.842	-12.89
233.059	-8.72
233.276	0.22
233.493	-0.69
233.71	-3.42
233.927	6.49
234.144	9.93
234.361	10.32
234.578	15.7
234.795	16.91
235.012	21.32
235.229	21.57
235.446	18.75
235.663	16.38
235.879	19.45
236.096	22.31
236.313	20.27
236.53	17.02
236.747	13.68
236.964	7.2
237.181	11.9
237.397	12.83
237.614	18.28
237.831	22.4
238.048	16.35
238.264	14.77
238.481	9.84
238.698	3.7
238.915	6.09
239.131	0.55
239.348	8.36
239.565	2.67
239.781	-0.32
239.998	-3.28
240.215	-2.29
240.431	0.57
240.648	2.22
240.865	7.47
241.081	13.93
241.298	14.75
241.514	18.5
241.731	19.17
241.947	15.8
242.164	15.95
242.38	16.92
242.597	16.83
242.814	17.3
243.03	19.83
243.246	23.72
243.463	21.38
243.679	21.66
243.896	19.65
244.112	17.79
244.329	21.01
244.545	21.15
244.762	18.61
244.978	17.98
245.194	18.19
245.411	17.13
245.627	11.22
245.843	11.76
246.06	12.42
246.276	14.47
246.492	13.72
246.709	14.42
246.925	14.88
247.141	15
247.357	16.1
247.574	15.64
247.79	14.43
248.006	15.34
248.222	15.35
248.439	15.99
248.655	15.48
248.871	14.98
249.087	14.7
249.303	14.19
249.519	16.13
249.736	16.62
249.952	16.52
250.168	19.75
250.384	16.73
250.6	17.85
250.816	13.91
251.032	14.02
251.248	15.11
251.464	13.33
251.68	14.4
251.896	11.68
252.112	9.73
252.328	10.15
252.544	8.21
252.76	6.88
252.976	3.9
253.192	4.1
253.408	3.02
253.624	4.08
253.84	4.31
254.056	2.3
254.272	1.85
254.487	-0.55
254.703	-1.21
254.919	-3.64
255.135	0.37
255.351	-0.06
255.567	0.65
255.782	0.87
255.998	0.33
256.214	1.31
256.43	2.62
256.646	3.73
256.861	3.5
257.077	3.49
257.293	4.67
257.508	2.19
257.724	3.98
257.94	4.8
258.155	8.53
258.371	8.7
258.587	8.05
258.802	7.97
259.018	8.68
259.234	10.71
259.449	10.94
259.665	13
259.88	14.02
260.096	14.1
260.312	14.02
260.527	13.23
260.743	13.21
260.958	13.48
261.174	13.65
261.389	13.69
261.605	14.04
261.82	13.93
262.036	11.66
262.251	10.71
262.466	10.71
262.682	11.62
262.897	10.82
263.113	11.07
263.328	11.08
263.543	10.63
263.759	11.03
263.974	7.62
264.189	6.55
264.405	7.78
264.62	7.89
264.835	6.81
265.051	1.98
265.266	1.23
265.481	1.62
265.696	2.56
265.912	2.21
266.127	1.4
266.342	2.55
266.557	2.62
266.773	1.56
266.988	2.56
267.203	3.05
267.418	3.77
267.633	3.49
267.848	3.78
268.064	3.08
268.279	2.21
268.494	2.11
268.709	1.76
268.924	1.45
269.139	1.06
269.354	1.29
269.569	1.19
269.784	2.93
269.999	2.56
270.214	2.45
270.429	5.52
270.644	8.53
270.859	9.96
271.074	10.44
271.289	12.34
271.504	14.44
271.719	14.71
271.934	14.28
272.149	13.17
272.363	15.2
272.578	15.61
272.793	14.15
273.008	13.71
273.223	12.57
273.438	13.35
273.653	12.85
273.867	11.5
274.082	11.8
274.297	13.4
274.512	14.13
274.726	11.98
274.941	11.9
275.156	11.06
275.371	8.72
275.585	9.17
275.8	8.68
276.015	8.44
276.229	8.57
276.444	6.82
276.659	6.27
276.873	7.52
277.088	9.36
277.302	6.52
277.517	6.87
277.732	7.1
277.946	6.16
278.161	5.93
278.375	6.8
278.59	7.15
278.804	7.84
279.019	5.77
279.233	6.05
279.448	4.67
279.662	6.11
279.877	7.28
280.091	7.41
280.306	8.99
280.52	8.2
280.735	8.91
280.949	8.96
281.163	9.31
281.378	10.79
281.592	9.64
281.806	11.55
282.021	11.99
282.235	11.68
282.449	13.13
282.664	11.52
282.878	12.73
283.092	12.99
283.307	12.03
283.521	10.61
283.735	10.72
283.949	11.9
284.164	9.74
284.378	10.27
284.592	12.21
284.806	11.48
285.02	13.44
285.234	12.23
285.449	10.73
285.663	11.54
285.877	12.19
286.091	12.07
286.305	11.46
286.519	12.2
286.733	12.5
286.947	10.07
287.161	9.69
287.375	7.75
287.589	7.79
287.803	8.19
288.017	8.23
288.231	7.98
288.445	8.74
288.659	8.97
288.873	8.48
289.087	6.4
289.301	6.93
289.515	6.79
289.729	7.31
289.943	6.55
290.157	6.27
290.371	6.63
290.584	7.1
290.798	5.7
291.012	5.64
291.226	4.64
291.44	6.58
291.654	6.8
291.867	7.07
292.081	5.82
292.295	7.67
292.509	7.85
292.722	6.39
292.936	6.21
293.15	7.94
293.364	6.31
293.577	6.89
293.791	6.13
294.005	6.06
294.218	7.15
294.432	8.5
294.645	9.52
294.859	9.74
295.073	10.29
295.286	9.71
295.5	8.14
295.713	10
295.927	11.4
296.14	12.06
296.354	11.74
296.568	12.62
296.781	12.77
296.994	11.04
297.208	11.85
297.421	12.88
297.635	14.56
297.848	15.08
298.062	14.85
298.275	14.81
298.489	15.71
298.702	15.69
298.915	14.81
299.129	13.39
299.342	14.92
299.555	14.69
299.769	13.8
299.982	12.47
300.195	12.47
300.409	13.67
300.622	13.95
300.835	13.85
301.048	12.86
301.262	11.82
301.475	14.89
301.688	13.8
301.901	13.51
302.115	12.78
302.328	14.27
302.541	13.84
302.754	12.33
302.967	11.43
303.18	9.34
303.393	9.32
303.607	10.11
303.82	9.97
304.033	10.17
304.246	9.67
304.459	12.24
304.672	10.63
304.885	11.71
305.098	11.35
305.311	11.5
305.524	11.48
305.737	12.67
305.95	13.59
306.163	12.4
306.376	13.43
306.589	13.93
306.802	11.85
307.015	12.53
307.228	12.09
307.44	11.1
307.653	12.83
307.866	12.51
308.079	13.74
308.292	10.86
308.505	11.67
308.718	11.31
308.93	10.65
309.143	11.81
309.356	13.19
309.569	14.24
309.781	17.09
309.994	16.56
310.207	17.07
310.42	16.03
310.632	17.19
310.845	16.8
311.058	16.71
311.27	15.57
311.483	14.3
311.696	12.77
311.908	12.59
312.121	10.98
312.333	10.5
312.546	10.49
312.759	11.76
312.971	12.22
313.184	12.35
313.396	12.28
313.609	12.26
313.821	13.02
314.034	12.06
314.246	9.85
314.459	11.28
314.671	11.16
314.884	8.19
315.096	8.01
315.309	7.96
315.521	6.98
315.733	7.3
315.946	7.89
316.158	7.82
316.371	9.15
316.583	10.58
316.795	9.63
317.008	8.77
317.22	12.52
317.432	10.47
317.644	10.82
317.857	11.84
318.069	11.81
318.281	12.98
318.494	12.83
318.706	14.47
318.918	13.72
319.13	12.85
319.342	14.28
319.555	14.47
319.767	16
319.979	16.61
320.191	15.33
320.403	14.8
320.615	14.98
320.827	14.02
321.039	11.41
321.252	10.52
321.464	11.29
321.676	9.64
321.888	8.16
322.1	7.89
322.312	7.12
322.524	8.66
322.736	8.03
322.948	7.6
323.16	9.58
323.372	10.32
323.584	12.36
323.796	12.09
324.007	12.95
324.219	13.41
324.431	13.54
324.643	13.24
324.855	12.89
325.067	13.5
325.279	13.11
325.491	12.39
325.702	12.49
325.914	12.83
326.126	13.56
326.338	13.92
326.55	15.1
326.761	15.32
326.973	14.92
327.185	14.82
327.396	15.34
327.608	16.04
327.82	15.9
328.032	17.34
328.243	16.55
328.455	15.55
328.666	14.62
328.878	11.91
329.09	11.46
329.301	13.03
329.513	13.01
329.725	13.75
329.936	13.08
330.148	15.05
330.359	14.83
330.571	14.29
330.782	12.65
330.994	14.46
331.205	16.47
331.417	18.55
331.628	18.01
331.84	18.64
332.051	18.42
332.262	19.56
332.474	18.14
332.685	17.19
332.897	18.05
333.108	21.23
333.319	19.12
333.531	19.56
333.742	18.4
333.953	18.23
334.165	19.1
334.376	18.11
334.587	17.62
334.799	18.64
335.01	18.75
335.221	18.79
335.432	18.01
335.644	18.9
335.855	19.43
336.066	19.38
336.277	18.55
336.488	19.22
336.7	18.98
336.911	19.2
337.122	18.05
337.333	18.27
337.544	18
337.755	17.66
337.966	17.98
338.177	17.7
338.388	17.22
338.599	18.4
338.811	16.07
339.022	14.14
339.233	13.49
339.444	13
339.655	12.21
339.866	11.63
340.076	10.9
340.287	10.86
340.498	9.77
340.709	9.88
340.92	9.59
341.131	10.34
341.342	13.97
341.553	15.6
341.764	15.68
341.975	16
342.185	16.47
342.396	16.88
342.607	16.76
342.818	16.71
343.029	17.38
343.239	17.46
343.45	17.57
343.661	16.7
343.872	16.16
344.082	17.19
344.293	16.55
344.504	16.47
344.714	16.61
344.925	17.53
345.136	19.07
345.346	19.37
345.557	19.22
345.768	18.21
345.978	18.85
346.189	18.69
346.399	17.39
346.61	19.26
346.821	19.85
347.031	20.31
347.242	18.75
347.452	17.45
347.663	16.09
347.873	17.15
348.084	17.08
348.294	16.62
348.504	16.7
348.715	17.67
348.925	17.25
349.136	16.5
349.346	15.12
349.557	16.13
349.767	15.73
349.977	15.85
350.188	15.26
350.398	16.61
350.608	16.85
350.819	16.93
351.029	17.02
351.239	16.17
351.449	16.75
351.66	17.07
351.87	16.45
352.08	17.39
352.29	16.92
352.501	17.29
352.711	17.49
352.921	16.46
353.131	16.53
353.341	16.93
353.552	16.18
353.762	15.45
353.972	17.36
354.182	17.65
354.392	17.2
354.602	18.26
354.812	16.89
355.022	15.95
355.232	17.23
355.442	17.03
355.652	16.76
355.862	16.91
356.072	17.6
356.282	16.87
356.492	17.85
356.702	18.29
356.912	17.23
357.122	17.49
357.332	17.82
357.542	17.46
357.752	17.46
357.962	17.47
358.171	19.58
358.381	19.02
358.591	18.78
358.801	18.05
359.011	17.4
359.221	17.65
359.43	18.45
359.64	17.92
359.85	16.79
360.06	16.75
360.269	17.03
360.479	15.71
360.689	15.47
360.899	15.8
361.108	15.43
361.318	16.42
361.528	16.54
361.737	16.09
361.947	16.14
362.156	16.63
362.366	16.78
362.576	16.94
362.785	16.97
362.995	17.72
363.204	17.66
363.414	18.39
363.623	17.16
363.833	16.89
364.042	17.23
364.252	17.99
364.461	18.03
364.671	17.72
364.88	16.48
365.09	16.74
365.299	16.61
365.509	16.03
365.718	15.45
365.927	15.84
366.137	16.63
366.346	16.54
366.555	16.87
366.765	16.82
366.974	16.4
367.183	16.09
367.393	14.74
367.602	14.34
367.811	14.48
368.021	15.45
368.23	15.79
368.439	14.46
368.648	13.85
368.857	12.9
369.067	12.64
369.276	12.44
369.485	14.01
369.694	14.95
369.903	14.66
370.112	13.73
370.321	13.1
370.531	12.19
370.74	13.86
370.949	13.99
371.158	13.62
371.367	14.55
371.576	15.12
371.785	14.38
371.994	13.24
372.203	13.32
372.412	13.54
372.621	12.31
372.83	13.1
373.039	11.67
373.248	11.32
373.457	11.21
373.666	10.49
373.874	11
374.083	10.56
374.292	11.32
374.501	11.39
374.71	11.34
374.919	11.86
375.128	11.93
375.336	12.89
375.545	13
375.754	13.95
375.963	13.63
376.171	12.66
376.38	12.62
376.589	12.48
376.798	13.09
377.006	13.37
377.215	13.55
377.424	13.11
377.632	12.56
377.841	13.16
378.05	12.63
378.258	12.47
378.467	12.7
378.675	12.63
378.884	12.45
379.093	11.4
379.301	11.87
379.51	11.78
379.718	12.13
379.927	12.63
380.135	12.37
380.344	12.14
380.552	12.81
380.761	12.96
380.969	13.79
381.177	13.9
381.386	13.8
381.594	12.69
381.803	12.56
382.011	12.54
382.219	12.23
382.428	11.38
382.636	10.92
382.845	10.47
383.053	10.6
383.261	10.5
383.469	10.48
383.678	10.61
383.886	11.47
384.094	11.52
384.302	11.02
384.511	10.56
384.719	10.59
384.927	10.87
385.135	10.6
385.343	9.96
385.552	9.07
385.76	9.18
385.968	9.01
386.176	8.88
386.384	8.53
386.592	8.97
386.8	8.76
387.008	8.86
387.216	8.98
387.424	9.36
387.633	9.81
387.841	9.83
388.049	9.63
388.257	9.84
388.465	9.61
388.672	9.58
388.88	9.14
389.088	9.48
389.296	9.47
389.504	8.89
389.712	8.72
389.92	8.17
390.128	8.34
390.336	8.34
390.544	8.49
390.751	8.46
390.959	8.33
391.167	8.64
391.375	8.6
391.583	9.15
391.79	9.33
391.998	9.43
392.206	9.55
392.414	9.61
392.621	9.23
392.829	9.47
393.037	9.55
393.244	9.83
393.452	9.45
393.66	9.47
393.867	8.91
394.075	8.77
394.283	8.48
394.49	8.21
394.698	8.38
394.905	8.51
395.113	8.12
395.32	7.73
395.528	7.61
395.735	7.92
395.943	7.62
396.15	7.37
396.358	7.89
396.565	8
396.773	8.01
396.98	7.71
397.188	8.32
397.395	8.6
397.602	8.61
397.81	8.55
398.017	8.41
398.225	8.44
398.432	8.77
398.639	8.54
398.847	8.42
399.054	8.34
399.261	8.43
399.468	8.06
399.676	7.74
399.883	7.8
400.09	8.06
400.297	7.79
400.505	7.73
400.712	7.84
400.919	7.91
401.126	7.87
401.333	7.95
401.54	7.83
401.748	8.4
401.955	8.52
402.162	8.87
402.369	8.39
402.576	8.33
402.783	8.09
402.99	8.04
403.197	8.09
403.404	8.27
403.611	8.38
403.818	8.47
404.025	7.96
404.232	7.78
404.439	7.74
404.646	8.09
404.853	8.25
405.06	8.57
405.267	8.94
405.474	8.79
405.681	8.6
405.887	8.62
406.094	8.61
406.301	8.83
406.508	8.86
406.715	8.65
406.922	8.65
407.128	8.77
407.335	8.99
407.542	8.72
407.749	8.92
407.955	9.04
408.162	8.91
408.369	8.87
408.575	8.43
408.782	8.87
408.989	8.81
409.195	8.8
409.402	8.68
409.609	8.67
409.815	8.67
410.022	8.41
410.228	8.53
410.435	8.69
410.642	8.45
410.848	8.43
411.055	7.78
411.261	8.06
411.468	8.17
411.674	7.98
411.881	7.91
412.087	7.64
412.294	7.38
412.5	7.31
412.706	7.28
412.913	7.33
413.119	7.39
413.326	7.62
413.532	7.41
413.738	7.08
413.945	7.4
414.151	7.4
414.357	7.29
414.564	7.72
414.77	7.76
414.976	7.66
415.182	7.76
415.389	7.92
415.595	7.93
415.801	8.22
416.007	8.26
416.214	8.17
416.42	7.87
416.626	8.14
416.832	8.15
417.038	7.94
417.244	7.92
417.45	7.73
417.657	7.85
417.863	7.99
418.069	7.96
418.275	7.81
418.481	7.78
418.687	7.91
418.893	7.7
419.099	7.7
419.305	7.73
419.511	7.92
419.717	8.24
419.923	8.15
420.129	7.94
420.335	7.65
420.541	7.7
420.746	7.56
420.952	7.63
421.158	7.81
421.364	7.73
421.57	7.79
421.776	7.66
421.982	7.59
422.187	7.59
422.393	7.66
422.599	7.66
422.805	7.92
423.01	8.01
423.216	7.88
423.422	7.84
423.628	7.83
423.833	7.82
424.039	7.77
424.245	7.7
424.45	7.6
424.656	7.52
424.862	7.69
425.067	7.51
425.273	7.57
425.478	7.6
425.684	7.63
425.889	7.59
426.095	7.55
426.301	7.72
426.506	7.87
426.712	7.85
426.917	8.03
427.123	7.68
427.328	7.8
427.533	7.69
427.739	7.66
427.944	7.53
428.15	7.73
428.355	7.84
428.561	7.76
428.766	7.51
428.971	7.57
429.177	7.57
429.382	7.79
429.587	7.44
429.793	7.54
429.998	7.62
430.203	7.61
430.408	7.3
430.614	7.2
430.819	7.02
431.024	7
431.229	6.97
431.434	7.19
431.64	7.25
431.845	7.3
432.05	7.33
432.255	7.34
432.46	7.51
432.665	7.49
432.87	7.33
433.076	7.49
433.281	7.7
433.486	7.74
433.691	7.41
433.896	7.42
434.101	7.45
434.306	7.47
434.511	7.47
434.716	7.53
434.921	7.7
435.126	7.85
435.331	7.61
435.535	7.38
435.74	7.32
435.945	7.15
436.15	7.19
436.355	7.15
436.56	7.04
436.765	6.79
436.97	6.53
437.174	6.35
437.379	6.12
437.584	6.29
437.789	6.4
437.993	6.6
438.198	6.76
438.403	6.76
438.608	6.75
438.812	6.55
439.017	6.62
439.222	6.57
439.426	6.73
439.631	6.87
439.836	6.88
440.04	6.79
440.245	6.74
440.45	6.91
440.654	6.96
440.859	7.07
441.063	7.25
441.268	7.27
441.472	7.25
441.677	7.18
441.881	7.15
442.086	7.2
442.29	7.25
442.495	7.3
442.699	7.24
442.904	7.2
443.108	7.2
443.312	7.21
443.517	7.18
443.721	7.29
443.925	7.34
444.13	7.33
444.334	7.37
444.538	7.38
444.743	7.16
444.947	7.16
445.151	7.06
445.356	7.21
445.56	7.25
445.764	7.35
445.968	7.41
446.173	7.35
446.377	7.46
446.581	7.42
446.785	7.37
446.989	7.5
447.193	7.45
447.398	7.38
447.602	7.23
447.806	7.3
448.01	7.3
448.214	7.24
448.418	7.22
448.622	7.23
448.826	7.16
449.03	7.18
449.234	7.19
449.438	7.31
449.642	7.46
449.846	7.56
450.05	7.36
450.254	7.37
450.458	7.02
450.662	7.12
450.866	6.96
451.069	7
451.273	7.11
451.477	7.21
451.681	7.01
451.885	7.1
452.089	6.89
452.292	6.84
452.496	6.91
452.7	7.09
452.904	7.2
453.107	7.33
453.311	7.25
453.515	7.14
453.719	6.93
453.922	7.2
454.126	7.04
454.33	7.25
454.533	7.41
454.737	7.04
454.94	7.27
455.144	7
455.348	6.83
455.551	6.85
455.755	6.76
455.958	6.66
456.162	6.26
456.365	6.29
456.569	6.2
456.772	6.22
456.976	6.39
457.179	6.26
457.383	6.28
457.586	6.23
457.79	6.41
457.993	6.4
458.196	6.38
458.4	6.56
458.603	6.66
458.807	6.57
459.01	6.55
459.213	6.53
459.417	6.7
459.62	6.74
459.823	6.9
460.026	6.88
460.23	6.97
460.433	7.14
460.636	6.99
460.839	6.87
461.042	6.87
461.246	6.83
461.449	6.93
461.652	6.79
461.855	6.81
462.058	6.76
462.261	6.56
462.464	6.48
462.668	6.47
462.871	6.71
463.074	6.86
463.277	6.95
463.48	7.07
463.683	7.05
