Data from 2937860_Reflection_3.txt Node
Date: Wed Jul 15 15:27:54 EDT 2015
User: robert
Spectrometer: USB4E03001
Autoset integration time: false
Trigger mode: 4
Integration Time (sec): 1.000000E-1
Scans to average: 10
Electric dark correction enabled: true
Nonlinearity correction enabled: false
Boxcar width: 5
Stray light correction enabled: false
XAxis mode: Wavelengths
Stop averaging: false
Number of Pixels in Spectrum: 3648
>>>>>Begin Spectral Data<<<<<
177.566	112.07
177.785	78
178.005	92.16
178.225	86.12
178.445	-14.42
178.665	-36.31
178.885	1155.56
179.105	-168.83
179.324	-119.78
179.544	305.08
179.764	145.64
179.984	143.25
180.204	102.47
180.423	130.13
180.643	108.87
180.863	109.94
181.083	141.62
181.302	139.58
181.522	119.75
181.742	118.35
181.961	140.28
182.181	169.25
182.401	188.04
182.621	165.72
182.84	171.85
183.06	166.64
183.279	142.5
183.499	133.12
183.719	179.04
183.938	244.44
184.158	199.67
184.377	144.52
184.597	112.73
184.816	89.03
185.036	85.34
185.256	71.52
185.475	79.6
185.695	57
185.914	-10.86
186.134	53.83
186.353	63.99
186.572	65.39
186.792	105.43
187.011	104.96
187.231	109.27
187.45	108.4
187.67	82.81
187.889	68.27
188.108	88.63
188.328	95.07
188.547	41.5
188.766	49.61
188.986	44.55
189.205	47.26
189.424	14.03
189.644	-98.16
189.863	-266.47
190.082	-479.97
190.302	1293.95
190.521	-111.36
190.74	-132.54
190.959	-155.53
191.178	-141.79
191.398	-99.41
191.617	-78.28
191.836	-31.51
192.055	40.94
192.274	72.42
192.494	74.08
192.713	89.19
192.932	116.23
193.151	168.53
193.37	249.27
193.589	7126.36
193.808	1604.31
194.027	1334.82
194.246	386.54
194.465	209.68
194.685	175.68
194.904	99.55
195.123	67.73
195.342	57.73
195.561	49.61
195.78	22.74
195.999	10.43
196.218	-8.35
196.436	-5.79
196.655	1.45
196.874	-12.36
197.093	11.59
197.312	-6.5
197.531	-5.35
197.75	12.36
197.969	32.19
198.188	12.89
198.407	31.76
198.625	16.19
198.844	-47.17
199.063	-93.23
199.282	-82.4
199.501	-67.28
199.719	-88.03
199.938	-67.62
200.157	-25.79
200.376	4.7
200.594	19.13
200.813	-14.49
201.032	43.2
201.251	71.72
201.469	121.86
201.688	125.43
201.907	137.36
202.125	80.07
202.344	96.13
202.563	162.64
202.781	120.55
203	104.76
203.218	147.37
203.437	650
203.656	690.46
203.874	-432.68
204.093	-334.31
204.311	-45.67
204.53	-57.97
204.748	3.75
204.967	-24.2
205.185	19.61
205.404	20.27
205.622	35.25
205.841	18.59
206.059	20.39
206.278	59.58
206.496	61.29
206.715	64.3
206.933	60.8
207.151	71.63
207.37	71.89
207.588	69.97
207.806	72.31
208.025	66.47
208.243	46.28
208.461	67.59
208.68	68.64
208.898	77.48
209.116	82.08
209.335	88.98
209.553	94.89
209.771	107.71
209.989	117.19
210.208	133.47
210.426	137.53
210.644	177.08
210.862	149.83
211.081	199.06
211.299	138.97
211.517	93.15
211.735	79.64
211.953	64.81
212.171	60.26
212.39	55.15
212.608	39.54
212.826	46.66
213.044	47.84
213.262	16.57
213.48	-0.84
213.698	-9.67
213.916	-30.77
214.134	-2.09
214.352	15.82
214.57	49.61
214.788	55.72
215.006	67.94
215.224	57.86
215.442	69.28
215.66	97.63
215.878	92.49
216.096	93.52
216.314	109.74
216.532	58.62
216.75	48.13
216.968	21.43
217.185	27.09
217.403	15.24
217.621	18.72
217.839	-43.19
218.057	-14.77
218.275	10.43
218.492	13.93
218.71	-5.24
218.928	-26.47
219.146	22.94
219.363	17.57
219.581	15.28
219.799	2.57
220.017	12.42
220.234	24.81
220.452	11.14
220.67	7.43
220.887	5.94
221.105	17.45
221.323	20.46
221.54	25.06
221.758	12.03
221.976	-1.3
222.193	13.99
222.411	16.57
222.629	14.82
222.846	16.62
223.064	15.5
223.281	9.54
223.499	4.03
223.716	15.64
223.934	13.57
224.151	22.18
224.369	24.94
224.586	25.25
224.804	18.72
225.021	37.5
225.239	43.71
225.456	48.46
225.674	58.4
225.891	51.41
226.108	46.97
226.326	38.17
226.543	37.22
226.76	36.69
226.978	27.06
227.195	27.63
227.413	19.62
227.63	14.19
227.847	12.02
228.064	9.75
228.282	9.86
228.499	6.17
228.716	8.13
228.934	9.14
229.151	10.12
229.368	10.67
229.585	12.13
229.802	10.03
230.02	10.29
230.237	8.72
230.454	5.64
230.671	4.01
230.888	7.99
231.105	8.47
231.323	2.64
231.54	3.21
231.757	-0.36
231.974	-9.69
232.191	-7.77
232.408	-9.51
232.625	-6.13
232.842	-1.91
233.059	2.29
233.276	-2.11
233.493	-0.74
233.71	2.09
233.927	-4.32
234.144	-0.44
234.361	2.1
234.578	1.68
234.795	1.77
235.012	1.74
235.229	-1.63
235.446	-5.4
235.663	-1.19
235.879	0.68
236.096	2.04
236.313	4.06
236.53	4.58
236.747	4.4
236.964	4.91
237.181	7.2
237.397	7.61
237.614	14.78
237.831	15.7
238.048	14
238.264	12.64
238.481	11.65
238.698	20.5
238.915	19.8
239.131	21.89
239.348	21.04
239.565	21.54
239.781	22.84
239.998	19.64
240.215	17.35
240.431	17.1
240.648	14.18
240.865	17.14
241.081	11.76
241.298	13.22
241.514	13.29
241.731	13.89
241.947	11.64
242.164	9.91
242.38	7.41
242.597	8.55
242.814	7.44
243.03	7.84
243.246	6.75
243.463	8.73
243.679	7.42
243.896	7.67
244.112	7.02
244.329	8.85
244.545	9.86
244.762	12.27
244.978	10.12
245.194	10.34
245.411	11.69
245.627	9.41
245.843	8
246.06	7.79
246.276	7.27
246.492	7.74
246.709	6.6
246.925	6.59
247.141	6.3
247.357	6.68
247.574	7.13
247.79	6.1
248.006	6.97
248.222	6.28
248.439	5.64
248.655	6
248.871	5.37
249.087	5.17
249.303	4.93
249.519	5.24
249.736	5.17
249.952	4.31
250.168	5.46
250.384	4.52
250.6	4.57
250.816	6.33
251.032	7.43
251.248	7.51
251.464	7.67
251.68	4.97
251.896	3.4
252.112	3.63
252.328	4.93
252.544	5.08
252.76	6.99
252.976	6.87
253.192	5.12
253.408	3.39
253.624	2.18
253.84	3.59
254.056	5.15
254.272	5.83
254.487	6.1
254.703	3.22
254.919	0.6
255.135	0.45
255.351	-0.44
255.567	1.09
255.782	3.04
255.998	5.4
256.214	5.96
256.43	9.44
256.646	10.17
256.861	10.48
257.077	8.95
257.293	11.51
257.508	9.6
257.724	10.3
257.94	10.77
258.155	8.32
258.371	7.72
258.587	7.27
258.802	5.91
259.018	4.7
259.234	4.17
259.449	4.86
259.665	4.12
259.88	3.81
260.096	4.22
260.312	4.58
260.527	4.92
260.743	4.65
260.958	3.82
261.174	3.55
261.389	4.01
261.605	3.6
261.82	2.64
262.036	1.45
262.251	2.36
262.466	1.74
262.682	2.24
262.897	1.42
263.113	2.53
263.328	3.25
263.543	4.26
263.759	3.19
263.974	3.73
264.189	5.04
264.405	6.97
264.62	5.44
264.835	5.99
265.051	2.19
265.266	2.51
265.481	2.11
265.696	3.28
265.912	1.18
266.127	3.65
266.342	4.1
266.557	4.55
266.773	4.73
266.988	4.83
267.203	4.81
267.418	5.13
267.633	5.47
267.848	5.31
268.064	4.25
268.279	4.61
268.494	4.31
268.709	4.61
268.924	5.47
269.139	6.14
269.354	6.19
269.569	4.81
269.784	4.28
269.999	4.1
270.214	4.36
270.429	4.25
270.644	4.06
270.859	2.85
271.074	3.34
271.289	2.43
271.504	1.77
271.719	1.74
271.934	2.12
272.149	3.55
272.363	2.56
272.578	1.31
272.793	0.49
273.008	1.04
273.223	1.69
273.438	0.88
273.653	2.86
273.867	2.79
274.082	3.07
274.297	2.91
274.512	2.52
274.726	3.51
274.941	2.99
275.156	5.4
275.371	6.67
275.585	6.86
275.8	6.58
276.015	4.4
276.229	5.55
276.444	4.56
276.659	5.24
276.873	4.8
277.088	5.06
277.302	4.52
277.517	2.92
277.732	2.24
277.946	1.51
278.161	2.45
278.375	3.46
278.59	3.25
278.804	2.91
279.019	2.74
279.233	4.12
279.448	4.36
279.662	5.14
279.877	5.49
280.091	5.65
280.306	6.2
280.52	5.17
280.735	3.53
280.949	3.17
281.163	5.07
281.378	5.28
281.592	4.22
281.806	3.01
282.021	4.42
282.235	4.61
282.449	4.57
282.664	3.85
282.878	4.23
283.092	4.67
283.307	4.9
283.521	4.83
283.735	4.96
283.949	5.42
284.164	6.4
284.378	5.66
284.592	5.28
284.806	4.16
285.02	5.4
285.234	5.03
285.449	6.04
285.663	4.98
285.877	5.35
286.091	6.33
286.305	6.51
286.519	6.55
286.733	7.14
286.947	7.13
287.161	8.33
287.375	7.59
287.589	7.51
287.803	7.22
288.017	9.04
288.231	8.01
288.445	6.32
288.659	6.32
288.873	5.59
289.087	4.71
289.301	6.31
289.515	5.46
289.729	4.85
289.943	5.37
290.157	6.76
290.371	5.78
290.584	6.31
290.798	6.73
291.012	6.37
291.226	6.29
291.44	6.6
291.654	6.17
291.867	7.07
292.081	7.58
292.295	7.75
292.509	6.09
292.722	5.74
292.936	6
293.15	7.23
293.364	7.95
293.577	7.5
293.791	7.87
294.005	7.36
294.218	5.59
294.432	6.49
294.645	8.01
294.859	6.98
295.073	7
295.286	7.47
295.5	6.25
295.713	5.61
295.927	6.92
296.14	7.46
296.354	6.75
296.568	7.62
296.781	7.59
296.994	7.21
297.208	8.62
297.421	8.85
297.635	8.89
297.848	9.35
298.062	8.93
298.275	7.83
298.489	7.91
298.702	9.85
298.915	9.26
299.129	9.05
299.342	8.67
299.555	8.94
299.769	9.35
299.982	9.59
300.195	9.52
300.409	11.01
300.622	11.5
300.835	11.35
301.048	9.63
301.262	9.18
301.475	9.87
301.688	10.16
301.901	8.96
302.115	8.58
302.328	7.73
302.541	7.14
302.754	6.14
302.967	7.2
303.18	6.85
303.393	7.49
303.607	8.31
303.82	8.51
304.033	9.03
304.246	8.85
304.459	8.38
304.672	9.49
304.885	10.59
305.098	10.58
305.311	10.05
305.524	10.05
305.737	10.86
305.95	9.81
306.163	9.58
306.376	9.58
306.589	9.6
306.802	10.38
307.015	8.92
307.228	8.13
307.44	7.67
307.653	7.61
307.866	7.97
308.079	6.82
308.292	8.69
308.505	8.09
308.718	8.46
308.93	10.22
309.143	10.18
309.356	10.62
309.569	11.61
309.781	11.52
309.994	12.78
310.207	12.79
310.42	13.17
310.632	13.31
310.845	14.3
311.058	13.57
311.27	12.55
311.483	13.05
311.696	13.13
311.908	11.76
312.121	11.68
312.333	11.64
312.546	11.08
312.759	10.52
312.971	9.51
313.184	9.07
313.396	8.4
313.609	8.68
313.821	9.44
314.034	10.09
314.246	11.15
314.459	12.83
314.671	11.97
314.884	14.53
315.096	14.4
315.309	14.99
315.521	13.81
315.733	13.91
315.946	15.35
316.158	14.99
316.371	14.82
316.583	15.75
316.795	14.29
317.008	14.94
317.22	13.57
317.432	13.12
317.644	13.51
317.857	15.14
318.069	15.94
318.281	15.06
318.494	15.23
318.706	16.23
318.918	15.25
319.13	16.61
319.342	14.43
319.555	15.01
319.767	15.49
319.979	15.7
320.191	16.55
320.403	15.6
320.615	15.18
320.827	13.91
321.039	12.35
321.252	12.61
321.464	13.65
321.676	16.98
321.888	16.78
322.1	16.89
322.312	16.49
322.524	15.05
322.736	16.56
322.948	16.72
323.16	17.3
323.372	18.99
323.584	19.03
323.796	18.57
324.007	16.86
324.219	17.48
324.431	19.19
324.643	19.53
324.855	19.98
325.067	19.93
325.279	20.41
325.491	19.87
325.702	19.99
325.914	21.19
326.126	21.43
326.338	22.76
326.55	20.9
326.761	19.86
326.973	19.95
327.185	20.63
327.396	20.64
327.608	21.11
327.82	22.1
328.032	21.85
328.243	22.51
328.455	22.15
328.666	22.02
328.878	23.35
329.09	24.59
329.301	24.83
329.513	24.89
329.725	26.03
329.936	26.12
330.148	26.84
330.359	26.31
330.571	26.25
330.782	28.57
330.994	29.54
331.205	31.15
331.417	31.28
331.628	32.63
331.84	33.16
332.051	34.04
332.262	34.85
332.474	36.23
332.685	36.52
332.897	37.66
333.108	37.78
333.319	38.2
333.531	39.57
333.742	39.95
333.953	38.93
334.165	40.2
334.376	40.88
334.587	40.92
334.799	40.76
335.01	42.48
335.221	41.72
335.432	42.04
335.644	42.71
335.855	41.46
336.066	42.33
336.277	43.28
336.488	42.04
336.7	41.24
336.911	41.52
337.122	41.78
337.333	40.6
337.544	40.65
337.755	40.78
337.966	40.96
338.177	41.81
338.388	42.39
338.599	43.59
338.811	45.29
339.022	45.82
339.233	46.25
339.444	46.38
339.655	47.28
339.866	48.72
340.076	48.56
340.287	48.67
340.498	47.32
340.709	46.24
340.92	46.27
341.131	46.76
341.342	46.6
341.553	45.97
341.764	44.88
341.975	44.59
342.185	44.43
342.396	44.17
342.607	43.74
342.818	45.09
343.029	45.88
343.239	45.72
343.45	44.65
343.661	44.82
343.872	45.99
344.082	46.29
344.293	46.7
344.504	46.74
344.714	47.56
344.925	48.91
345.136	49.39
345.346	48.74
345.557	48.88
345.768	49.32
345.978	49.92
346.189	49.37
346.399	50.93
346.61	50.99
346.821	51.31
347.031	51.2
347.242	50.39
347.452	49.73
347.663	50.1
347.873	50.41
348.084	50.14
348.294	49.83
348.504	50.88
348.715	49.87
348.925	50.39
349.136	50.13
349.346	49.3
349.557	49.37
349.767	48.71
349.977	48.42
350.188	48.52
350.398	48.34
350.608	47.46
350.819	46.96
351.029	46.49
351.239	46.39
351.449	45.69
351.66	46.92
351.87	46.7
352.08	47.25
352.29	47.83
352.501	46.65
352.711	47.63
352.921	48.64
353.131	47.98
353.341	48.58
353.552	48.59
353.762	48.06
353.972	47.77
354.182	47.58
354.392	49.13
354.602	48.77
354.812	49.07
355.022	48.45
355.232	48.15
355.442	49.01
355.652	48.65
355.862	48.34
356.072	48.84
356.282	48.53
356.492	48.59
356.702	46.94
356.912	47.42
357.122	48.28
357.332	48.04
357.542	48.56
357.752	47.44
357.962	48.05
358.171	48.67
358.381	48.48
358.591	48.8
358.801	48.44
359.011	49.82
359.221	49.26
359.43	49.09
359.64	49.24
359.85	48.99
360.06	48.96
360.269	48.51
360.479	47.4
360.689	47.41
360.899	47.63
361.108	47.92
361.318	47.17
361.528	47.34
361.737	46.93
361.947	46.82
362.156	47.13
362.366	47.11
362.576	47.18
362.785	47.37
362.995	47.34
363.204	47.06
363.414	47.32
363.623	47.1
363.833	46.98
364.042	46.86
364.252	47
364.461	46.27
364.671	46.13
364.88	46.7
365.09	47.28
365.299	47.52
365.509	46.83
365.718	46.5
365.927	46.67
366.137	46.98
366.346	47.62
366.555	48.13
366.765	48.24
366.974	48.39
367.183	47.41
367.393	46.48
367.602	46.3
367.811	46.54
368.021	46.98
368.23	46.97
368.439	46.76
368.648	45.44
368.857	44.77
369.067	44.56
369.276	45.78
369.485	45.32
369.694	44.54
369.903	44.31
370.112	43.95
370.321	43.75
370.531	43.91
370.74	43.36
370.949	43.72
371.158	43.47
371.367	43.55
371.576	42.29
371.785	42.41
371.994	42.85
372.203	42.47
372.412	42.38
372.621	42.01
372.83	41.53
373.039	41.3
373.248	41.32
373.457	40.82
373.666	40.38
373.874	40.5
374.083	40.66
374.292	40.94
374.501	40.9
374.71	40.61
374.919	40.77
375.128	40.97
375.336	41.02
375.545	41.31
375.754	41.12
375.963	41.31
376.171	41.33
376.38	41.49
376.589	41.44
376.798	41.21
377.006	41.44
377.215	41
377.424	40.53
377.632	40.17
377.841	39.83
378.05	40.1
378.258	39.67
378.467	39.71
378.675	39.25
378.884	39.45
379.093	39.76
379.301	39.5
379.51	39.6
379.718	39.97
379.927	40.2
380.135	40.29
380.344	40
380.552	40.05
380.761	39.26
380.969	39.4
381.177	38.19
381.386	37.5
381.594	37
381.803	36.76
382.011	36.49
382.219	36.13
382.428	35.54
382.636	35.17
382.845	35.36
383.053	35.66
383.261	35.79
383.469	36.11
383.678	36.91
383.886	37.3
384.094	37.26
384.302	36.97
384.511	36.9
384.719	36.87
384.927	37.65
385.135	37.54
385.343	37.17
385.552	36.58
385.76	36.81
385.968	35.82
386.176	35.52
386.384	35.15
386.592	35.11
386.8	35.51
387.008	35.41
387.216	34.91
387.424	34.65
387.633	34.75
387.841	34.81
388.049	34.82
388.257	35.14
388.465	34.6
388.672	34.39
388.88	34.14
389.088	33.33
389.296	33.27
389.504	32.8
389.712	32.69
389.92	32.38
390.128	32.23
390.336	32.21
390.544	32.33
390.751	32.46
390.959	32.62
391.167	33.21
391.375	33.25
391.583	33.11
391.79	33.36
391.998	33.33
392.206	33.38
392.414	33.24
392.621	32.88
392.829	32.62
393.037	32.99
393.244	32.84
393.452	32.17
393.66	32.41
393.867	32.13
394.075	32.13
394.283	32.21
394.49	32.25
394.698	32.53
394.905	32.57
395.113	32.48
395.32	32.4
395.528	32.18
395.735	32.28
395.943	32.47
396.15	32.94
396.358	32.72
396.565	32.4
396.773	32.41
396.98	32.52
397.188	32.29
397.395	32.46
397.602	32.44
397.81	32.24
398.017	32.43
398.225	32
398.432	31.97
398.639	32.2
398.847	32.36
399.054	32.38
399.261	31.99
399.468	32.3
399.676	32.33
399.883	32.4
400.09	32.61
400.297	32.7
400.505	32.69
400.712	32.45
400.919	32.42
401.126	32.76
401.333	32.81
401.54	32.84
401.748	32.65
401.955	32.63
402.162	32.77
402.369	32.75
402.576	32.57
402.783	32.82
402.99	32.88
403.197	32.99
403.404	32.83
403.611	32.63
403.818	32.57
404.025	32.59
404.232	32.51
404.439	32.17
404.646	32.19
404.853	32.22
405.06	32.29
405.267	32.37
405.474	32.07
405.681	32.15
405.887	32.24
406.094	32.08
406.301	32.05
406.508	32.18
406.715	32.28
406.922	32.66
407.128	32.6
407.335	32.37
407.542	32.29
407.749	32.42
407.955	32.37
408.162	32.28
408.369	32.64
408.575	32.69
408.782	32.57
408.989	32.39
409.195	31.98
409.402	32.17
409.609	32.23
409.815	32.51
410.022	32.28
410.228	31.94
410.435	31.74
410.642	31.63
410.848	31.79
411.055	31.75
411.261	31.83
411.468	31.89
411.674	31.58
411.881	31.42
412.087	31.22
412.294	31.22
412.5	31.32
412.706	31.82
412.913	31.94
413.119	31.77
413.326	31.85
413.532	31.85
413.738	31.76
413.945	31.99
414.151	31.97
414.357	32.04
414.564	31.97
414.77	31.82
414.976	31.41
415.182	31.14
415.389	30.92
415.595	30.84
415.801	30.74
416.007	31.01
416.214	30.7
416.42	30.79
416.626	30.37
416.832	30.42
417.038	30.6
417.244	30.37
417.45	30.5
417.657	30.47
417.863	30.39
418.069	30.47
418.275	30.16
418.481	30.13
418.687	30.05
418.893	30.3
419.099	30.25
419.305	30.2
419.511	30.31
419.717	30.3
419.923	30.16
420.129	30.05
420.335	30.18
420.541	30.16
420.746	30.01
420.952	29.94
421.158	29.76
421.364	29.76
421.57	29.46
421.776	29.51
421.982	29.3
422.187	29.36
422.393	29.32
422.599	29.07
422.805	29.07
423.01	29.17
423.216	29.3
423.422	29.23
423.628	29.24
423.833	29.29
424.039	29.2
424.245	29.21
424.45	29.23
424.656	29.28
424.862	29.32
425.067	29.59
425.273	29.58
425.478	29.62
425.684	29.76
425.889	29.83
426.095	29.87
426.301	29.85
426.506	29.89
426.712	29.96
426.917	30.06
427.123	29.89
427.328	29.65
427.533	29.78
427.739	29.51
427.944	29.38
428.15	29.3
428.355	29.47
428.561	29.46
428.766	29.43
428.971	29.44
429.177	29.37
429.382	29.35
429.587	29
429.793	28.75
429.998	28.55
430.203	28.55
430.408	28.43
430.614	28.3
430.819	28.45
431.024	28.33
431.229	28.15
431.434	28.26
431.64	28.4
431.845	28.51
432.05	28.5
432.255	28.69
432.46	28.83
432.665	28.67
432.87	28.55
433.076	28.36
433.281	28.45
433.486	28.54
433.691	28.55
433.896	28.68
434.101	28.8
434.306	28.86
434.511	28.8
434.716	28.71
434.921	28.89
435.126	28.95
435.331	28.94
435.535	28.91
435.74	28.96
435.945	28.83
436.15	28.77
436.355	28.62
436.56	28.63
436.765	28.68
436.97	28.61
437.174	28.66
437.379	28.78
437.584	28.89
437.789	28.99
437.993	28.92
438.198	28.73
438.403	28.36
438.608	28.43
438.812	28.31
439.017	28.21
439.222	28.3
439.426	28.2
439.631	28.15
439.836	28.28
440.04	28.3
440.245	28.35
440.45	28.38
440.654	28.62
440.859	28.7
441.063	28.74
441.268	28.95
441.472	28.97
441.677	29.05
441.881	29.02
442.086	28.86
442.29	28.95
442.495	28.89
442.699	28.99
442.904	28.88
443.108	28.75
443.312	28.99
443.517	28.93
443.721	28.94
443.925	28.91
444.13	28.84
444.334	28.95
444.538	28.77
444.743	28.87
444.947	28.71
445.151	28.66
445.356	28.53
445.56	28.28
445.764	28.22
445.968	28.15
446.173	28.11
446.377	28.15
446.581	28.1
446.785	28.17
446.989	28.12
447.193	28.31
447.398	28.54
447.602	28.74
447.806	28.71
448.01	28.68
448.214	28.77
448.418	28.69
448.622	28.65
448.826	28.66
449.03	28.49
449.234	28.54
449.438	28.43
449.642	28.14
449.846	28.14
450.05	28.24
450.254	28.22
450.458	28.08
450.662	28.1
450.866	28.16
451.069	28.16
451.273	28.12
451.477	28.15
451.681	28.09
451.885	28.03
452.089	27.64
452.292	27.54
452.496	27.62
452.7	27.54
452.904	27.55
453.107	27.68
453.311	27.5
453.515	27.68
453.719	27.56
453.922	27.73
454.126	27.94
454.33	28.08
454.533	28.17
454.737	28.06
454.94	28.2
455.144	28.35
455.348	28.25
455.551	28.32
455.755	28.1
455.958	27.88
456.162	27.64
456.365	27.63
456.569	27.76
456.772	27.75
456.976	27.8
457.179	27.72
457.383	27.73
457.586	27.75
457.79	27.85
457.993	28.11
458.196	28.24
458.4	28.35
458.603	28.24
458.807	28.17
459.01	28.12
459.213	28.13
459.417	28.1
459.62	28.19
459.823	28.16
460.026	28.11
460.23	28.1
460.433	28.22
460.636	28.31
