Data from 2937859_Reflection_3.txt Node
Date: Wed Jul 15 15:30:30 EDT 2015
User: robert
Spectrometer: USB4E03001
Autoset integration time: false
Trigger mode: 4
Integration Time (sec): 1.000000E-1
Scans to average: 10
Electric dark correction enabled: true
Nonlinearity correction enabled: false
Boxcar width: 5
Stray light correction enabled: false
XAxis mode: Wavelengths
Stop averaging: false
Number of Pixels in Spectrum: 3648
>>>>>Begin Spectral Data<<<<<
177.566	1.72
177.785	-37.68
178.005	-114.93
178.225	-41.56
178.445	-179.03
178.665	-327.09
178.885	-1066.67
179.105	340.26
179.324	156.71
179.544	133.15
179.764	83.64
179.984	73.32
180.204	36.27
180.423	18
180.643	41.83
180.863	25.6
181.083	30.48
181.302	80.69
181.522	65.29
181.742	59.19
181.961	12.51
182.181	-15.69
182.401	-48.41
182.621	-10.08
182.84	42.6
183.06	34.75
183.279	93.48
183.499	97.49
183.719	73.8
183.938	156.88
184.158	154.42
184.377	134.36
184.597	145.59
184.816	105.46
185.036	129.21
185.256	75.9
185.475	132.37
185.695	-24.24
185.914	-125.54
186.134	8.9
186.353	-23.02
186.572	-33.87
186.792	3.24
187.011	-18.8
187.231	7.84
187.45	43.9
187.67	56.05
187.889	35.9
188.108	81.54
188.328	86.57
188.547	72.92
188.766	67.79
188.986	64.05
189.205	52.06
189.424	88.11
189.644	103.51
189.863	-65.49
190.082	-320.53
190.302	960.93
190.521	-180.35
190.74	-146.08
190.959	-256.25
191.178	-196.74
191.398	-219.72
191.617	-218.93
191.836	-214.32
192.055	-139.56
192.274	-19.25
192.494	10.34
192.713	8.57
192.932	61.24
193.151	68.35
193.37	163.14
193.589	2801.82
193.808	710.27
194.027	838.84
194.246	314.34
194.465	137.16
194.685	132.08
194.904	105.14
195.123	95.53
195.342	118.81
195.561	132.74
195.78	89.94
195.999	71.61
196.218	81.48
196.436	74.44
196.655	79.02
196.874	93.77
197.093	86.94
197.312	79.69
197.531	77.79
197.75	54.34
197.969	73.96
198.188	57.62
198.407	72.78
198.625	37.13
198.844	-37.03
199.063	-141.09
199.282	-176.67
199.501	-105.95
199.719	-352.05
199.938	-99.51
200.157	-36.66
200.376	-28.2
200.594	-45.37
200.813	-67.02
201.032	-12.93
201.251	-13.07
201.469	-34.8
201.688	-19.18
201.907	-40.68
202.125	-32.73
202.344	-38.6
202.563	-71.01
202.781	-446.08
203	-151.26
203.218	-158.03
203.437	13060
203.656	1709.54
203.874	-176.35
204.093	-95.2
204.311	38.45
204.53	133.66
204.748	77.43
204.967	68.83
205.185	92.16
205.404	124.57
205.622	83.12
205.841	109.52
206.059	146.58
206.278	118.85
206.496	125.14
206.715	100.1
206.933	97.78
207.151	129.44
207.37	105.27
207.588	87.33
207.806	82.83
208.025	78.83
208.243	46
208.461	45.23
208.68	56.31
208.898	53.14
209.116	55.94
209.335	65.6
209.553	55.91
209.771	69.99
209.989	69.97
210.208	66.19
210.426	49.73
210.644	110.52
210.862	94.49
211.081	128.13
211.299	111.65
211.517	75.77
211.735	57.4
211.953	46.68
212.171	44.16
212.39	51.55
212.608	37.83
212.826	49.37
213.044	39.01
213.262	38.41
213.48	36.46
213.698	36.14
213.916	45.45
214.134	66.22
214.352	51.17
214.57	77.38
214.788	69.71
215.006	71.77
215.224	74.12
215.442	52.31
215.66	42.93
215.878	30.07
216.096	22.31
216.314	38.8
216.532	29.1
216.75	50.79
216.968	28.54
217.185	13.86
217.403	-1.89
217.621	-5.03
217.839	6.5
218.057	31.34
218.275	62.09
218.492	39.98
218.71	10.21
218.928	-46.28
219.146	-51.89
219.363	-37.89
219.581	14.89
219.799	31.03
220.017	24.96
220.234	24.57
220.452	13.01
220.67	-9.53
220.887	-10.79
221.105	-5.28
221.323	-4.94
221.54	6.77
221.758	3.73
221.976	-8.69
222.193	14
222.411	11.49
222.629	17.47
222.846	27.35
223.064	30.04
223.281	37.06
223.499	28.05
223.716	34.48
223.934	35.55
224.151	48.24
224.369	53.64
224.586	40.53
224.804	53.82
225.021	64.4
225.239	51.92
225.456	61.62
225.674	61.49
225.891	69.3
226.108	67.53
226.326	64.45
226.543	60.3
226.76	56.92
226.978	50.13
227.195	46.52
227.413	35.78
227.63	35.08
227.847	33.18
228.064	31.29
228.282	25.64
228.499	20.24
228.716	17.01
228.934	13.09
229.151	12.15
229.368	12.82
229.585	10.92
229.802	12.25
230.02	10.78
230.237	7.07
230.454	2.82
230.671	0.2
230.888	1.89
231.105	4.69
231.323	0.72
231.54	-0.97
231.757	-6.18
231.974	-11.04
232.191	-16.62
232.408	-17.85
232.625	-14.48
232.842	-11.24
233.059	-0.23
233.276	-1.04
233.493	-2.44
233.71	1.4
233.927	1.99
234.144	5.79
234.361	9.49
234.578	11.12
234.795	10.24
235.012	14.63
235.229	11.59
235.446	5.03
235.663	6.46
235.879	10.01
236.096	14.36
236.313	14.12
236.53	13.61
236.747	14.7
236.964	13.88
237.181	16.03
237.397	14.38
237.614	22.29
237.831	26.67
238.048	25.84
238.264	20.81
238.481	16.7
238.698	20.63
238.915	21.49
239.131	18.6
239.348	19.01
239.565	15.09
239.781	13.73
239.998	7.3
240.215	3.81
240.431	4.88
240.648	5.21
240.865	6.41
241.081	4.59
241.298	4.47
241.514	5.09
241.731	6.48
241.947	8.29
242.164	7.55
242.38	6.91
242.597	7.24
242.814	7.66
243.03	7.63
243.246	8.88
243.463	8.8
243.679	9.07
243.896	9.52
244.112	8.03
244.329	8.08
244.545	9.26
244.762	11.8
244.978	11.19
245.194	10.03
245.411	11.83
245.627	7.45
245.843	7.97
246.06	8.95
246.276	9.2
246.492	10.76
246.709	9.71
246.925	9.14
247.141	9.11
247.357	8.96
247.574	9.45
247.79	9.51
248.006	11
248.222	10.47
248.439	9.42
248.655	9.48
248.871	9.05
249.087	9.47
249.303	9.04
249.519	8.69
249.736	9.48
249.952	10.17
250.168	10.28
250.384	10.21
250.6	10.43
250.816	11
251.032	11.07
251.248	9.68
251.464	8.94
251.68	9.48
251.896	8.44
252.112	7.39
252.328	7.14
252.544	8.14
252.76	7.72
252.976	7.78
253.192	9.48
253.408	9.1
253.624	7.37
253.84	7.4
254.056	8.05
254.272	8.07
254.487	8.52
254.703	4.84
254.919	0.28
255.135	1.7
255.351	1.95
255.567	0.33
255.782	0.62
255.998	3.98
256.214	6.73
256.43	9.54
256.646	10.86
256.861	11.03
257.077	11.43
257.293	13.02
257.508	10.35
257.724	10.33
257.94	9.43
258.155	8.13
258.371	8.47
258.587	7.64
258.802	6.15
259.018	4.92
259.234	4.5
259.449	5.86
259.665	6.73
259.88	6.91
260.096	7.46
260.312	8.32
260.527	8.17
260.743	7.83
260.958	7.34
261.174	7.69
261.389	8.16
261.605	8.74
261.82	7.56
262.036	6.66
262.251	6.15
262.466	5.74
262.682	4.32
262.897	4.96
263.113	6.26
263.328	7.7
263.543	7.87
263.759	8.39
263.974	8.01
264.189	7.39
264.405	7.63
264.62	9.9
264.835	9.42
265.051	8.68
265.266	8.95
265.481	7.85
265.696	8.01
265.912	5.82
266.127	6.69
266.342	7.45
266.557	8.39
266.773	9.74
266.988	8.67
267.203	8.69
267.418	9.45
267.633	8.24
267.848	7.33
268.064	6.03
268.279	6.09
268.494	5.89
268.709	6.34
268.924	7.37
269.139	6.92
269.354	6.66
269.569	5.72
269.784	4.62
269.999	5.68
270.214	6.56
270.429	5.45
270.644	6.79
270.859	5.91
271.074	5.71
271.289	5.11
271.504	4.47
271.719	4.52
271.934	5.52
272.149	6.8
272.363	6.33
272.578	5.81
272.793	6.03
273.008	6.16
273.223	6.08
273.438	5.54
273.653	5.78
273.867	6.04
274.082	5.75
274.297	4.9
274.512	4.64
274.726	4.31
274.941	4.62
275.156	7.35
275.371	5.89
275.585	6.22
275.8	5.5
276.015	5.18
276.229	4.52
276.444	5.02
276.659	5.75
276.873	5.45
277.088	5.07
277.302	4.02
277.517	1.36
277.732	2.43
277.946	2.05
278.161	3.64
278.375	4.41
278.59	5.8
278.804	4.91
279.019	5.43
279.233	6.29
279.448	5.88
279.662	7.75
279.877	8.21
280.091	8.49
280.306	8.81
280.52	7.68
280.735	7.53
280.949	6.5
281.163	7.84
281.378	7.84
281.592	6.53
281.806	7.28
282.021	6.59
282.235	6.94
282.449	7.75
282.664	7.67
282.878	8.84
283.092	8.82
283.307	8.14
283.521	7.9
283.735	7.05
283.949	7.88
284.164	7.54
284.378	7.6
284.592	6.73
284.806	5.46
285.02	6.43
285.234	5.75
285.449	6.63
285.663	7.08
285.877	7.46
286.091	7.67
286.305	7.33
286.519	7.85
286.733	8.73
286.947	9.93
287.161	10.03
287.375	9.49
287.589	8.97
287.803	8.23
288.017	9.15
288.231	9.72
288.445	10.25
288.659	10.79
288.873	11.67
289.087	10.32
289.301	10.57
289.515	10.71
289.729	10.85
289.943	10.38
290.157	11.06
290.371	10.69
290.584	9.21
290.798	8.98
291.012	8.98
291.226	8.95
291.44	8.8
291.654	8.5
291.867	8.77
292.081	8.83
292.295	9.31
292.509	8.92
292.722	8.55
292.936	10.87
293.15	11
293.364	10.67
293.577	10.21
293.791	11.35
294.005	10.5
294.218	10.3
294.432	10.45
294.645	11.45
294.859	11.1
295.073	12.53
295.286	11.2
295.5	12.25
295.713	12.86
295.927	13.23
296.14	12.63
296.354	12.91
296.568	13.36
296.781	14.12
296.994	13.32
297.208	13.74
297.421	12.9
297.635	12.92
297.848	12.67
298.062	12.49
298.275	11.77
298.489	12.52
298.702	13.65
298.915	13.65
299.129	13.1
299.342	14.49
299.555	14.51
299.769	15.2
299.982	16.23
300.195	15.91
300.409	15.52
300.622	16.25
300.835	15.85
301.048	16.02
301.262	15.95
301.475	17.09
301.688	16.54
301.901	16.61
302.115	16.13
302.328	14.93
302.541	15
302.754	15.71
302.967	15.79
303.18	16.12
303.393	15.54
303.607	15.07
303.82	13.52
304.033	13.8
304.246	12.64
304.459	12.13
304.672	13
304.885	12.95
305.098	12.96
305.311	13.18
305.524	13.77
305.737	13.67
305.95	14.54
306.163	14.84
306.376	17.01
306.589	17.16
306.802	18.32
307.015	19.2
307.228	18.64
307.44	18.46
307.653	18.11
307.866	18.18
308.079	17.81
308.292	17.95
308.505	19.05
308.718	18.14
308.93	20.27
309.143	19.9
309.356	19.25
309.569	19.71
309.781	19.17
309.994	20.96
310.207	21.09
310.42	21.9
310.632	22.63
310.845	22.54
311.058	22.49
311.27	21.97
311.483	22.86
311.696	22.72
311.908	21.97
312.121	22.15
312.333	21.14
312.546	19.73
312.759	18.6
312.971	16.43
313.184	15.58
313.396	14.34
313.609	14.25
313.821	13.48
314.034	13.78
314.246	15.43
314.459	15.34
314.671	14.52
314.884	16.25
315.096	16.15
315.309	17.44
315.521	17.98
315.733	18.32
315.946	18.38
316.158	20.31
316.371	21.02
316.583	21.08
316.795	20.76
317.008	22.14
317.22	22.77
317.432	23.36
317.644	24.34
317.857	24.68
318.069	25.5
318.281	25.74
318.494	23.65
318.706	24.33
318.918	23.34
319.13	24.29
319.342	22.8
319.555	22.56
319.767	21.43
319.979	21.63
320.191	20.55
320.403	18.8
320.615	18.49
320.827	17.93
321.039	16.41
321.252	17.39
321.464	18.17
321.676	21.08
321.888	20.65
322.1	21.86
322.312	20.94
322.524	21.22
322.736	21.94
322.948	21.64
323.16	21.3
323.372	21.4
323.584	21.98
323.796	20.34
324.007	18.21
324.219	18.16
324.431	19.43
324.643	19.79
324.855	20.96
325.067	20.59
325.279	22.17
325.491	23
325.702	23.6
325.914	23.89
326.126	26.53
326.338	28.98
326.55	28.88
326.761	27.55
326.973	28.25
327.185	28.71
327.396	29.87
327.608	29.82
327.82	31.67
328.032	32.09
328.243	33.1
328.455	31.78
328.666	30.83
328.878	30.35
329.09	32.13
329.301	31.66
329.513	31.72
329.725	33.02
329.936	34.26
330.148	34.37
330.359	34.85
330.571	35.26
330.782	37.24
330.994	38.78
331.205	41.42
331.417	41.55
331.628	42.58
331.84	43.39
332.051	42.92
332.262	42.93
332.474	42.54
332.685	43.26
332.897	43.42
333.108	44.85
333.319	44.75
333.531	45.88
333.742	47.3
333.953	47.27
334.165	48.07
334.376	50.34
334.587	51.54
334.799	52.18
335.01	53.38
335.221	53.95
335.432	54.07
335.644	54.27
335.855	54.09
336.066	54.55
336.277	55.68
336.488	55.91
336.7	54.39
336.911	53.09
337.122	54.98
337.333	54.81
337.544	54.88
337.755	54.69
337.966	54.77
338.177	54.67
338.388	54.48
338.599	55.55
338.811	55.45
339.022	57.46
339.233	59.52
339.444	59.42
339.655	60.06
339.866	60.71
340.076	60.14
340.287	60.87
340.498	61.21
340.709	61.99
340.92	60.79
341.131	61.58
341.342	61.83
341.553	59.35
341.764	59.37
341.975	58.19
342.185	58.47
342.396	58.97
342.607	59.04
342.818	60.15
343.029	60.83
343.239	61.3
343.45	62.14
343.661	61.42
343.872	63.51
344.082	62.72
344.293	62.96
344.504	63.47
344.714	63.28
344.925	63.66
345.136	63.31
345.346	62.93
345.557	62.91
345.768	61.98
345.978	62.67
346.189	63.21
346.399	63.42
346.61	64.45
346.821	64.66
347.031	64.94
347.242	65.94
347.452	65.27
347.663	65.39
347.873	65.89
348.084	66.28
348.294	65.69
348.504	64.55
348.715	64.92
348.925	65.08
349.136	63.56
349.346	63.74
349.557	62.51
349.767	61.68
349.977	62.24
350.188	61.69
350.398	60.74
350.608	60.44
350.819	61.74
351.029	61.32
351.239	61.07
351.449	61.59
351.66	62.1
351.87	62.17
352.08	63.4
352.29	63.14
352.501	63.33
352.711	64.12
352.921	64.36
353.131	63.65
353.341	63.07
353.552	63.31
353.762	62.86
353.972	62.37
354.182	62.65
354.392	63.61
354.602	62.38
354.812	61.87
355.022	62.2
355.232	62.45
355.442	61.99
355.652	63.39
355.862	63.36
356.072	62.81
356.282	62.89
356.492	62.47
356.702	61.64
356.912	62.56
357.122	63.02
357.332	62.42
357.542	62.8
357.752	62.77
357.962	61.69
358.171	62
358.381	62.1
358.591	62.29
358.801	62.49
359.011	63.16
359.221	62.75
359.43	63.14
359.64	63.29
359.85	62.31
360.06	62.17
360.269	62.31
360.479	62.31
360.689	63.58
360.899	63.29
361.108	62.83
361.318	62.04
361.528	61.84
361.737	61.76
361.947	62.17
362.156	63.08
362.366	62.44
362.576	62.24
362.785	61.4
362.995	61.19
363.204	61.27
363.414	62.12
363.623	62.27
363.833	62.48
364.042	62.17
364.252	61.53
364.461	60.25
364.671	60.08
364.88	60.12
365.09	60.5
365.299	60
365.509	59.13
365.718	58.78
365.927	57.95
366.137	57.6
366.346	57.65
366.555	57.89
366.765	57.71
366.974	57.79
367.183	58.12
367.393	57.7
367.602	57.62
367.811	57.42
368.021	56.23
368.23	55.82
368.439	55.66
368.648	54.93
368.857	54.3
369.067	54.12
369.276	54.4
369.485	52.93
369.694	52.26
369.903	51.14
370.112	51.28
370.321	51.17
370.531	51.5
370.74	50.89
370.949	51.13
371.158	51.1
371.367	51.42
371.576	51.33
371.785	51.84
371.994	52.06
372.203	51.99
372.412	52.02
372.621	51.86
372.83	51.96
373.039	52.26
373.248	51.88
373.457	51.43
373.666	50.99
373.874	50.13
374.083	50.29
374.292	50.12
374.501	50.33
374.71	49.79
374.919	49.33
375.128	49.04
375.336	49.34
375.545	48.95
375.754	48.25
375.963	48.04
376.171	48.3
376.38	47.85
376.589	47.47
376.798	47.34
377.006	47.28
377.215	47.31
377.424	47.79
377.632	46.81
377.841	46.44
378.05	46.28
378.258	45.94
378.467	45.78
378.675	45.13
378.884	45.31
379.093	45.01
379.301	44.87
379.51	44.81
379.718	44.3
379.927	44.11
380.135	44.54
380.344	44.58
380.552	44.55
380.761	44.48
380.969	44.62
381.177	43.91
381.386	43.85
381.594	43.24
381.803	43.06
382.011	42.77
382.219	42.7
382.428	42.13
382.636	41.67
382.845	41.3
383.053	40.79
383.261	40.74
383.469	40.56
383.678	40.21
383.886	40.24
384.094	39.88
384.302	39.13
384.511	39.07
384.719	38.8
384.927	38.86
385.135	39.01
385.343	39.08
385.552	38.91
385.76	38.66
385.968	38.29
386.176	37.67
386.384	37.3
386.592	37.34
386.8	37.27
387.008	37.34
387.216	37.21
387.424	37.06
387.633	36.57
387.841	36.16
388.049	36.24
388.257	35.76
388.465	35.53
388.672	35.89
388.88	35.73
389.088	35.08
389.296	34.76
389.504	34.11
389.712	33.8
389.92	33.75
390.128	33.56
390.336	33.26
390.544	33.62
390.751	33.57
390.959	32.79
391.167	32.92
391.375	33.02
391.583	32.67
391.79	32.97
391.998	32.79
392.206	32.68
392.414	32.77
392.621	32.45
392.829	32.22
393.037	32.21
393.244	32.48
393.452	31.94
393.66	32.11
393.867	31.88
394.075	32.03
394.283	31.87
394.49	31.73
394.698	31.51
394.905	31.43
395.113	31.51
395.32	31.53
395.528	31.29
395.735	31.38
395.943	31.26
396.15	31.54
396.358	31.14
396.565	31.02
396.773	31.16
396.98	31.26
397.188	31.26
397.395	30.88
397.602	30.65
397.81	30.7
398.017	30.86
398.225	30.55
398.432	30.33
398.639	30.43
398.847	30.29
399.054	30.23
399.261	30.01
399.468	29.73
399.676	29.81
399.883	29.99
400.09	29.72
400.297	29.55
400.505	29.3
400.712	29.21
400.919	29.13
401.126	29.38
401.333	29.2
401.54	29.12
401.748	29.34
401.955	28.93
402.162	29.06
402.369	28.9
402.576	28.79
402.783	29.11
402.99	29.21
403.197	28.97
403.404	28.58
403.611	28.38
403.818	28.17
404.025	27.83
404.232	28.11
404.439	27.64
404.646	27.65
404.853	27.61
405.06	27.37
405.267	27.42
405.474	27.59
405.681	27.92
405.887	28.3
406.094	28.45
406.301	28.58
406.508	28.46
406.715	28.7
406.922	29.23
407.128	29.08
407.335	29.11
407.542	28.81
407.749	28.81
407.955	28.42
408.162	28.28
408.369	28.3
408.575	28.35
408.782	28.3
408.989	28.02
409.195	27.38
409.402	27.42
409.609	27.52
409.815	27.82
410.022	27.6
410.228	27.86
410.435	27.73
410.642	27.79
410.848	27.83
411.055	27.86
411.261	28.14
411.468	28.29
411.674	28.28
411.881	27.98
412.087	27.76
412.294	27.51
412.5	27.3
412.706	26.93
412.913	26.94
413.119	27
413.326	27.19
413.532	27.22
413.738	27.1
413.945	27.08
414.151	27.26
414.357	27
414.564	27.05
414.77	27.08
414.976	27.14
415.182	26.67
415.389	26.62
415.595	26.4
415.801	26.13
416.007	26.2
416.214	26.02
416.42	25.84
416.626	25.58
416.832	25.47
417.038	25.24
417.244	25.07
417.45	25.26
417.657	25.16
417.863	24.92
418.069	24.92
418.275	24.85
418.481	24.86
418.687	25
418.893	25.33
419.099	25.31
419.305	25.3
419.511	25.4
419.717	25.32
419.923	25.14
420.129	25.23
420.335	25.15
420.541	25.19
420.746	25.11
420.952	24.84
421.158	24.75
421.364	24.73
421.57	24.86
421.776	24.9
421.982	24.79
422.187	24.72
422.393	24.63
422.599	24.66
422.805	24.52
423.01	24.53
423.216	24.6
423.422	24.6
423.628	24.55
423.833	24.3
424.039	24.13
424.245	24.2
424.45	24.29
424.656	24.31
424.862	24.26
425.067	24.39
425.273	24.41
425.478	24.51
425.684	24.56
425.889	24.72
426.095	24.78
426.301	24.84
426.506	24.81
426.712	24.97
426.917	24.95
427.123	24.81
427.328	24.72
427.533	24.57
427.739	24.29
427.944	24.18
428.15	24.09
428.355	24.22
428.561	24.13
428.766	23.88
428.971	23.84
429.177	23.81
429.382	23.95
429.587	23.73
429.793	23.91
429.998	24.04
430.203	23.91
430.408	23.96
430.614	23.83
430.819	23.88
431.024	23.87
431.229	23.57
431.434	23.73
431.64	23.82
431.845	24.15
432.05	24.06
432.255	24.12
432.46	24.15
432.665	23.72
432.87	23.64
433.076	23.77
433.281	23.92
433.486	23.97
433.691	24.02
433.896	23.96
434.101	23.89
434.306	23.95
434.511	23.89
434.716	23.94
434.921	24.22
435.126	24.13
435.331	23.87
435.535	23.78
435.74	23.84
435.945	23.74
436.15	23.65
436.355	23.37
436.56	23.24
436.765	23.3
436.97	23.1
437.174	23.15
437.379	23.39
437.584	23.54
437.789	23.68
437.993	23.73
438.198	23.59
438.403	23.64
438.608	23.7
438.812	23.66
439.017	23.45
439.222	23.47
439.426	23.38
439.631	23.29
439.836	23.32
440.04	23.35
440.245	23.22
440.45	23.31
440.654	23.3
440.859	23.26
441.063	23.31
441.268	23.51
441.472	23.66
441.677	23.68
441.881	23.73
442.086	23.65
442.29	23.58
442.495	23.64
442.699	23.55
442.904	23.51
443.108	23.68
443.312	23.76
443.517	23.72
443.721	23.63
443.925	23.57
444.13	23.52
444.334	23.63
444.538	23.65
444.743	23.59
444.947	23.58
445.151	23.46
445.356	23.27
445.56	23.14
445.764	23.05
445.968	22.92
446.173	22.92
446.377	22.89
446.581	22.88
446.785	22.82
446.989	22.88
447.193	22.88
447.398	22.9
447.602	23.01
447.806	22.98
448.01	22.99
448.214	23.21
448.418	23.13
448.622	23.1
448.826	22.94
449.03	22.87
449.234	22.8
449.438	22.81
449.642	22.8
449.846	22.79
450.05	23.05
450.254	22.85
450.458	22.66
450.662	22.68
450.866	22.68
451.069	22.75
451.273	22.71
451.477	22.66
451.681	22.37
451.885	22.56
452.089	22.35
452.292	22.09
452.496	22.39
452.7	22.36
452.904	22.34
453.107	22.56
453.311	22.58
453.515	22.6
453.719	22.71
453.922	22.96
454.126	22.88
454.33	22.98
454.533	23.18
454.737	22.9
454.94	22.83
455.144	22.9
455.348	22.48
455.551	22.41
455.755	22.37
455.958	22.27
456.162	22.07
456.365	21.98
456.569	22.05
456.772	21.82
456.976	22
457.179	21.97
457.383	21.95
457.586	22.02
457.79	22.16
457.993	22.19
458.196	22.31
458.4	22.49
458.603	22.47
458.807	22.46
459.01	22.38
459.213	22.33
