Data from 2937887_Reflection_3.txt Node
Date: Wed Jul 15 14:27:58 EDT 2015
User: robert
Spectrometer: USB4E03001
Autoset integration time: false
Trigger mode: 4
Integration Time (sec): 1.000000E-1
Scans to average: 10
Electric dark correction enabled: true
Nonlinearity correction enabled: false
Boxcar width: 5
Stray light correction enabled: false
XAxis mode: Wavelengths
Stop averaging: false
Number of Pixels in Spectrum: 3648
>>>>>Begin Spectral Data<<<<<
177.566	-1000
177.785	326.53
178.005	101.95
178.225	82.2
178.445	210.89
178.665	143.96
178.885	671.43
179.105	217.61
179.324	265.72
179.544	1711.72
179.764	-100.59
179.984	85.87
180.204	130.43
180.423	88.21
180.643	75.58
180.863	90.98
181.083	96.79
181.302	118.63
181.522	82.42
181.742	69.83
181.961	58.22
182.181	70.53
182.401	89.12
182.621	82.1
182.84	84.44
183.06	94.57
183.279	95.87
183.499	79.41
183.719	83.67
183.938	88.86
184.158	76.54
184.377	82.93
184.597	86.07
184.816	74.66
185.036	75.73
185.256	68.68
185.475	67.83
185.695	50.71
185.914	60.35
186.134	47.92
186.353	33.37
186.572	23.83
186.792	10.54
187.011	-26.27
187.231	-13.72
187.45	2.42
187.67	12.57
187.889	51.65
188.108	64.49
188.328	29.88
188.547	38.13
188.766	56.22
188.986	86.75
189.205	122.12
189.424	111.33
189.644	85.84
189.863	69.06
190.082	64.6
190.302	49.12
190.521	62.49
190.74	71.46
190.959	49.48
191.178	35.66
191.398	17.9
191.617	-28.41
191.836	-97.39
192.055	-116.96
192.274	-59.69
192.494	-29.59
192.713	-33.81
192.932	-33.51
193.151	-30.92
193.37	33.31
193.589	80.66
193.808	101.71
194.027	127.08
194.246	92.63
194.465	117.96
194.685	205.02
194.904	275.34
195.123	262.17
195.342	140.25
195.561	96.92
195.78	72.39
195.999	62.08
196.218	55.01
196.436	57.28
196.655	53.43
196.874	31.97
197.093	27.87
197.312	23.95
197.531	49.86
197.75	40.16
197.969	36.79
198.188	59.54
198.407	79.84
198.625	106.58
198.844	123.66
199.063	118.51
199.282	110.53
199.501	140.39
199.719	135.84
199.938	174.36
200.157	316.42
200.376	294.95
200.594	415.98
200.813	259.6
201.032	332.72
201.251	203.48
201.469	837.41
201.688	5112.77
201.907	-1080.36
202.125	-1625.24
202.344	-345.89
202.563	-228.61
202.781	-192.54
203	-254.69
203.218	-165.96
203.437	192.98
203.656	-134900
203.874	153.85
204.093	63.05
204.311	185.91
204.53	206.51
204.748	91.11
204.967	88.18
205.185	119.31
205.404	97.48
205.622	86.88
205.841	55.28
206.059	49.35
206.278	82.07
206.496	104.39
206.715	117.52
206.933	126.92
207.151	156.6
207.37	210.69
207.588	203.4
207.806	224.36
208.025	120.56
208.243	162.22
208.461	209.44
208.68	189.76
208.898	137.36
209.116	113.93
209.335	102.76
209.553	115.22
209.771	89.66
209.989	80.15
210.208	88.23
210.426	301.73
210.644	92.52
210.862	-55.79
211.081	-203.86
211.299	118.05
211.517	83.69
211.735	120.39
211.953	128.34
212.171	224.83
212.39	188.08
212.608	65.57
212.826	84.93
213.044	66.19
213.262	68.49
213.48	206.93
213.698	473.21
213.916	274.95
214.134	109.64
214.352	94.86
214.57	108.3
214.788	114.22
215.006	240.36
215.224	247.59
215.442	444.3
215.66	227.48
215.878	197.34
216.096	147.03
216.314	1827.61
216.532	-751.73
216.75	-305.02
216.968	-986.41
217.185	-398.84
217.403	-406.14
217.621	-534.64
217.839	-357.84
218.057	-188.9
218.275	535.18
218.492	686.83
218.71	293.24
218.928	298.54
219.146	292.37
219.363	889.41
219.581	367.36
219.799	358.41
220.017	404.08
220.234	321.48
220.452	449.51
220.67	-23.33
220.887	-329.62
221.105	188.34
221.323	123.9
221.54	72.69
221.758	83
221.976	123.65
222.193	156.45
222.411	155.35
222.629	178.61
222.846	206.45
223.064	384
223.281	455.06
223.499	-808.86
223.716	-572.98
223.934	-189.66
224.151	-56.08
224.369	-56.39
224.586	-34.11
224.804	-10.28
225.021	-8.79
225.239	-0.16
225.456	-12.06
225.674	-12.58
225.891	-14.88
226.108	-6.22
226.326	-22.63
226.543	-41.07
226.76	-27.61
226.978	-32.32
227.195	-38.15
227.413	-26.31
227.63	-23.63
227.847	-25.51
228.064	-23.99
228.282	-18.23
228.499	-13.61
228.716	-8.18
228.934	-5.29
229.151	-7.79
229.368	-3.76
229.585	-1.45
229.802	-2.66
230.02	-6.59
230.237	-2.05
230.454	-0.87
230.671	-0.29
230.888	-0.97
231.105	-2.29
231.323	-5.31
231.54	-9.19
231.757	-19.98
231.974	-24.59
232.191	-32.36
232.408	-29.04
232.625	-36.55
232.842	-31.44
233.059	-36.76
233.276	-35.22
233.493	-39.59
233.71	-35.6
233.927	-30.05
234.144	-29.37
234.361	-21.3
234.578	-19.19
234.795	-15.94
235.012	-14.73
235.229	-19.07
235.446	-10.18
235.663	-12.7
235.879	-17.21
236.096	-24.09
236.313	-14.88
236.53	-13.03
236.747	-20.93
236.964	-20.31
237.181	-21.16
237.397	-25.82
237.614	-29.73
237.831	-33.31
238.048	-43.6
238.264	-34.35
238.481	-30.34
238.698	-31.71
238.915	-25.77
239.131	-17.04
239.348	-13.89
239.565	-17.28
239.781	-11.39
239.998	-6.73
240.215	-9.32
240.431	-4.17
240.648	-9.1
240.865	-2.53
241.081	-2.55
241.298	-4.32
241.514	-3.4
241.731	-1.33
241.947	1.8
242.164	2.11
242.38	3.45
242.597	4.09
242.814	6.05
243.03	5.06
243.246	5.03
243.463	3
243.679	5.91
243.896	4.18
244.112	2.83
244.329	0.76
244.545	-1.23
244.762	-4.83
244.978	-5.75
245.194	-6.94
245.411	-3.05
245.627	-7.37
245.843	-5.04
246.06	-3.93
246.276	-2.15
246.492	-1.38
246.709	-0.22
246.925	0.09
247.141	1.64
247.357	2.24
247.574	2.78
247.79	1.88
248.006	3.02
248.222	2.76
248.439	0.56
248.655	0.6
248.871	0.75
249.087	0.57
249.303	1.53
249.519	0.15
249.736	1.07
249.952	-1.22
250.168	-0.56
250.384	-1.41
250.6	-0.93
250.816	1.58
251.032	-2.34
251.248	-0.57
251.464	0.08
251.68	0.2
251.896	-1.09
252.112	-2.96
252.328	-2.6
252.544	-2.99
252.76	-4.04
252.976	-4.56
253.192	-5.97
253.408	-3
253.624	-4.51
253.84	-1.85
254.056	-2.92
254.272	-2.09
254.487	-5.19
254.703	-4.37
254.919	-3.31
255.135	-5.7
255.351	-7.62
255.567	-3.85
255.782	-7.42
255.998	-10.31
256.214	-15.86
256.43	-15.62
256.646	-11.46
256.861	-6.51
257.077	-5.24
257.293	-4.45
257.508	0.23
257.724	0.12
257.94	0.15
258.155	1.3
258.371	2.38
258.587	2.57
258.802	2.73
259.018	1.76
259.234	2.82
259.449	1.91
259.665	1.55
259.88	1.63
260.096	2.3
260.312	1.91
260.527	2.24
260.743	2.38
260.958	2.19
261.174	3.1
261.389	3.23
261.605	1.59
261.82	1.41
262.036	1.16
262.251	-0.27
262.466	-0.15
262.682	-0.71
262.897	-1.2
263.113	-2.42
263.328	-3.21
263.543	-7.25
263.759	-7.38
263.974	-5.48
264.189	-6.25
264.405	-6.24
264.62	-5.09
264.835	-7.93
265.051	-10.91
265.266	-8.59
265.481	-7.74
265.696	-6.25
265.912	-4.07
266.127	-3.67
266.342	-5.83
266.557	-3.72
266.773	-4.1
266.988	-5.13
267.203	-3.79
267.418	-1.08
267.633	-4.05
267.848	-2.99
268.064	-2.7
268.279	-1.89
268.494	-3.4
268.709	-2.37
268.924	-3.69
269.139	-3.09
269.354	-0.65
269.569	-2.24
269.784	-2.54
269.999	-1.13
270.214	-2.23
270.429	-0.94
270.644	-2.69
270.859	-1.72
271.074	-2.79
271.289	-1.07
271.504	-0.12
271.719	-1.03
271.934	0.31
272.149	-0.21
272.363	-0.84
272.578	-1.43
272.793	-2.12
273.008	-0.86
273.223	-0.75
273.438	0.77
273.653	0.13
273.867	-0.86
274.082	-0.88
274.297	-1.15
274.512	-0.29
274.726	-1.02
274.941	-0.33
275.156	-0.99
275.371	-1.07
275.585	-0.42
275.8	-0.38
276.015	0.18
276.229	1.05
276.444	0.09
276.659	0.46
276.873	-1.25
277.088	-0.9
277.302	0.8
277.517	0.61
277.732	-0.38
277.946	-2.23
278.161	-2.17
278.375	-3.34
278.59	-3.7
278.804	-4.47
279.019	-5.25
279.233	-3.29
279.448	-2.13
279.662	-3.17
279.877	-2.91
280.091	-2.39
280.306	-2
280.52	-3.35
280.735	-1.74
280.949	-2.18
281.163	-1.47
281.378	-1.01
281.592	-1.74
281.806	-2.27
282.021	-3.5
282.235	-3.34
282.449	-2.34
282.664	-1.01
282.878	-1.15
283.092	-1.56
283.307	-0.84
283.521	-1.28
283.735	0.29
283.949	0.73
284.164	1.39
284.378	2.56
284.592	2.11
284.806	-0
285.02	-1.37
285.234	-0.08
285.449	-1.42
285.663	-1.95
285.877	-1.26
286.091	-2.15
286.305	-1.18
286.519	-1.22
286.733	-2.35
286.947	-2.5
287.161	-1.38
287.375	-1.07
287.589	-1.91
287.803	-1.71
288.017	-0.69
288.231	-1.71
288.445	-1.32
288.659	-1.34
288.873	-1.39
289.087	-1.5
289.301	-1.09
289.515	-1.13
289.729	-0.27
289.943	0.2
290.157	1.04
290.371	-0.73
290.584	1.28
290.798	1.79
291.012	0.54
291.226	1.24
291.44	2.32
291.654	3.42
291.867	4.18
292.081	3.48
292.295	3.65
292.509	3.59
292.722	3.65
292.936	3.25
293.15	2.68
293.364	3.13
293.577	1.59
293.791	2.78
294.005	1.43
294.218	-0.32
294.432	-1.14
294.645	-1.68
294.859	-1.82
295.073	0.11
295.286	0.11
295.5	-0.13
295.713	-0.51
295.927	0.61
296.14	-0.17
296.354	0.08
296.568	1.26
296.781	1.81
296.994	1.84
297.208	2.23
297.421	2.02
297.635	1.77
297.848	1.47
298.062	2.23
298.275	1.62
298.489	0.86
298.702	2.23
298.915	1
299.129	1.31
299.342	1.49
299.555	1.56
299.769	0.14
299.982	0.94
300.195	1.1
300.409	-0.05
300.622	0.1
300.835	0.94
301.048	-1.22
301.262	0.63
301.475	2.18
301.688	2.82
301.901	3.61
302.115	4.33
302.328	5.1
302.541	3.9
302.754	4.73
302.967	4.3
303.18	5.44
303.393	5.31
303.607	4.48
303.82	3.41
304.033	3.3
304.246	2.02
304.459	2.87
304.672	2.19
304.885	5.29
305.098	4.82
305.311	6.37
305.524	4.19
305.737	4.6
305.95	4.87
306.163	4.18
306.376	4.08
306.589	4.31
306.802	4.6
307.015	2.29
307.228	0.15
307.44	0.48
307.653	0.45
307.866	0.24
308.079	1.97
308.292	3.39
308.505	5.43
308.718	5.7
308.93	6.76
309.143	5.86
309.356	9.17
309.569	10.35
309.781	11.21
309.994	11.71
310.207	13.07
310.42	12.67
310.632	11.58
310.845	11.23
311.058	10.65
311.27	10.53
311.483	10.62
311.696	9.36
311.908	9.05
312.121	7.15
312.333	6.53
312.546	6.92
312.759	6.95
312.971	7.55
313.184	8
313.396	8.48
313.609	7.91
313.821	8.93
314.034	8.68
314.246	8.95
314.459	9.43
314.671	9.67
314.884	7.51
315.096	6.88
315.309	6.29
315.521	5.6
315.733	5.06
315.946	5.96
316.158	4.67
316.371	4.75
316.583	2.56
316.795	4.51
317.008	4.16
317.22	5.37
317.432	6.51
317.644	7.39
317.857	7.66
318.069	9.53
318.281	8.01
318.494	9.74
318.706	9.21
318.918	11.34
319.13	11.25
319.342	11.28
319.555	12.61
319.767	11.1
319.979	10.79
320.191	11.73
320.403	10.72
320.615	12.01
320.827	10.2
321.039	11.91
321.252	10.51
321.464	10
321.676	9.33
321.888	9.11
322.1	10.73
322.312	10.64
322.524	10.03
322.736	10.25
322.948	9.19
323.16	10.62
323.372	9.76
323.584	10.61
323.796	12.81
324.007	12.92
324.219	13.11
324.431	11.85
324.643	12.12
324.855	11.6
325.067	12
325.279	12.88
325.491	13.36
325.702	12.98
325.914	13.26
326.126	11.2
326.338	11.26
326.55	11.68
326.761	13.01
326.973	13.49
327.185	13.39
327.396	13.14
327.608	13.43
327.82	13.86
328.032	15.37
328.243	15.91
328.455	17.89
328.666	19.06
328.878	19.97
329.09	19.46
329.301	19.4
329.513	21.3
329.725	22.23
329.936	22.99
330.148	23.94
330.359	24.8
330.571	24.94
330.782	25.73
330.994	26.11
331.205	25.97
331.417	26.28
331.628	27.15
331.84	27.23
332.051	28.28
332.262	29.83
332.474	29.35
332.685	28.36
332.897	28.27
333.108	27.1
333.319	27.8
333.531	27.71
333.742	28.96
333.953	29.18
334.165	28.58
334.376	28.56
334.587	27.62
334.799	27.62
335.01	27.47
335.221	27.1
335.432	26.97
335.644	27.12
335.855	27.12
336.066	26.05
336.277	26.15
336.488	27.12
336.7	26.6
336.911	27.01
337.122	26.89
337.333	26.97
337.544	28.15
337.755	29.47
337.966	28.81
338.177	28.91
338.388	29.72
338.599	30.9
338.811	29.93
339.022	31.1
339.233	31.65
339.444	32.24
339.655	32.94
339.866	32.53
340.076	32.04
340.287	33.02
340.498	33.69
340.709	32.46
340.92	30.28
341.131	31.81
341.342	30.55
341.553	30.51
341.764	30.38
341.975	31.35
342.185	31.47
342.396	31.58
342.607	32.07
342.818	31.04
343.029	32.61
343.239	33.83
343.45	33.25
343.661	34.09
343.872	33.34
344.082	33.86
344.293	33.25
344.504	33.5
344.714	33.16
344.925	32.61
345.136	31.97
345.346	31.91
345.557	32.46
345.768	31.87
345.978	30.69
346.189	30.77
346.399	30.33
346.61	30.27
346.821	30.65
347.031	31.5
347.242	31.33
347.452	33.12
347.663	33.54
347.873	32.47
348.084	32.65
348.294	33.33
348.504	33.16
348.715	33.5
348.925	33.66
349.136	32.97
349.346	32.32
349.557	32.21
349.767	31.35
349.977	31.07
350.188	31.43
350.398	32.07
350.608	31.79
350.819	32.52
351.029	31.7
351.239	31.8
351.449	32.39
351.66	32.36
351.87	32.9
352.08	33.14
352.29	33.41
352.501	33.66
352.711	32.86
352.921	32.37
353.131	32.01
353.341	32.96
353.552	32.75
353.762	31.74
353.972	32.31
354.182	32.51
354.392	33.13
354.602	33.13
354.812	32.71
355.022	33.37
355.232	33.74
355.442	34.49
355.652	34.42
355.862	35.16
356.072	36.04
356.282	34.65
356.492	33.89
356.702	33.02
356.912	32.91
357.122	34.25
357.332	34.63
357.542	34.52
357.752	34.18
357.962	34.46
358.171	34.11
358.381	34.3
358.591	35.29
358.801	35.13
359.011	35.34
359.221	35.01
359.43	34.3
359.64	34.18
359.85	35.11
360.06	34.92
360.269	33.97
360.479	33.35
360.689	32.8
360.899	32.93
361.108	33.11
361.318	33.52
361.528	33.21
361.737	33.32
361.947	32.26
362.156	31.69
362.366	31.93
362.576	32.02
362.785	32.43
362.995	32.82
363.204	32.86
363.414	32.74
363.623	32.94
363.833	33.1
364.042	32.99
364.252	34.22
364.461	34.69
364.671	33.81
364.88	33.76
365.09	33.74
365.299	33.3
365.509	32.77
365.718	33.52
365.927	32.9
366.137	33.32
366.346	33.23
366.555	32.49
366.765	31.82
366.974	31.56
367.183	31.84
367.393	31.45
367.602	31.9
367.811	32.17
368.021	32.03
368.23	31.85
368.439	31.79
368.648	31.38
368.857	31.26
369.067	32.31
369.276	33.85
369.485	33.78
369.694	33.97
369.903	33.29
370.112	33.21
370.321	32.99
370.531	33.37
370.74	32.64
370.949	32.72
371.158	33.43
371.367	32.81
371.576	31.66
371.785	31.56
371.994	31.22
372.203	31.62
372.412	31.38
372.621	31.4
372.83	30.77
373.039	31.22
373.248	30.88
373.457	29.99
373.666	29.9
373.874	30.3
374.083	30.29
374.292	30.63
374.501	30.18
374.71	29.66
374.919	29.67
375.128	29.52
375.336	28.63
375.545	29.05
375.754	29.08
375.963	28.73
376.171	28.86
376.38	28.67
376.589	28.92
376.798	28.35
377.006	29.08
377.215	29.17
377.424	29.65
377.632	30.33
377.841	29.66
378.05	30.26
378.258	30.2
378.467	29.59
378.675	29.39
378.884	28.69
379.093	29.01
379.301	28.46
379.51	28.17
379.718	28.11
379.927	27.52
380.135	27.55
380.344	27.31
380.552	27.2
380.761	27.13
380.969	27.31
381.177	26.99
381.386	27.41
381.594	27.29
381.803	26.74
382.011	26.85
382.219	26.75
382.428	26.63
382.636	26.69
382.845	26.27
383.053	26.5
383.261	26.09
383.469	26.46
383.678	26.18
383.886	26.44
384.094	26.81
384.302	26.42
384.511	26.5
384.719	26.8
384.927	26.64
385.135	27.59
385.343	27.78
385.552	28.29
385.76	28.04
385.968	27.95
386.176	27.69
386.384	27.59
386.592	27.5
386.8	27.8
387.008	27.86
387.216	27.67
387.424	27.49
387.633	26.86
387.841	26.93
388.049	27.01
388.257	27.11
388.465	27.42
388.672	27.42
388.88	27.76
389.088	27.71
389.296	27.46
389.504	26.94
389.712	26.97
389.92	27.39
390.128	27.3
390.336	27.54
390.544	27.99
390.751	28.07
390.959	27.96
391.167	27.6
391.375	27.56
391.583	27.7
391.79	28.24
391.998	27.95
392.206	28.21
392.414	28.04
392.621	28.15
392.829	27.83
393.037	27.48
393.244	28.06
393.452	28.44
393.66	28.64
393.867	28.8
394.075	28.86
394.283	29.16
394.49	28.82
394.698	28.98
394.905	28.81
395.113	28.98
395.32	29.37
395.528	28.67
395.735	28.25
395.943	27.93
396.15	27.77
396.358	27.57
396.565	27.37
396.773	27.89
396.98	28.14
397.188	28.23
397.395	28
397.602	28.1
397.81	28.2
398.017	28.83
398.225	29.08
398.432	29.12
398.639	29.5
398.847	29.34
399.054	29.27
399.261	28.84
399.468	28.72
399.676	29.13
399.883	29.05
400.09	29.3
400.297	29.17
400.505	29.55
400.712	29.64
400.919	29.76
401.126	29.94
401.333	29.85
401.54	30.23
401.748	30.48
401.955	30.33
402.162	30.37
402.369	30.41
402.576	30.46
402.783	30.4
402.99	30.55
403.197	30.43
403.404	30.62
403.611	30.58
403.818	30.73
404.025	30.6
404.232	30.71
404.439	31.12
404.646	31.18
404.853	31.32
405.06	31.44
405.267	31.46
405.474	31.36
405.681	31.27
405.887	31.38
406.094	31.34
406.301	31.52
406.508	31.4
406.715	31.04
406.922	31.04
407.128	30.63
407.335	30.28
407.542	29.89
407.749	29.8
407.955	29.87
408.162	29.92
408.369	29.7
408.575	29.6
408.782	29.61
408.989	29.5
409.195	29.15
409.402	29.57
409.609	29.81
409.815	29.86
410.022	30.02
410.228	30.17
410.435	30.32
410.642	30.53
410.848	30.63
411.055	30.75
411.261	30.74
411.468	30.91
411.674	30.65
411.881	30.38
412.087	30.78
412.294	30.54
412.5	30.3
412.706	30.07
412.913	29.78
413.119	29.45
413.326	28.99
413.532	28.83
413.738	28.93
413.945	28.7
414.151	28.74
414.357	28.51
414.564	28.78
414.77	28.86
414.976	28.6
415.182	28.65
415.389	28.94
415.595	29.09
415.801	29.2
416.007	29.31
416.214	29.36
416.42	29.19
416.626	29.09
416.832	29.04
417.038	29.3
417.244	29.37
417.45	29.35
417.657	29.17
417.863	29.17
418.069	29.06
418.275	29.09
418.481	29.15
418.687	29.2
418.893	29.22
419.099	29.15
419.305	28.9
419.511	29.06
419.717	29.15
419.923	29.19
420.129	29.2
420.335	29.29
420.541	29.24
420.746	29.14
420.952	29.29
421.158	29.25
421.364	29.13
421.57	29.23
421.776	29.14
421.982	29.07
422.187	29.08
422.393	29.05
422.599	29.18
422.805	29.16
423.01	29.37
423.216	29.27
423.422	29.38
423.628	29.53
423.833	29.39
424.039	29.34
424.245	29.42
424.45	29.48
424.656	29.56
424.862	29.33
425.067	29.32
425.273	29.37
425.478	29.32
425.684	29.34
425.889	29.29
426.095	29.46
426.301	29.36
426.506	29.28
426.712	28.98
426.917	28.9
427.123	29.04
427.328	28.95
427.533	28.52
427.739	28.35
427.944	28.22
428.15	28.19
428.355	27.88
428.561	27.88
428.766	27.74
428.971	28
429.177	27.76
429.382	27.65
429.587	27.63
429.793	27.78
429.998	28.05
430.203	28.14
430.408	28.17
430.614	28.21
430.819	28.47
431.024	28.34
431.229	28.29
431.434	28.46
431.64	28.67
431.845	28.75
432.05	28.95
432.255	28.73
432.46	28.77
432.665	28.91
432.87	28.92
433.076	28.9
433.281	29.11
433.486	29.24
433.691	29.22
433.896	29.1
434.101	29.01
434.306	28.74
434.511	28.96
434.716	29.12
434.921	29.14
435.126	29.18
435.331	29.04
435.535	28.87
435.74	28.87
435.945	29.03
436.15	29.23
436.355	29.41
436.56	29.45
436.765	29.29
436.97	29.11
437.174	28.8
437.379	28.8
437.584	29
437.789	28.99
437.993	28.85
438.198	28.85
438.403	28.61
438.608	28.49
438.812	28.62
439.017	28.79
439.222	28.72
439.426	28.9
439.631	29.02
439.836	29.07
440.04	29.19
440.245	29.16
440.45	29.14
440.654	29.29
440.859	29.5
441.063	29.49
441.268	29.46
441.472	29.36
441.677	29.28
441.881	29.23
442.086	29.09
442.29	29.12
442.495	29.16
442.699	29.19
442.904	29.13
443.108	28.99
443.312	29.12
443.517	29.19
443.721	29.21
443.925	29.36
444.13	29.45
444.334	29.38
444.538	29.16
444.743	29.36
444.947	29.32
445.151	29.12
445.356	29.09
445.56	29.13
445.764	28.94
445.968	28.93
446.173	28.8
446.377	28.7
446.581	28.77
446.785	28.95
446.989	28.84
447.193	28.89
447.398	29
447.602	28.95
447.806	28.83
448.01	28.99
448.214	29.11
448.418	29.06
448.622	28.85
448.826	28.75
449.03	28.78
449.234	28.88
449.438	28.77
449.642	28.61
449.846	28.65
450.05	28.54
450.254	28.22
450.458	28.11
450.662	28.1
450.866	28.27
451.069	28.36
451.273	28.05
451.477	27.7
451.681	27.64
451.885	27.65
452.089	27.53
452.292	27.65
452.496	27.77
452.7	27.92
452.904	28.15
453.107	28.09
453.311	27.98
453.515	27.98
453.719	28.21
453.922	28.05
454.126	28.25
454.33	28.32
454.533	28.19
454.737	28.25
454.94	28.39
455.144	28.36
455.348	28.65
455.551	28.73
455.755	28.96
455.958	28.77
456.162	29.04
456.365	29.09
456.569	29.17
456.772	29.3
456.976	29.39
457.179	29.09
