Data from 2937831_Reflection_3.txt Node
Date: Wed Jul 15 16:45:44 EDT 2015
User: robert
Spectrometer: USB4E03001
Autoset integration time: false
Trigger mode: 4
Integration Time (sec): 1.000000E-1
Scans to average: 10
Electric dark correction enabled: true
Nonlinearity correction enabled: false
Boxcar width: 5
Stray light correction enabled: false
XAxis mode: Wavelengths
Stop averaging: false
Number of Pixels in Spectrum: 3648
>>>>>Begin Spectral Data<<<<<
177.566	2055.36
177.785	6178.95
178.005	-22.46
178.225	-132.05
178.445	-511.79
178.665	-50.07
178.885	-157.71
179.105	63.7
179.324	-243.47
179.544	-102.87
179.764	24.09
179.984	29.5
180.204	39.81
180.423	-201.58
180.643	-235.68
180.863	-178.24
181.083	-351.39
181.302	2074.05
181.522	-2029.31
181.742	374.32
181.961	397.85
182.181	491.58
182.401	462.46
182.621	224.08
182.84	237.89
183.06	389.05
183.279	776.38
183.499	1089.55
183.719	-259.33
183.938	-245.33
184.158	-106.86
184.377	-78.53
184.597	-82.04
184.816	-62.17
185.036	-52.41
185.256	-65.84
185.475	-27.57
185.695	-46.97
185.914	-19.3
186.134	-34.42
186.353	-12.54
186.572	-9.16
186.792	-32.34
187.011	-114.48
187.231	-99.53
187.45	-5.46
187.67	-42.47
187.889	-52.07
188.108	-70.9
188.328	-31.26
188.547	-38.44
188.766	-53.41
188.986	-126.85
189.205	-122.95
189.424	-121.85
189.644	-135.87
189.863	-317.39
190.082	-191.63
190.302	-204.84
190.521	-97.72
190.74	-100.96
190.959	-196.26
191.178	-381.8
191.398	-90.53
191.617	-84.47
191.836	-76.62
192.055	-40.37
192.274	-34.89
192.494	4.52
192.713	-36.78
192.932	-99.08
193.151	-173.71
193.37	-124.61
193.589	-41.37
193.808	-25.48
194.027	-5.97
194.246	2.7
194.465	-7.91
194.685	19.04
194.904	-18.64
195.123	-5.76
195.342	1.81
195.561	9.44
195.78	16.84
195.999	18.07
196.218	-6.89
196.436	-19.35
196.655	-8.89
196.874	-34.96
197.093	-35.14
197.312	-37.59
197.531	-72.6
197.75	-91.69
197.969	-214.01
198.188	-288.41
198.407	-463.58
198.625	-656.55
198.844	-624.94
199.063	-335.55
199.282	-155.08
199.501	-201.09
199.719	-197.67
199.938	-175.41
200.157	-652.27
200.376	-84.52
200.594	-71.15
200.813	-64.03
201.032	-228.65
201.251	-108.36
201.469	-66.76
201.688	-33.19
201.907	-4.85
202.125	-47.6
202.344	-66.47
202.563	-40.79
202.781	-77.85
203	-50.72
203.218	-74.99
203.437	-50.56
203.656	-43.01
203.874	-125.26
204.093	-229.94
204.311	-353.31
204.53	-206.75
204.748	-96.02
204.967	-165.34
205.185	-85.09
205.404	-213.57
205.622	-84.27
205.841	-68.5
206.059	-213.11
206.278	-53.95
206.496	-5.54
206.715	13.1
206.933	-7.67
207.151	-22.43
207.37	8.85
207.588	-12.66
207.806	5.11
208.025	9.37
208.243	7.32
208.461	14.77
208.68	16.61
208.898	30.89
209.116	19.88
209.335	10.61
209.553	4.67
209.771	-20.32
209.989	-16.83
210.208	-64.08
210.426	-75.59
210.644	-86.37
210.862	-78.38
211.081	-74.09
211.299	-139.54
211.517	-252.47
211.735	-150.13
211.953	-153.8
212.171	-51.06
212.39	-44.74
212.608	13.91
212.826	22.7
213.044	-35.23
213.262	-75.04
213.48	-109.2
213.698	-81.61
213.916	-47.57
214.134	-26.28
214.352	-60.37
214.57	-105.47
214.788	-100.23
215.006	-123.69
215.224	-78.02
215.442	-50.5
215.66	-68.82
215.878	-41.26
216.096	-68.96
216.314	-43.07
216.532	-42.09
216.75	-28.42
216.968	-19.65
217.185	-18.54
217.403	-21.01
217.621	-47.45
217.839	-58.66
218.057	-22.3
218.275	-3.38
218.492	21.82
218.71	19.28
218.928	28.55
219.146	28.89
219.363	10.8
219.581	22.3
219.799	42.84
220.017	32.51
220.234	30.64
220.452	18.1
220.67	-5.99
220.887	10.82
221.105	-3.77
221.323	8.41
221.54	-5.55
221.758	14.49
221.976	-15.27
222.193	-169.88
222.411	-53.7
222.629	-28.58
222.846	23.9
223.064	16.01
223.281	-50.13
223.499	-7.55
223.716	-29.39
223.934	6.15
224.151	-5.47
224.369	9.09
224.586	9.84
224.804	7.42
225.021	6.84
225.239	4.14
225.456	-6.59
225.674	-4.55
225.891	-27.06
226.108	-34.98
226.326	-56.34
226.543	-58.38
226.76	-52.59
226.978	-45.47
227.195	-49.07
227.413	-44.47
227.63	-33.79
227.847	-19.79
228.064	-11
228.282	-4.06
228.499	1.51
228.716	6.41
228.934	5.92
229.151	3.61
229.368	0.54
229.585	1.44
229.802	1.54
230.02	0.13
230.237	-3.42
230.454	-5.3
230.671	-6.19
230.888	-9.06
231.105	-12.9
231.323	-14.27
231.54	-14.53
231.757	-9.88
231.974	-6.11
232.191	-3.9
232.408	-1.54
232.625	-6.8
232.842	-6.09
233.059	-7.36
233.276	-1.57
233.493	-3.14
233.71	4.9
233.927	10.16
234.144	15.94
234.361	16.82
234.578	16.61
234.795	19.55
235.012	24.16
235.229	21.51
235.446	23.21
235.663	19.29
235.879	20.93
236.096	17.44
236.313	16.31
236.53	9.68
236.747	9.64
236.964	-0.01
237.181	-3.7
237.397	-5.64
237.614	-2.15
237.831	-3.52
238.048	-7.08
238.264	-10.46
238.481	-13.28
238.698	-24.88
238.915	-28.94
239.131	-32.75
239.348	-17.51
239.565	-17.38
239.781	-17.66
239.998	-16.82
240.215	-21.36
240.431	-18.49
240.648	-12.32
240.865	-9.66
241.081	-3.02
241.298	-1.29
241.514	0.38
241.731	0.61
241.947	-0.4
242.164	-0.43
242.38	0.65
242.597	5.35
242.814	8.17
243.03	8.67
243.246	13.1
243.463	12.26
243.679	12.38
243.896	10.69
244.112	11.02
244.329	11.55
244.545	11.87
244.762	11.93
244.978	8.9
245.194	8.79
245.411	6.84
245.627	1.77
245.843	3.65
246.06	4.7
246.276	7.89
246.492	7.38
246.709	8.42
246.925	9.62
247.141	9.74
247.357	10.55
247.574	9.7
247.79	9.52
248.006	9.54
248.222	9.97
248.439	10.31
248.655	8.53
248.871	8.56
249.087	8.12
249.303	6.17
249.519	5.62
249.736	5.59
249.952	2.86
250.168	4.26
250.384	3.3
250.6	1.01
250.816	-0.72
251.032	0.74
251.248	0.47
251.464	-0.49
251.68	4.4
251.896	4.52
252.112	3.48
252.328	4.99
252.544	4.91
252.76	3.75
252.976	3.77
253.192	3.85
253.408	3.71
253.624	3.13
253.84	2.64
254.056	-0.34
254.272	-3.69
254.487	-5.7
254.703	-4.23
254.919	-9.21
255.135	-6.12
255.351	-9.2
255.567	-8.81
255.782	-11.7
255.998	-10.92
256.214	-8.7
256.43	-9.42
256.646	-6.41
256.861	-9.03
257.077	-6.84
257.293	-3.69
257.508	-6.51
257.724	-3.65
257.94	-3.5
258.155	0.65
258.371	1.47
258.587	1.31
258.802	1.08
259.018	2.92
259.234	5.52
259.449	4.25
259.665	4.17
259.88	5.72
260.096	6.43
260.312	6.19
260.527	5.83
260.743	5.98
260.958	6.18
261.174	6.06
261.389	5.33
261.605	5.13
261.82	6.19
262.036	6.8
262.251	5.22
262.466	4.2
262.682	5.57
262.897	4.96
263.113	3.53
263.328	3.77
263.543	3.9
263.759	4.37
263.974	2.98
264.189	1.27
264.405	-1.29
264.62	0.35
264.835	1.05
265.051	-2.99
265.266	-2.95
265.481	-0
265.696	-1.3
265.912	0.48
266.127	0.28
266.342	0.11
266.557	-1.1
266.773	1.59
266.988	2.19
267.203	0.64
267.418	2.27
267.633	1.68
267.848	1.43
268.064	1.31
268.279	0.31
268.494	0.88
268.709	1.12
268.924	1.8
269.139	0.97
269.354	0.75
269.569	0.5
269.784	0.88
269.999	0.89
270.214	1.51
270.429	4.02
270.644	5.61
270.859	4.58
271.074	4.61
271.289	6.01
271.504	6.08
271.719	6.95
271.934	7.77
272.149	6.87
272.363	7.03
272.578	6.7
272.793	5.21
273.008	4.79
273.223	5
273.438	5.92
273.653	5.47
273.867	3.8
274.082	3.52
274.297	4.15
274.512	3.82
274.726	3.84
274.941	1.75
275.156	2.5
275.371	-0.35
275.585	-0.08
275.8	-0.64
276.015	0.02
276.229	0.83
276.444	0.38
276.659	-0.58
276.873	0.93
277.088	1.28
277.302	1.48
277.517	-0.06
277.732	3.1
277.946	2.78
278.161	2.53
278.375	1.77
278.59	3.28
278.804	1.65
279.019	0.19
279.233	1.34
279.448	3.36
279.662	5.13
279.877	6.48
280.091	4.09
280.306	4.31
280.52	3.4
280.735	4.14
280.949	2.58
281.163	3.07
281.378	4.5
281.592	4.61
281.806	4.3
282.021	3.38
282.235	2.15
282.449	3.24
282.664	2.78
282.878	3.89
283.092	4.3
283.307	6.13
283.521	5.3
283.735	6.43
283.949	4.75
284.164	3.99
284.378	4.79
284.592	6.89
284.806	6.13
285.02	5.91
285.234	5.17
285.449	4.05
285.663	4.11
285.877	4.24
286.091	3.51
286.305	4.24
286.519	4.16
286.733	3.44
286.947	0.93
287.161	1.48
287.375	1.99
287.589	1.68
287.803	2.2
288.017	1.54
288.231	1.7
288.445	3.53
288.659	3.75
288.873	3.8
289.087	2.39
289.301	4
289.515	4.36
289.729	4.77
289.943	4.77
290.157	5.46
290.371	6.37
290.584	6.44
290.798	4.54
291.012	5.56
291.226	3.44
291.44	5.12
291.654	6.55
291.867	6.22
292.081	4.83
292.295	4.98
292.509	4.6
292.722	4.39
292.936	4.96
293.15	5.61
293.364	2.87
293.577	5.43
293.791	4.23
294.005	2.65
294.218	3.3
294.432	4.64
294.645	5.18
294.859	4.63
295.073	4.46
295.286	5.16
295.5	5.59
295.713	6.52
295.927	6.48
296.14	7.41
296.354	7.93
296.568	8.53
296.781	7.97
296.994	7.71
297.208	8.31
297.421	9.02
297.635	9.54
297.848	8.5
298.062	9.49
298.275	9.96
298.489	10.97
298.702	11.93
298.915	11.26
299.129	11.79
299.342	13.39
299.555	14.41
299.769	12.44
299.982	10.68
300.195	11.38
300.409	10.67
300.622	9.59
300.835	8.76
301.048	7
301.262	7.63
301.475	7.8
301.688	6.34
301.901	4.99
302.115	6.46
302.328	8.35
302.541	7.4
302.754	6.51
302.967	6.7
303.18	7.19
303.393	7.35
303.607	7.87
303.82	8.66
304.033	9.53
304.246	10.15
304.459	11.16
304.672	10.5
304.885	9.82
305.098	10.22
305.311	11.47
305.524	11.16
305.737	11.83
305.95	12.09
306.163	12.16
306.376	11.31
306.589	10.7
306.802	9.55
307.015	9.41
307.228	12.14
307.44	11.36
307.653	13.17
307.866	13.7
308.079	15.27
308.292	14.38
308.505	14.25
308.718	13.62
308.93	13.11
309.143	13.18
309.356	13.85
309.569	13.29
309.781	14.51
309.994	13.13
310.207	13.47
310.42	11.7
310.632	12.34
310.845	13.28
311.058	13.94
311.27	13.24
311.483	12.86
311.696	11.72
311.908	11.8
312.121	11.75
312.333	11.01
312.546	10.17
312.759	11.22
312.971	10.54
313.184	8.89
313.396	9.62
313.609	9.3
313.821	9.83
314.034	8.87
314.246	7.77
314.459	7.92
314.671	8.98
314.884	8.36
315.096	6.08
315.309	6.4
315.521	7.13
315.733	6.38
315.946	6.84
316.158	6.84
316.371	8.82
316.583	9.79
316.795	8.32
317.008	8.98
317.22	9.78
317.432	10.15
317.644	11.38
317.857	12.11
318.069	11.61
318.281	12.03
318.494	11.38
318.706	11.72
318.918	12.46
319.13	15.23
319.342	11.86
319.555	10.64
319.767	12.96
319.979	13.16
320.191	11.4
320.403	11.75
320.615	12.99
320.827	14.91
321.039	15.42
321.252	15.94
321.464	14.34
321.676	14.37
321.888	15.53
322.1	14.45
322.312	14.61
322.524	16.23
322.736	15.84
322.948	15.79
323.16	15.46
323.372	14.7
323.584	14.86
323.796	16.26
324.007	17.56
324.219	18.26
324.431	17.96
324.643	17.29
324.855	18.22
325.067	19.11
325.279	20.4
325.491	20.21
325.702	20.92
325.914	21.11
326.126	21.84
326.338	23.18
326.55	23.86
326.761	23.88
326.973	24.27
327.185	23.67
327.396	25.23
327.608	23.58
327.82	24.61
328.032	25.6
328.243	25.34
328.455	24.95
328.666	25.53
328.878	27.11
329.09	28.8
329.301	29.03
329.513	28.87
329.725	28.5
329.936	31.46
330.148	32.31
330.359	33.63
330.571	33.77
330.782	32.59
330.994	35.18
331.205	35.69
331.417	36.19
331.628	36.86
331.84	39.67
332.051	41.64
332.262	41.1
332.474	42.29
332.685	43.06
332.897	43.98
333.108	47.04
333.319	45.8
333.531	46.39
333.742	48.44
333.953	50.04
334.165	51.13
334.376	50.73
334.587	51.62
334.799	52.27
335.01	52.18
335.221	53.24
335.432	53.11
335.644	53.47
335.855	53.6
336.066	54.46
336.277	55.09
336.488	53.35
336.7	53.76
336.911	54.73
337.122	54.55
337.333	55.07
337.544	56.32
337.755	56.65
337.966	57.3
338.177	57.44
338.388	56.34
338.599	57.46
338.811	58.92
339.022	59.01
339.233	59.9
339.444	59.32
339.655	60.79
339.866	60.32
340.076	60.24
340.287	60.52
340.498	61.14
340.709	62.17
340.92	61.52
341.131	62.11
341.342	64.79
341.553	65.33
341.764	65.71
341.975	65.23
342.185	66.24
342.396	66.75
342.607	67.33
342.818	66.93
343.029	67.4
343.239	65.7
343.45	65.05
343.661	64.25
343.872	63.6
344.082	65.82
344.293	65.55
344.504	66.47
344.714	66.91
344.925	66.94
345.136	68.12
345.346	68.54
345.557	70.97
345.768	71.81
345.978	71.63
346.189	70.8
346.399	69.69
346.61	70.75
346.821	69.67
347.031	69.49
347.242	68.21
347.452	67.52
347.663	66.39
347.873	66.02
348.084	65.97
348.294	66.24
348.504	65.84
348.715	64.58
348.925	64.06
349.136	63.07
349.346	63.14
349.557	65.39
349.767	65.32
349.977	65.66
350.188	64.81
350.398	64.39
350.608	64.01
350.819	64.42
351.029	65.06
351.239	64.63
351.449	64.99
351.66	63.97
351.87	63.33
352.08	63.82
352.29	63.7
352.501	64.07
352.711	64.12
352.921	64.16
353.131	66.26
353.341	66.91
353.552	67.14
353.762	67.88
353.972	69.88
354.182	68.92
354.392	68.81
354.602	68.97
354.812	68.78
355.022	68.99
355.232	69.49
355.442	69.04
355.652	69.3
355.862	68.84
356.072	68.39
356.282	67.62
356.492	68.56
356.702	68.91
356.912	69.25
357.122	69.12
357.332	69.45
357.542	69.67
357.752	69.49
357.962	69.91
358.171	69.44
358.381	70.43
358.591	69.75
358.801	69.27
359.011	68.45
359.221	67.15
359.43	68.08
359.64	67.53
359.85	67.02
360.06	66.72
360.269	65.74
360.479	65.84
360.689	64.54
360.899	65.64
361.108	66
361.318	65.65
361.528	66.43
361.737	65.79
361.947	66.36
362.156	66.31
362.366	65.87
362.576	66.24
362.785	66.78
362.995	67.38
363.204	66.43
363.414	67.02
363.623	66.83
363.833	66.29
364.042	66.56
364.252	66.9
364.461	66.14
364.671	65.84
364.88	64.31
365.09	64.4
365.299	63.78
365.509	63.33
365.718	62.19
365.927	63.07
366.137	63.55
366.346	62.52
366.555	61.32
366.765	61.77
366.974	61.38
367.183	62.21
367.393	60.96
367.602	61.04
367.811	61.99
368.021	62.14
368.23	61.61
368.439	61.07
368.648	60.72
368.857	60.23
369.067	59.9
369.276	59.46
369.485	59.22
369.694	59.24
369.903	59.47
370.112	58.97
370.321	58.39
370.531	58.72
370.74	58.69
370.949	58.54
371.158	59.16
371.367	59.34
371.576	60.27
371.785	60.1
371.994	60.05
372.203	59.25
372.412	58.72
372.621	57.93
372.83	57.31
373.039	56.89
373.248	56.86
373.457	56.05
373.666	55.71
373.874	54.95
374.083	54.36
374.292	54.32
374.501	54.38
374.71	53.86
374.919	53.77
375.128	53.16
375.336	52.89
375.545	53.52
375.754	54.09
375.963	53.69
376.171	53.48
376.38	54.17
376.589	54.09
376.798	53.99
377.006	54.22
377.215	53.79
377.424	53.68
377.632	53.45
377.841	52.82
378.05	52.21
378.258	51.79
378.467	51.7
378.675	50.83
378.884	51
379.093	50.84
379.301	51.13
379.51	51.7
379.718	51.5
379.927	51.62
380.135	51.05
380.344	51.15
380.552	51.11
380.761	51.1
380.969	51.44
381.177	50.54
381.386	50.05
381.594	49
381.803	48.71
382.011	48.9
382.219	48.1
382.428	47.96
382.636	46.97
382.845	46.89
383.053	46.83
383.261	46.6
383.469	46.56
383.678	46.23
383.886	46.48
384.094	45.69
384.302	45.15
384.511	45.77
384.719	45.38
384.927	45.64
385.135	45.37
385.343	44.83
385.552	43.67
385.76	43.13
385.968	42.3
386.176	41.65
386.384	41.44
386.592	41.04
386.8	39.9
387.008	40.51
387.216	40.38
387.424	40.25
387.633	39.96
387.841	40.27
388.049	40.47
388.257	40.71
388.465	40.81
388.672	40.75
388.88	40.85
389.088	41.23
389.296	40.77
389.504	40.2
389.712	39.88
389.92	39.62
390.128	39.39
390.336	39.16
390.544	39.36
390.751	38.97
390.959	38.75
391.167	38.73
391.375	38.34
391.583	38.36
391.79	38.3
391.998	38.03
392.206	38.32
392.414	38.51
392.621	38.37
392.829	38.49
393.037	38.4
393.244	38.55
393.452	38.55
393.66	38.52
393.867	38.52
394.075	38.66
394.283	38.85
394.49	38.5
394.698	38.43
394.905	38.41
395.113	38.09
395.32	38.15
395.528	38.29
395.735	38.24
395.943	38.49
396.15	38.05
396.358	38.26
396.565	38.23
396.773	38.32
396.98	37.89
397.188	38.25
397.395	38.24
397.602	37.89
397.81	37.57
398.017	37.37
398.225	37.28
398.432	37.2
398.639	36.65
398.847	36.73
399.054	36.59
399.261	36.92
399.468	36.35
399.676	36.05
399.883	36.14
400.09	36.31
400.297	36.12
400.505	36.05
400.712	36.18
400.919	36.49
401.126	36.21
401.333	36.04
401.54	36.01
401.748	36.18
401.955	36.11
402.162	36.5
402.369	36.13
402.576	36.46
402.783	36.14
402.99	36.24
403.197	36.31
403.404	36.31
403.611	36.18
403.818	36.28
404.025	36.28
404.232	36.37
404.439	36.01
404.646	36.54
404.853	36.39
405.06	36.67
405.267	36.63
405.474	36.29
405.681	36.35
405.887	36.56
406.094	36.27
406.301	36.36
406.508	36.37
406.715	36.38
406.922	36.13
407.128	36.22
407.335	35.92
407.542	35.96
407.749	36.3
407.955	36.21
408.162	35.96
408.369	36.08
408.575	35.86
408.782	35.99
408.989	35.98
409.195	36.11
409.402	36.15
409.609	36.36
409.815	36.37
410.022	36.25
410.228	36.15
410.435	36.53
410.642	36.51
410.848	36.39
411.055	36.62
411.261	36.92
411.468	36.79
411.674	36.86
411.881	36.84
412.087	36.88
412.294	36.78
412.5	36.74
412.706	36.37
412.913	36.26
413.119	36.52
413.326	36.06
413.532	35.59
413.738	35.14
413.945	34.76
414.151	34.81
414.357	34.5
414.564	34.46
414.77	34.71
414.976	34.57
415.182	34.83
415.389	34.72
415.595	34.74
415.801	35.14
416.007	35.38
416.214	35.38
416.42	35.17
416.626	35.11
416.832	34.89
417.038	34.58
417.244	34.68
417.45	34.32
417.657	34.34
417.863	34.2
418.069	34.01
418.275	33.81
418.481	33.62
418.687	33.72
418.893	33.77
419.099	33.83
419.305	33.94
419.511	33.89
419.717	33.73
419.923	33.7
420.129	33.75
420.335	33.85
420.541	33.93
420.746	34
420.952	33.91
421.158	33.86
421.364	33.71
421.57	33.75
421.776	33.86
421.982	34.07
422.187	34.08
422.393	34.05
422.599	33.88
422.805	33.8
423.01	33.76
423.216	33.73
423.422	33.81
423.628	33.89
423.833	33.67
424.039	33.52
424.245	33.6
424.45	33.36
424.656	33.42
424.862	33.4
425.067	33.37
425.273	33.37
425.478	33.25
425.684	33.13
425.889	33.17
426.095	33.12
426.301	33.26
426.506	33.11
426.712	33.14
426.917	32.85
427.123	32.59
427.328	32.73
427.533	32.73
427.739	32.72
427.944	32.46
428.15	32.41
428.355	32.53
428.561	32.35
428.766	32.26
428.971	32.25
429.177	32.36
429.382	32.55
429.587	32.43
429.793	32.28
429.998	32.31
430.203	32.42
430.408	32.17
430.614	32.05
430.819	31.97
431.024	31.88
431.229	31.91
431.434	32.02
431.64	31.91
431.845	31.86
432.05	32.14
432.255	32.04
432.46	32.14
432.665	31.95
432.87	32.03
433.076	32.09
433.281	32.22
433.486	32.22
433.691	32.25
433.896	32.44
434.101	32.34
434.306	32.11
434.511	32.29
434.716	32.45
434.921	32.68
435.126	32.66
435.331	32.49
435.535	32.29
435.74	32.22
435.945	32.09
436.15	32.12
436.355	32.06
436.56	32.03
436.765	31.97
436.97	31.63
437.174	31.64
437.379	31.66
437.584	32.07
437.789	32.25
437.993	32.23
438.198	32.15
438.403	32.13
438.608	32.35
438.812	32.45
439.017	32.58
439.222	32.63
439.426	32.89
439.631	32.87
439.836	32.6
440.04	32.68
440.245	32.8
440.45	33.01
440.654	32.98
440.859	32.77
441.063	32.69
441.268	32.53
441.472	32.58
441.677	32.25
441.881	32.33
442.086	32.3
442.29	32.21
442.495	32.05
442.699	32.02
442.904	31.95
443.108	32.12
443.312	32.28
443.517	32.25
443.721	32.19
443.925	32.29
444.13	32.03
444.334	32.08
444.538	32.1
444.743	32.05
444.947	32.06
445.151	32.09
445.356	32.18
445.56	32.07
445.764	32.22
445.968	32.19
446.173	32.18
446.377	32.33
446.581	32.27
446.785	32.28
446.989	32.4
447.193	32.29
447.398	32.26
447.602	32.11
447.806	32.13
448.01	31.92
448.214	31.97
448.418	31.95
448.622	31.99
448.826	32.13
449.03	31.87
449.234	31.97
449.438	32
449.642	32.09
449.846	32.12
450.05	31.94
450.254	31.97
450.458	31.77
450.662	31.88
450.866	31.52
451.069	31.13
451.273	31.37
451.477	31.18
451.681	31.05
451.885	30.85
452.089	30.82
452.292	30.93
452.496	31.02
452.7	31.09
452.904	31.09
453.107	31.54
453.311	31.59
453.515	31.52
453.719	31.39
453.922	31.5
454.126	31.38
454.33	31.47
454.533	31.39
454.737	31.21
454.94	31.31
455.144	31.16
455.348	30.93
455.551	31.25
455.755	31.23
455.958	31.38
456.162	31.17
456.365	31.36
456.569	31.26
456.772	31.15
456.976	31.1
457.179	31.14
457.383	31.06
457.586	31.02
457.79	30.87
457.993	30.75
