Data from 2937829_Reflection_1.txt Node
Date: Wed Jul 15 16:52:49 EDT 2015
User: robert
Spectrometer: USB4E03001
Autoset integration time: false
Trigger mode: 4
Integration Time (sec): 1.000000E-1
Scans to average: 10
Electric dark correction enabled: true
Nonlinearity correction enabled: false
Boxcar width: 5
Stray light correction enabled: false
XAxis mode: Wavelengths
Stop averaging: false
Number of Pixels in Spectrum: 3648
>>>>>Begin Spectral Data<<<<<
177.566	279.37
177.785	125.89
178.005	261.37
178.225	8947.62
178.445	27766.67
178.665	147.25
178.885	126.58
179.105	206.67
179.324	70.15
179.544	210.8
179.764	243.57
179.984	292.83
180.204	-27.53
180.423	145.39
180.643	70.53
180.863	86.74
181.083	81.4
181.302	83.71
181.522	191.66
181.742	127.12
181.961	162.31
182.181	143.53
182.401	116.55
182.621	196.6
182.84	213.24
183.06	425.18
183.279	467.9
183.499	339.52
183.719	256.16
183.938	250.72
184.158	-9047.83
184.377	-530.12
184.597	-141.16
184.816	-106.22
185.036	-270.98
185.256	-140.69
185.475	-59.64
185.695	238.71
185.914	1277.42
186.134	183.77
186.353	105.28
186.572	69.04
186.792	69.72
187.011	66.98
187.231	74.02
187.45	69.78
187.67	68.52
187.889	91.08
188.108	101.11
188.328	120.8
188.547	195.96
188.766	173.17
188.986	171.81
189.205	257.88
189.424	246.42
189.644	804.74
189.863	-17529.41
190.082	407.63
190.302	322.55
190.521	392.58
190.74	2109
190.959	184.94
191.178	-34.11
191.398	0.73
191.617	0.24
191.836	94.41
192.055	69.98
192.274	41.18
192.494	986.67
192.713	258.3
192.932	-171.17
193.151	-98.31
193.37	32.79
193.589	-3.28
193.808	4.85
194.027	28.27
194.246	85.93
194.465	40.23
194.685	-45.31
194.904	-81.07
195.123	-137.88
195.342	-150.23
195.561	-266.14
195.78	-152.65
195.999	-450.46
196.218	-203.46
196.436	-137.82
196.655	844.61
196.874	279.41
197.093	210.57
197.312	180.61
197.531	226.35
197.75	180.87
197.969	43.74
198.188	-102.94
198.407	-127.92
198.625	-47.62
198.844	-25.67
199.063	-588.6
199.282	-282.9
199.501	-332.72
199.719	300.96
199.938	134.7
200.157	210.43
200.376	73.44
200.594	24.95
200.813	-35.43
201.032	51.86
201.251	8.51
201.469	-13.79
201.688	4.26
201.907	40.19
202.125	50.77
202.344	55.62
202.563	34.62
202.781	67.43
203	-12.65
203.218	34.8
203.437	35.68
203.656	69.09
203.874	10.97
204.093	13.99
204.311	95.24
204.53	3.45
204.748	41.21
204.967	59.2
205.185	114.9
205.404	101.94
205.622	-235.54
205.841	-320.31
206.059	-115.68
206.278	-89.39
206.496	-87.26
206.715	-759.41
206.933	-1251.06
207.151	-208.3
207.37	-136.1
207.588	-42
207.806	-198.15
208.025	-236.56
208.243	-76.03
208.461	-43.98
208.68	-159.71
208.898	-110.57
209.116	-22.94
209.335	82.39
209.553	75.08
209.771	164.41
209.989	347.05
210.208	-2148.67
210.426	83.57
210.644	-34.54
210.862	-15.56
211.081	23.86
211.299	27.91
211.517	-6.85
211.735	-22.78
211.953	-17.98
212.171	-56.21
212.39	-49.71
212.608	-48.05
212.826	-49.14
213.044	-61.7
213.262	-110.08
213.48	-246.31
213.698	-385.14
213.916	-192.4
214.134	-596.78
214.352	368.78
214.57	240.73
214.788	255.65
215.006	168.41
215.224	145.49
215.442	184.25
215.66	188.14
215.878	530.9
216.096	-665.79
216.314	933.6
216.532	1237.25
216.75	-216.71
216.968	-424.39
217.185	-213.47
217.403	-95.37
217.621	-152.19
217.839	-352.03
218.057	2020.28
218.275	361.95
218.492	200.4
218.71	156.72
218.928	209
219.146	750.1
219.363	-1011.99
219.581	-2103.61
219.799	-7271.43
220.017	-490.09
220.234	-484.83
220.452	-134.21
220.67	-131.34
220.887	-77.55
221.105	-190.46
221.323	-31.82
221.54	-66.83
221.758	-65.23
221.976	-2.95
222.193	79.77
222.411	68.76
222.629	54.03
222.846	3.32
223.064	14.23
223.281	-0.05
223.499	14.77
223.716	-5.89
223.934	-50.43
224.151	-50.88
224.369	-49.85
224.586	-56.58
224.804	-21.52
225.021	6.83
225.239	2.55
225.456	-3.44
225.674	-0.27
225.891	-16.67
226.108	-32.69
226.326	16.62
226.543	6.92
226.76	-8.27
226.978	-11.45
227.195	-5.99
227.413	-15.52
227.63	-6.19
227.847	-18.3
228.064	-6.32
228.282	-1.14
228.499	-2.27
228.716	-2.01
228.934	-2.08
229.151	-1.3
229.368	-1.98
229.585	-6.58
229.802	-7.21
230.02	-5.44
230.237	-0.82
230.454	-5.62
230.671	-10.02
230.888	-7.73
231.105	-14.24
231.323	-9.33
231.54	-14.18
231.757	-16.49
231.974	-8.21
232.191	-8.52
232.408	-11.96
232.625	-16.63
232.842	-15.29
233.059	-8.79
233.276	-21.57
233.493	-19.39
233.71	-14.47
233.927	-8.87
234.144	-12.05
234.361	-30.84
234.578	-31.13
234.795	-39.26
235.012	-33.65
235.229	-37.69
235.446	-42.67
235.663	-31.38
235.879	-31.35
236.096	-45.63
236.313	-43.81
236.53	-27.68
236.747	-8.38
236.964	-12.66
237.181	-6.36
237.397	-0.78
237.614	3.17
237.831	4.56
238.048	-6.49
238.264	-5.92
238.481	1.61
238.698	-3.13
238.915	-9.05
239.131	-10.83
239.348	-8.98
239.565	-9.95
239.781	-16.3
239.998	-12.67
240.215	-17.66
240.431	-7.88
240.648	-6.79
240.865	-9.63
241.081	-6.04
241.298	-0.8
241.514	-1.88
241.731	1.39
241.947	2.48
242.164	3.44
242.38	3.51
242.597	7.74
242.814	8.06
243.03	9.34
243.246	10.68
243.463	10.98
243.679	9.39
243.896	10.55
244.112	9.55
244.329	9.74
244.545	9.12
244.762	8.56
244.978	7.36
245.194	6.74
245.411	5.49
245.627	4.13
245.843	5.57
246.06	6.18
246.276	5.59
246.492	7.02
246.709	8.11
246.925	9.62
247.141	10.7
247.357	9.95
247.574	10.63
247.79	11.04
248.006	11.07
248.222	10.82
248.439	11.03
248.655	10.84
248.871	11.6
249.087	11.07
249.303	11.88
249.519	9.62
249.736	10.58
249.952	8.36
250.168	8.19
250.384	6.14
250.6	6.34
250.816	5.85
251.032	4.96
251.248	4.6
251.464	4.61
251.68	0.28
251.896	2.14
252.112	1.1
252.328	2.66
252.544	0.7
252.76	2.68
252.976	0.17
253.192	-1.41
253.408	0.31
253.624	-3.15
253.84	-8.29
254.056	-8.45
254.272	-6.39
254.487	-7.99
254.703	-11.97
254.919	-11.78
255.135	-9.48
255.351	-7.97
255.567	-9.12
255.782	-10.66
255.998	-9.88
256.214	-2.01
256.43	-4.98
256.646	-8.12
256.861	-8.39
257.077	-3.97
257.293	-2.17
257.508	-4.53
257.724	-0.9
257.94	1.08
258.155	-1.32
258.371	-0.35
258.587	0.79
258.802	3.58
259.018	4.19
259.234	5.57
259.449	5.51
259.665	4.62
259.88	5.14
260.096	3.7
260.312	3.41
260.527	3.75
260.743	4.48
260.958	3.4
261.174	3.31
261.389	3.01
261.605	0.96
261.82	-0.75
262.036	-0.81
262.251	-3.09
262.466	-2.07
262.682	-2.37
262.897	-1.77
263.113	-4.9
263.328	-6.62
263.543	-8.27
263.759	-8.1
263.974	-4.98
264.189	-2.71
264.405	-3.62
264.62	-6.23
264.835	-9.96
265.051	-12.35
265.266	-11.76
265.481	-8.73
265.696	-7.4
265.912	-7.17
266.127	-9.26
266.342	-10.2
266.557	-10.79
266.773	-9.42
266.988	-4.27
267.203	-3.07
267.418	-1.43
267.633	-1.27
267.848	-0.84
268.064	1.57
268.279	-0.8
268.494	-1.49
268.709	-0.45
268.924	0.91
269.139	-0.18
269.354	-1.68
269.569	-1.07
269.784	0.37
269.999	0.04
270.214	-0.27
270.429	-2.67
270.644	0.38
270.859	1.06
271.074	2.08
271.289	1.65
271.504	2.93
271.719	3.74
271.934	1.6
272.149	0.58
272.363	0.51
272.578	0.55
272.793	1.47
273.008	1.05
273.223	0.8
273.438	0.37
273.653	-0.85
273.867	-0.78
274.082	-1.94
274.297	0.28
274.512	2.38
274.726	2.35
274.941	0.31
275.156	-0.97
275.371	-1.01
275.585	-1.23
275.8	-1.72
276.015	-0.44
276.229	-1.36
276.444	-0.8
276.659	-1.37
276.873	-3.05
277.088	-2.97
277.302	-0.19
277.517	0.73
277.732	-0.02
277.946	-0.82
278.161	-1.5
278.375	-2.47
278.59	-1.77
278.804	-0.89
279.019	-0.93
279.233	-0.68
279.448	-2.95
279.662	-5.46
279.877	-8.58
280.091	-7.65
280.306	-3.74
280.52	-3.04
280.735	-2.35
280.949	-3.04
281.163	-3.74
281.378	-2.96
281.592	-4.46
281.806	-3.3
282.021	-2.51
282.235	-0.01
282.449	1.07
282.664	0.14
282.878	-0.06
283.092	-0.65
283.307	-0.52
283.521	-0.22
283.735	-0.37
283.949	-1.53
284.164	-0.4
284.378	-0.97
284.592	-1.39
284.806	-4.49
285.02	-3.54
285.234	-3.12
285.449	-2.95
285.663	-2.28
285.877	-2.49
286.091	-0.91
286.305	1.04
286.519	0.88
286.733	1.34
286.947	1.72
287.161	3.23
287.375	2.41
287.589	3.81
287.803	4.16
288.017	4.18
288.231	2.89
288.445	2.62
288.659	1.29
288.873	2.24
289.087	0.89
289.301	0.82
289.515	2.18
289.729	2.36
289.943	0.77
290.157	1.89
290.371	0.91
290.584	1.16
290.798	-1.68
291.012	-1.76
291.226	-2.31
291.44	-2.03
291.654	-3.19
291.867	-3.3
292.081	-4.23
292.295	-4.87
292.509	-6.82
292.722	-5.29
292.936	-6.4
293.15	-2.95
293.364	-2.43
293.577	-2.42
293.791	-2.03
294.005	-1.79
294.218	-1.71
294.432	0.28
294.645	1.57
294.859	2.9
295.073	2.48
295.286	3.23
295.5	3.35
295.713	4.57
295.927	3.29
296.14	5
296.354	5.56
296.568	4.97
296.781	4.97
296.994	4.26
297.208	2.69
297.421	2.7
297.635	5.28
297.848	4.53
298.062	4.14
298.275	4.34
298.489	3.03
298.702	4.1
298.915	4.47
299.129	2.49
299.342	2.1
299.555	4.56
299.769	4.73
299.982	3.64
300.195	3.75
300.409	4.45
300.622	3.5
300.835	4.64
301.048	3.76
301.262	3.38
301.475	4.62
301.688	5.78
301.901	3.55
302.115	3.02
302.328	2.3
302.541	2.14
302.754	2.61
302.967	7.32
303.18	6.63
303.393	6.19
303.607	5.88
303.82	6.91
304.033	7.28
304.246	8.57
304.459	8.53
304.672	7.85
304.885	9.5
305.098	9.42
305.311	5.18
305.524	6.11
305.737	7.39
305.95	9.35
306.163	8.58
306.376	7.31
306.589	6.34
306.802	8.72
307.015	9.52
307.228	6.95
307.44	7.78
307.653	8.87
307.866	9.35
308.079	8.65
308.292	6.66
308.505	8.98
308.718	9.83
308.93	10.87
309.143	9.5
309.356	8.23
309.569	8.56
309.781	7.36
309.994	8.1
310.207	8.6
310.42	8.34
310.632	8.21
310.845	7.28
311.058	6.97
311.27	5.69
311.483	4.03
311.696	4.02
311.908	5.2
312.121	5.45
312.333	4.08
312.546	2.53
312.759	2.17
312.971	3.16
313.184	1.89
313.396	2.67
313.609	2.64
313.821	5.48
314.034	5.25
314.246	4.25
314.459	3.4
314.671	4.94
314.884	4.6
315.096	4.07
315.309	3.12
315.521	4.78
315.733	2.07
315.946	3.15
316.158	1.4
316.371	3.3
316.583	3.07
316.795	1.36
317.008	1.79
317.22	3.34
317.432	6.74
317.644	8.87
317.857	7.54
318.069	10.04
318.281	11.71
318.494	12.94
318.706	11.51
318.918	11.29
319.13	12.94
319.342	12.89
319.555	12.46
319.767	9.67
319.979	8.27
320.191	9.07
320.403	7.32
320.615	5.34
320.827	4.28
321.039	4.64
321.252	5.15
321.464	8.22
321.676	8.61
321.888	10.27
322.1	11.31
322.312	10.85
322.524	10.58
322.736	11.46
322.948	12.43
323.16	14.52
323.372	15.61
323.584	16.14
323.796	13.79
324.007	12.69
324.219	11.42
324.431	12.13
324.643	12.25
324.855	12.52
325.067	12.51
325.279	10.86
325.491	9.42
325.702	10.63
325.914	9.82
326.126	10.14
326.338	11.77
326.55	11.66
326.761	11.36
326.973	11.76
327.185	11.33
327.396	12.26
327.608	13.88
327.82	14.31
328.032	12.38
328.243	12.92
328.455	11.71
328.666	11.04
328.878	11.78
329.09	10.72
329.301	10.78
329.513	12.1
329.725	12.27
329.936	14.05
330.148	14.95
330.359	15.72
330.571	16.83
330.782	15.94
330.994	17.61
331.205	16.02
331.417	16.2
331.628	15.85
331.84	14.85
332.051	13.04
332.262	11.52
332.474	10.34
332.685	8.92
332.897	9.79
333.108	11.33
333.319	10.73
333.531	9.49
333.742	8.78
333.953	9.64
334.165	8.53
334.376	9.23
334.587	10.82
334.799	10.81
335.01	11.63
335.221	10.26
335.432	10.18
335.644	8.48
335.855	8.53
336.066	9.02
336.277	7.65
336.488	9.81
336.7	9.63
336.911	7.67
337.122	8.46
337.333	9.3
337.544	11.29
337.755	11.7
337.966	14.09
338.177	15.14
338.388	14.85
338.599	15.78
338.811	14.55
339.022	14.69
339.233	15.02
339.444	14.86
339.655	14.42
339.866	13.94
340.076	14.58
340.287	11.82
340.498	11.89
340.709	13.97
340.92	14.32
341.131	14.95
341.342	15.63
341.553	15.21
341.764	14.22
341.975	13.2
342.185	12.68
342.396	11.27
342.607	13.03
342.818	13.14
343.029	13.84
343.239	13.7
343.45	12.15
343.661	11.37
343.872	10.98
344.082	10.92
344.293	12.74
344.504	11.78
344.714	13.09
344.925	11.27
345.136	13.49
345.346	12.79
345.557	14.15
345.768	14.66
345.978	15.1
346.189	16.31
346.399	15.88
346.61	15.69
346.821	16.34
347.031	15.66
347.242	16.48
347.452	14.79
347.663	13.1
347.873	12.05
348.084	12.36
348.294	11.76
348.504	11.02
348.715	12.62
348.925	13.25
349.136	12.86
349.346	12.4
349.557	12.01
349.767	11.92
349.977	11.4
350.188	10.92
350.398	9.5
350.608	8.92
350.819	8.17
351.029	7.38
351.239	6.56
351.449	5.98
351.66	5.52
351.87	6.25
352.08	5.73
352.29	8.5
352.501	8.56
352.711	8.45
352.921	10.57
353.131	10.94
353.341	10.62
353.552	10.13
353.762	10.2
353.972	11.03
354.182	10.81
354.392	12.07
354.602	11.28
354.812	11.31
355.022	11.99
355.232	10.93
355.442	11.07
355.652	10.55
355.862	10.19
356.072	10.28
356.282	10.45
356.492	10.5
356.702	9.75
356.912	9.28
357.122	8.48
357.332	8.67
357.542	8.56
357.752	9.32
357.962	10.53
358.171	10.37
358.381	11.34
358.591	10.4
358.801	10.25
359.011	10.12
359.221	10.62
359.43	11.25
359.64	11.72
359.85	12.12
360.06	12.33
360.269	11.22
360.479	12.52
360.689	11.5
360.899	12.46
361.108	12.59
361.318	12.74
361.528	12
361.737	11.65
361.947	11.06
362.156	10.8
362.366	9.67
362.576	9.96
362.785	8.53
362.995	9.09
363.204	8.66
363.414	8.49
363.623	8.64
363.833	9.1
364.042	8.61
364.252	8.92
364.461	8.62
364.671	8.29
364.88	8.45
365.09	9.17
365.299	9.36
365.509	8.57
365.718	8.83
365.927	7.78
366.137	7.62
366.346	8.07
366.555	8.93
366.765	8.94
366.974	9.86
367.183	9.62
367.393	10.37
367.602	8.58
367.811	8.85
368.021	7.99
368.23	8.11
368.439	8.2
368.648	8.75
368.857	7.26
369.067	7.23
369.276	7.16
369.485	7.48
369.694	6.22
369.903	7.52
370.112	7.21
370.321	7.37
370.531	7.74
370.74	7.35
370.949	7.96
371.158	9.26
371.367	8.22
371.576	7.73
371.785	7.88
371.994	7.92
372.203	8.06
372.412	9.26
372.621	9.83
372.83	9.67
373.039	10.2
373.248	9.38
373.457	8.49
373.666	9.51
373.874	8.56
374.083	8.07
374.292	7.55
374.501	7.01
374.71	6.18
374.919	5.07
375.128	4.74
375.336	4.74
375.545	3.35
375.754	3.07
375.963	3.07
376.171	2.89
376.38	3.27
376.589	4.51
376.798	4.27
377.006	5.15
377.215	5.22
377.424	5.53
377.632	5.68
377.841	6.63
378.05	7.26
378.258	7.25
378.467	8.59
378.675	8.52
378.884	8.28
379.093	9.08
379.301	8.59
379.51	9.68
379.718	9.76
379.927	9.66
380.135	9.74
380.344	8.97
380.552	9.75
380.761	9.93
380.969	9.86
381.177	9.58
381.386	8.57
381.594	8.08
381.803	8.07
382.011	7.47
382.219	7.62
382.428	7.07
382.636	7.54
382.845	6.96
383.053	6.56
383.261	6.98
383.469	6.56
383.678	6.47
383.886	6.68
384.094	6.73
384.302	7.89
384.511	7.06
384.719	6.52
384.927	6.73
385.135	6.2
385.343	5.31
385.552	4.19
385.76	4.08
385.968	4.67
386.176	4.68
386.384	4.23
386.592	3.84
386.8	3.94
387.008	4.54
387.216	3.87
387.424	4.18
387.633	4.65
387.841	5.4
388.049	6.14
388.257	6.04
388.465	5.62
388.672	5.85
388.88	5.56
389.088	5.58
389.296	5.66
389.504	5.79
389.712	5.68
389.92	5.58
390.128	5.26
390.336	4.66
390.544	4.12
390.751	4.35
390.959	4.25
391.167	4.11
391.375	3.95
391.583	3.94
391.79	3.86
391.998	3.96
392.206	3.75
392.414	3.91
392.621	4.42
392.829	4.57
393.037	4.79
393.244	4.64
393.452	4.61
393.66	5.02
393.867	4.7
394.075	4.68
394.283	4.01
394.49	4.38
394.698	3.89
394.905	3.1
395.113	3.34
395.32	3.06
395.528	3.05
395.735	3.15
395.943	3.09
396.15	3.78
396.358	3.41
396.565	3.52
396.773	3.26
396.98	3.5
397.188	3.66
397.395	3.67
397.602	3.63
397.81	3.28
398.017	3.22
398.225	2.92
398.432	2.09
398.639	2.38
398.847	2.3
399.054	2.41
399.261	2.37
399.468	2.67
399.676	2.45
399.883	2.52
400.09	2.83
400.297	2.89
400.505	2.69
400.712	3.22
400.919	3.34
401.126	4.13
401.333	4.15
401.54	3.93
401.748	4.22
401.955	4.3
402.162	4.2
402.369	3.98
402.576	4.03
402.783	4.29
402.99	4.05
403.197	3.79
403.404	3.71
403.611	4.03
403.818	4.28
404.025	3.7
404.232	3.66
404.439	3.56
404.646	3.16
404.853	3.27
405.06	3.1
405.267	3.22
405.474	3.63
405.681	3.31
405.887	3.16
406.094	3.45
406.301	3.69
406.508	3.65
406.715	3.6
406.922	4.13
407.128	3.86
407.335	4.03
407.542	3.69
407.749	3.26
407.955	2.96
408.162	2.84
408.369	2.38
408.575	2.05
408.782	1.94
408.989	2.05
409.195	1.81
409.402	2.01
409.609	1.79
409.815	2.09
410.022	2.28
410.228	2.18
410.435	2.2
410.642	2.58
410.848	2.97
411.055	2.88
411.261	2.65
411.468	2.59
411.674	2.58
411.881	2.8
412.087	2.78
412.294	2.9
412.5	3.56
412.706	3.47
412.913	3.32
413.119	3.25
413.326	3.2
413.532	3.47
413.738	3.71
413.945	3.79
414.151	3.73
414.357	3.77
414.564	3.64
414.77	3.53
414.976	3.61
415.182	3.63
415.389	3.09
415.595	3.17
415.801	2.95
416.007	3.02
416.214	2.78
416.42	2.8
416.626	2.6
416.832	2.58
417.038	2.6
417.244	2.67
417.45	2.64
417.657	3.02
417.863	3.27
418.069	3.51
418.275	3.45
418.481	3.62
418.687	3.68
418.893	3.64
419.099	3.7
419.305	3.61
419.511	3.48
419.717	3.42
419.923	3.38
420.129	3.33
420.335	3.31
420.541	3.31
420.746	3
420.952	2.96
421.158	3.05
421.364	3.01
421.57	2.81
421.776	2.94
421.982	3.03
422.187	3.11
422.393	3.32
422.599	3.27
422.805	3.2
423.01	3.29
423.216	3.19
423.422	3.18
423.628	3.05
423.833	3.27
424.039	3.17
424.245	3.17
424.45	3.09
424.656	2.67
424.862	2.81
425.067	2.92
425.273	3.15
425.478	3.22
425.684	3.19
425.889	3.19
426.095	3.19
426.301	3.26
426.506	2.98
426.712	3.11
426.917	3.26
427.123	2.9
427.328	2.7
427.533	2.6
427.739	2.48
427.944	2.52
428.15	2.85
428.355	2.78
428.561	2.56
428.766	2.93
428.971	2.6
429.177	2.72
429.382	3.06
429.587	3.2
429.793	2.98
429.998	3.2
430.203	2.85
430.408	2.84
430.614	2.97
430.819	3.22
431.024	2.83
431.229	2.52
431.434	2.47
431.64	2.48
431.845	2.64
432.05	2.73
432.255	2.59
432.46	2.99
432.665	2.62
432.87	2.68
433.076	2.65
433.281	2.95
433.486	3.5
433.691	3.39
433.896	3.22
434.101	3.14
434.306	2.99
434.511	3.12
434.716	3.19
434.921	3.57
435.126	3.52
435.331	3.45
435.535	3.25
435.74	2.88
435.945	3.16
436.15	3.3
436.355	3.33
436.56	3.39
436.765	3.3
436.97	3.04
437.174	3.05
437.379	2.8
437.584	2.76
437.789	2.78
437.993	2.98
438.198	2.74
438.403	2.77
438.608	2.64
438.812	2.76
439.017	2.81
439.222	2.98
439.426	3.01
439.631	3.32
439.836	3.28
440.04	3.26
440.245	3.34
440.45	3.44
440.654	3.48
440.859	3.62
441.063	3.4
441.268	3.4
441.472	3.38
441.677	3.3
441.881	3.25
442.086	3.3
442.29	3.51
442.495	3.26
442.699	3.3
442.904	3.09
443.108	2.8
443.312	3.06
443.517	2.98
443.721	2.95
443.925	2.87
444.13	2.76
444.334	2.68
444.538	2.52
444.743	2.82
444.947	3.01
445.151	3.03
445.356	3.25
445.56	3.21
445.764	3.27
445.968	3.35
446.173	3.26
446.377	3.15
446.581	3.15
446.785	3.2
446.989	3.17
447.193	3.12
447.398	3.29
447.602	3.38
447.806	3.16
448.01	3.09
448.214	2.92
448.418	3
448.622	3.11
448.826	3.02
449.03	2.99
449.234	3
449.438	2.79
449.642	2.75
449.846	2.61
450.05	2.98
450.254	3.17
450.458	3.21
450.662	3.23
450.866	3.35
451.069	3.58
451.273	3.65
451.477	3.54
451.681	3.58
451.885	3.29
452.089	3.32
452.292	3.03
452.496	3.22
452.7	3.33
452.904	3.3
453.107	3.2
453.311	3.39
453.515	3.36
453.719	3.35
453.922	3.42
454.126	3.64
454.33	3.62
454.533	3.97
454.737	3.53
454.94	3.59
455.144	3.63
455.348	3.82
455.551	3.8
455.755	3.67
455.958	3.65
456.162	3.4
456.365	3.33
456.569	3.44
456.772	3.07
456.976	3.22
457.179	3.03
457.383	2.87
457.586	3.03
457.79	2.94
457.993	2.93
458.196	2.94
458.4	3.23
458.603	3.22
458.807	2.91
459.01	3.07
459.213	3.02
459.417	3.12
459.62	3.28
459.823	3.2
460.026	3.24
460.23	3.35
460.433	3.5
460.636	3.33
460.839	3.57
461.042	3.9
461.246	3.88
461.449	3.74
461.652	3.83
461.855	3.8
462.058	3.43
462.261	3.52
462.464	3.54
462.668	3.44
462.871	3.47
463.074	3.18
463.277	2.8
463.48	2.94
463.683	3.36
463.886	3.42
464.089	3.24
464.292	3.59
