Data from 2937883_Reflection_2.txt Node
Date: Wed Jul 15 14:39:51 EDT 2015
User: robert
Spectrometer: USB4E03001
Autoset integration time: false
Trigger mode: 4
Integration Time (sec): 1.000000E-1
Scans to average: 10
Electric dark correction enabled: true
Nonlinearity correction enabled: false
Boxcar width: 5
Stray light correction enabled: false
XAxis mode: Wavelengths
Stop averaging: false
Number of Pixels in Spectrum: 3648
>>>>>Begin Spectral Data<<<<<
177.566	47.4
177.785	88.19
178.005	85.22
178.225	91.87
178.445	822.64
178.665	-258.97
178.885	-151
179.105	22.26
179.324	32.09
179.544	27.31
179.764	93.06
179.984	85.93
180.204	214.52
180.423	263.08
180.643	335.76
180.863	-1209.69
181.083	-132.89
181.302	-525.04
181.522	-106.28
181.742	-41.79
181.961	-10.31
182.181	57.39
182.401	43.44
182.621	101.98
182.84	95.8
183.06	96.92
183.279	163.08
183.499	198.34
183.719	182.76
183.938	286.49
184.158	286.07
184.377	93144.44
184.597	242.87
184.816	235.26
185.036	193.37
185.256	229.66
185.475	193.98
185.695	128.74
185.914	1355.75
186.134	155.32
186.353	193.17
186.572	152.35
186.792	308.92
187.011	165.75
187.231	131.43
187.45	130.88
187.67	120.87
187.889	255.02
188.108	162.66
188.328	-160.28
188.547	-328.23
188.766	-453.06
188.986	335.04
189.205	334.96
189.424	151.74
189.644	188.86
189.863	453.66
190.082	313.75
190.302	204.92
190.521	239.9
190.74	495.51
190.959	-36277.78
191.178	169.01
191.398	106.44
191.617	95.26
191.836	51.61
192.055	58.13
192.274	-47.35
192.494	70.19
192.713	264.56
192.932	261.38
193.151	238.38
193.37	-40.05
193.589	-110.18
193.808	-162.43
194.027	-99.34
194.246	-50.6
194.465	1069.32
194.685	543.93
194.904	2286.56
195.123	236.24
195.342	45.68
195.561	177.23
195.78	102.56
195.999	109.06
196.218	136.78
196.436	281.4
196.655	226.26
196.874	198.1
197.093	512.61
197.312	-348.09
197.531	-367.38
197.75	-403.35
197.969	-374.16
198.188	-389.39
198.407	-262.21
198.625	-111.78
198.844	-77.72
199.063	-32.1
199.282	-85.76
199.501	-106.04
199.719	20.07
199.938	26.78
200.157	29.95
200.376	95.03
200.594	162.63
200.813	-8.16
201.032	-9.42
201.251	-52.25
201.469	-124.79
201.688	-123.08
201.907	8.43
202.125	82.79
202.344	65.31
202.563	17.05
202.781	-19.85
203	-4.1
203.218	-52.44
203.437	-31.07
203.656	-10.47
203.874	1.91
204.093	-4.75
204.311	-207.45
204.53	-189.69
204.748	-232.66
204.967	-52.83
205.185	-17.7
205.404	-108.03
205.622	21.47
205.841	11.12
206.059	62.28
206.278	83.5
206.496	61.3
206.715	85.41
206.933	33.95
207.151	-156.67
207.37	-287.79
207.588	2088.44
207.806	593.32
208.025	-14.4
208.243	-266.16
208.461	-113.43
208.68	-131.42
208.898	-10.31
209.116	46.52
209.335	19.07
209.553	-140.24
209.771	-267.42
209.989	589.43
210.208	647.47
210.426	-48.26
210.644	-256.24
210.862	299.8
211.081	415.54
211.299	-121.91
211.517	59.12
211.735	251.79
211.953	-1.07
212.171	-277.09
212.39	-11482.86
212.608	-109.37
212.826	-69.07
213.044	-92.55
213.262	-147.09
213.48	-190.56
213.698	-146.32
213.916	-62.55
214.134	-130.42
214.352	-312.86
214.57	-53.72
214.788	-26.83
215.006	1.52
215.224	22.73
215.442	162.47
215.66	-71.82
215.878	-66.63
216.096	521.5
216.314	-103.74
216.532	-93.47
216.75	-72.52
216.968	-140.5
217.185	-110.47
217.403	-60.89
217.621	-36.74
217.839	-105.1
218.057	-128.3
218.275	-140.69
218.492	-148.96
218.71	-293.38
218.928	-1521.49
219.146	766.5
219.363	-1405.08
219.581	3587.61
219.799	476.5
220.017	-86.78
220.234	39.84
220.452	103.41
220.67	77.75
220.887	95.85
221.105	71.31
221.323	76.97
221.54	88.01
221.758	78.18
221.976	74.15
222.193	82.73
222.411	63.13
222.629	81.61
222.846	80.4
223.064	74.39
223.281	66.89
223.499	96.54
223.716	86.85
223.934	55.14
224.151	56.93
224.369	93.75
224.586	61.66
224.804	78.38
225.021	64.52
225.239	41.58
225.456	41.82
225.674	37.54
225.891	19.34
226.108	27.56
226.326	26.62
226.543	32.7
226.76	20.18
226.978	18.77
227.195	10.72
227.413	-5.19
227.63	-0.15
227.847	7.29
228.064	9.33
228.282	13.33
228.499	9.35
228.716	10.68
228.934	11.45
229.151	12.64
229.368	12.21
229.585	15.08
229.802	21.33
230.02	25.1
230.237	20.36
230.454	22.07
230.671	19.46
230.888	19.96
231.105	19.55
231.323	19.9
231.54	23.69
231.757	31.7
231.974	29.62
232.191	24.41
232.408	16.26
232.625	18.97
232.842	20.89
233.059	22.71
233.276	25.46
233.493	25.57
233.71	15.23
233.927	8.31
234.144	5.76
234.361	6.24
234.578	4.41
234.795	3.26
235.012	7.37
235.229	1.99
235.446	2.18
235.663	5.23
235.879	-3.28
236.096	9.16
236.313	5.95
236.53	4.67
236.747	3.19
236.964	12.73
237.181	22.19
237.397	27.4
237.614	24.1
237.831	23.53
238.048	21.47
238.264	24.63
238.481	22.4
238.698	20.34
238.915	16.16
239.131	16.79
239.348	13.91
239.565	9.81
239.781	1.54
239.998	4.87
240.215	7.64
240.431	3.26
240.648	2.31
240.865	1.84
241.081	5.52
241.298	6.57
241.514	8.7
241.731	8.91
241.947	9.13
242.164	10.31
242.38	8.53
242.597	7.26
242.814	8.49
243.03	11.62
243.246	13.97
243.463	12.33
243.679	11.89
243.896	8.72
244.112	7.66
244.329	10.52
244.545	9.94
244.762	11.01
244.978	10.01
245.194	10.27
245.411	10.76
245.627	10.63
245.843	13.29
246.06	13.65
246.276	15.9
246.492	15.75
246.709	14.47
246.925	15.88
247.141	15.4
247.357	16.94
247.574	17.59
247.79	16.32
248.006	15.32
248.222	16.34
248.439	15.8
248.655	13.63
248.871	13.86
249.087	13.41
249.303	12.21
249.519	12.1
249.736	10.83
249.952	8.44
250.168	10.78
250.384	10.63
250.6	9.01
250.816	11.16
251.032	14.43
251.248	12.28
251.464	13.48
251.68	13.06
251.896	13.63
252.112	14.12
252.328	12.89
252.544	9.17
252.76	7.61
252.976	5.76
253.192	3.59
253.408	4.01
253.624	6.47
253.84	6.59
254.056	3.6
254.272	2.91
254.487	0.94
254.703	-2.76
254.919	1.98
255.135	5.41
255.351	5.34
255.567	8.08
255.782	8.07
255.998	8.37
256.214	8.99
256.43	10.64
256.646	10.23
256.861	8.46
257.077	11.49
257.293	8.63
257.508	7.16
257.724	8.23
257.94	6.4
258.155	5.38
258.371	4.3
258.587	4.77
258.802	6.98
259.018	7.9
259.234	9.39
259.449	9.47
259.665	9.29
259.88	10.23
260.096	10.51
260.312	10.84
260.527	11.23
260.743	10.81
260.958	10.91
261.174	9.08
261.389	8.69
261.605	7.79
261.82	8.31
262.036	9.08
262.251	8.3
262.466	6.6
262.682	5.65
262.897	5.15
263.113	3.5
263.328	0.05
263.543	1.31
263.759	-0.74
263.974	-1.08
264.189	-1.23
264.405	-2.54
264.62	-0.72
264.835	-1.97
265.051	0.06
265.266	2.68
265.481	5.77
265.696	9.06
265.912	11.96
266.127	14.04
266.342	13.06
266.557	11.26
266.773	11.58
266.988	12.35
267.203	13.16
267.418	12.19
267.633	10.92
267.848	11.57
268.064	11.21
268.279	11.71
268.494	12.92
268.709	12.5
268.924	14.05
269.139	12.26
269.354	11.61
269.569	11.43
269.784	10.43
269.999	8.88
270.214	6.86
270.429	4.86
270.644	1.63
270.859	0.85
271.074	0.43
271.289	-0.46
271.504	1.13
271.719	0.1
271.934	0.48
272.149	0.23
272.363	1.8
272.578	1.45
272.793	2.78
273.008	4.5
273.223	3.68
273.438	5.99
273.653	7.79
273.867	7.1
274.082	7.91
274.297	7.18
274.512	9.72
274.726	8.95
274.941	12.39
275.156	13.14
275.371	14.12
275.585	14.05
275.8	12.61
276.015	10.73
276.229	11.38
276.444	11.54
276.659	11.89
276.873	11.79
277.088	13.79
277.302	8.99
277.517	8.66
277.732	8.91
277.946	7.46
278.161	6.81
278.375	8.27
278.59	7.08
278.804	3.91
279.019	4.56
279.233	4.61
279.448	3.74
279.662	4.74
279.877	3.69
280.091	3.34
280.306	5.45
280.52	6.94
280.735	6.56
280.949	8.55
281.163	12.06
281.378	11.32
281.592	10.32
281.806	8.03
282.021	10.17
282.235	11.33
282.449	10.35
282.664	11.19
282.878	11
283.092	11.04
283.307	10.84
283.521	8.15
283.735	9.9
283.949	8.78
284.164	10.1
284.378	8.57
284.592	9.33
284.806	9.67
285.02	8.87
285.234	10.53
285.449	10.32
285.663	9.74
285.877	10.9
286.091	9.59
286.305	10.84
286.519	11.07
286.733	11.1
286.947	10.11
287.161	9.76
287.375	9.09
287.589	7.38
287.803	6.53
288.017	6.62
288.231	6.22
288.445	5.67
288.659	5.84
288.873	5
289.087	6.79
289.301	6.77
289.515	5.64
289.729	6.34
289.943	7.08
290.157	8.58
290.371	7.99
290.584	8.07
290.798	8.55
291.012	7.42
291.226	8.07
291.44	6.24
291.654	5.07
291.867	5.89
292.081	5.17
292.295	4.77
292.509	3.03
292.722	3.32
292.936	3.05
293.15	2.55
293.364	2.97
293.577	2.54
293.791	2.9
294.005	3.7
294.218	4.58
294.432	6.78
294.645	7.52
294.859	8.48
295.073	8.27
295.286	8.94
295.5	10.14
295.713	12.07
295.927	12.72
296.14	13.46
296.354	13.39
296.568	12.69
296.781	12.02
296.994	11.55
297.208	11.28
297.421	11.45
297.635	9.69
297.848	10.13
298.062	8.34
298.275	8.23
298.489	7.77
298.702	7.73
298.915	7.73
299.129	7.52
299.342	7.75
299.555	7.95
299.769	7.4
299.982	9.35
300.195	9.29
300.409	8.57
300.622	9.42
300.835	11.34
301.048	12.85
301.262	15.41
301.475	15.54
301.688	16.07
301.901	16.36
302.115	18.65
302.328	19.51
302.541	18.04
302.754	21.16
302.967	20.3
303.18	19.26
303.393	19.66
303.607	17.16
303.82	18.11
304.033	16.11
304.246	16.9
304.459	16.38
304.672	14.77
304.885	15.64
305.098	13.29
305.311	15.09
305.524	15.43
305.737	13.16
305.95	13.92
306.163	13.71
306.376	15.23
306.589	13.89
306.802	13.37
307.015	14.71
307.228	14.82
307.44	17.29
307.653	16.68
307.866	16.12
308.079	14.1
308.292	14.43
308.505	12.88
308.718	11.85
308.93	11.61
309.143	11.07
309.356	10.39
309.569	11.44
309.781	7.68
309.994	6.25
310.207	7.82
310.42	9.03
310.632	9.02
310.845	9.74
311.058	10.63
311.27	10.52
311.483	10.69
311.696	11
311.908	10.14
312.121	11.45
312.333	12.06
312.546	12.07
312.759	12.43
312.971	12.02
313.184	12.56
313.396	11.67
313.609	12.62
313.821	12.82
314.034	11.44
314.246	13.03
314.459	16.1
314.671	15.05
314.884	13.17
315.096	14.02
315.309	14.7
315.521	13.75
315.733	12.08
315.946	10.96
316.158	11.53
316.371	13.34
316.583	12.03
316.795	8.91
317.008	11.89
317.22	11.78
317.432	10.72
317.644	9.52
317.857	10.47
318.069	12.19
318.281	12.93
318.494	12.57
318.706	13.09
318.918	13.59
319.13	13.74
319.342	11.28
319.555	12.63
319.767	12.77
319.979	13.33
320.191	13.5
320.403	15.58
320.615	13.71
320.827	14.43
321.039	15.06
321.252	14.15
321.464	14.77
321.676	16.6
321.888	15.79
322.1	16.59
322.312	17.29
322.524	16.87
322.736	16.34
322.948	18.37
323.16	16.86
323.372	14.95
323.584	13.97
323.796	11.82
324.007	12.96
324.219	13.17
324.431	13.62
324.643	12.7
324.855	12.26
325.067	11.76
325.279	10.48
325.491	12.1
325.702	11.71
325.914	13.51
326.126	15.62
326.338	15.43
326.55	14.37
326.761	14.06
326.973	14.75
327.185	14.23
327.396	11.68
327.608	10.52
327.82	10.71
328.032	12.64
328.243	13.11
328.455	13.57
328.666	11.11
328.878	13.24
329.09	13.95
329.301	13.75
329.513	16.54
329.725	18.5
329.936	20.88
330.148	18.1
330.359	18.98
330.571	18.21
330.782	17.11
330.994	19.05
331.205	17.32
331.417	17.41
331.628	16.88
331.84	14.9
332.051	15.44
332.262	16.55
332.474	17.17
332.685	15.82
332.897	14.56
333.108	16.82
333.319	15.54
333.531	16.63
333.742	15.12
333.953	16.07
334.165	17.89
334.376	19.39
334.587	19.65
334.799	20.79
335.01	19.93
335.221	20.48
335.432	18.55
335.644	19.36
335.855	18.73
336.066	18.95
336.277	18.18
336.488	15.9
336.7	14.47
336.911	14.93
337.122	14.61
337.333	15.37
337.544	13.15
337.755	13.94
337.966	11.71
338.177	12.1
338.388	13.73
338.599	13.37
338.811	13.82
339.022	12.92
339.233	10.91
339.444	10.09
339.655	8.48
339.866	13.49
340.076	13.54
340.287	15.98
340.498	17.48
340.709	16.1
340.92	15.99
341.131	16.14
341.342	17.29
341.553	19.23
341.764	19.89
341.975	20.57
342.185	18.74
342.396	18.15
342.607	17.3
342.818	16.04
343.029	17.1
343.239	19.02
343.45	19.14
343.661	17.85
343.872	16.21
344.082	15.78
344.293	16.3
344.504	15.63
344.714	15.86
344.925	15.98
345.136	16.02
345.346	14.41
345.557	13.44
345.768	13.78
345.978	14.81
346.189	14.41
346.399	15.82
346.61	16.89
346.821	17.1
347.031	15.99
347.242	16.17
347.452	16.36
347.663	16.63
347.873	16.72
348.084	15.67
348.294	15.4
348.504	17.86
348.715	15.16
348.925	12.84
349.136	14.7
349.346	14.4
349.557	14.59
349.767	14.16
349.977	14.04
350.188	14.77
350.398	17.18
350.608	16.95
350.819	14.7
351.029	15.11
351.239	15.87
351.449	13.66
351.66	15.39
351.87	16.64
352.08	15.76
352.29	15.14
352.501	14.71
352.711	12.81
352.921	12.7
353.131	13.93
353.341	14.34
353.552	13.82
353.762	13.87
353.972	14.21
354.182	12.38
354.392	13.34
354.602	14.87
354.812	14.27
355.022	14.83
355.232	16.91
355.442	15.85
355.652	16.11
355.862	15.76
356.072	16.45
356.282	16.09
356.492	16.37
356.702	16.02
356.912	15.62
357.122	16.21
357.332	15.99
357.542	14.81
357.752	14.1
357.962	14.71
358.171	14.61
358.381	13.31
358.591	13.21
358.801	11.53
359.011	11.77
359.221	12.54
359.43	11.3
359.64	10.85
359.85	10.63
360.06	11.21
360.269	11.84
360.479	12.54
360.689	14.09
360.899	14.23
361.108	14.92
361.318	15.76
361.528	14.93
361.737	15.81
361.947	16.14
362.156	16.02
362.366	15.67
362.576	14.56
362.785	14.85
362.995	13.95
363.204	14.08
363.414	14.19
363.623	13.57
363.833	13.45
364.042	12.29
364.252	13.87
364.461	14.33
364.671	14.2
364.88	14.28
365.09	13.35
365.299	13.34
365.509	12.4
365.718	12.35
365.927	11.77
366.137	11.59
366.346	12.13
366.555	10.97
366.765	10.09
366.974	10.86
367.183	12.37
367.393	11.89
367.602	12.59
367.811	12.56
368.021	13.21
368.23	13.43
368.439	14.54
368.648	14.43
368.857	13.65
369.067	14.14
369.276	13.89
369.485	13.68
369.694	14.79
369.903	14.01
370.112	14.1
370.321	14.46
370.531	14.13
370.74	12.84
370.949	13.13
371.158	14.33
371.367	15.52
371.576	15.07
371.785	14.17
371.994	14.06
372.203	14.35
372.412	14.92
372.621	13.54
372.83	13.49
373.039	14.03
373.248	14.15
373.457	12.58
373.666	10.69
373.874	10.9
374.083	10.07
374.292	9.59
374.501	8.63
374.71	9.23
374.919	10.55
375.128	10.94
375.336	11.16
375.545	10.62
375.754	11.07
375.963	10.8
376.171	11.45
376.38	12.18
376.589	12.32
376.798	13.04
377.006	12.27
377.215	11.72
377.424	11.04
377.632	11.19
377.841	11.34
378.05	11.29
378.258	11.75
378.467	11.55
378.675	10.83
378.884	10.95
379.093	10.37
379.301	10.3
379.51	10.4
379.718	10.35
379.927	9.64
380.135	9.5
380.344	9.67
380.552	10.29
380.761	9.71
380.969	9.93
381.177	9.51
381.386	9.61
381.594	9.39
381.803	9.39
382.011	9.41
382.219	10
382.428	10.34
382.636	10.5
382.845	9.65
383.053	9.84
383.261	10.67
383.469	10.49
383.678	10.71
383.886	11
384.094	10.85
384.302	10.93
384.511	9.96
384.719	9.46
384.927	9.54
385.135	9.91
385.343	10.13
385.552	9.67
385.76	10.08
385.968	10.1
386.176	10.12
386.384	9.96
386.592	9.95
386.8	10.39
387.008	10.52
387.216	10.61
387.424	10.43
387.633	10.32
387.841	10.32
388.049	10.39
388.257	10.2
388.465	10.09
388.672	9.78
388.88	10.11
389.088	10.54
389.296	10.47
389.504	9.83
389.712	9.3
389.92	9.23
390.128	8.93
390.336	8.53
390.544	8.92
390.751	9.07
390.959	9.72
391.167	9.42
391.375	9.09
391.583	9.49
391.79	9.64
391.998	10.31
392.206	10.47
392.414	10.69
392.621	10.97
392.829	10.36
393.037	10.14
393.244	9.95
393.452	9.88
393.66	9.58
393.867	9.01
394.075	8.79
394.283	8.91
394.49	8.36
394.698	8.06
394.905	7.84
395.113	8.2
395.32	7.27
395.528	6.99
395.735	7.26
395.943	7.69
396.15	8.12
396.358	7.94
396.565	7.34
396.773	7.6
396.98	8.09
397.188	8.06
397.395	8.19
397.602	9.08
397.81	9.37
398.017	9
398.225	9.35
398.432	8.96
398.639	9.51
398.847	9.57
399.054	9.37
399.261	8.79
399.468	8.78
399.676	8.53
399.883	8.52
400.09	8.44
400.297	8.18
400.505	7.02
400.712	7.41
400.919	7.05
401.126	7.09
401.333	7.4
401.54	7.29
401.748	6.75
401.955	6.71
402.162	6.41
402.369	6.15
402.576	6.64
402.783	6.94
402.99	6.62
403.197	6.66
403.404	6.55
403.611	6.35
403.818	6.54
404.025	7.17
404.232	6.99
404.439	7.06
404.646	7.09
404.853	6.87
405.06	7.09
405.267	7.27
405.474	7.02
405.681	6.81
405.887	6.79
406.094	6.97
406.301	7.19
406.508	7.45
406.715	7.55
406.922	7.44
407.128	7.34
407.335	6.95
407.542	7.02
407.749	6.93
407.955	7.28
408.162	7.2
408.369	6.99
408.575	6.65
408.782	6.49
408.989	6.32
409.195	6.28
409.402	6.24
409.609	6.44
409.815	6.23
410.022	6.62
410.228	6.94
410.435	6.66
410.642	6.71
410.848	6.7
411.055	6.64
411.261	7.15
411.468	6.95
411.674	7.23
411.881	7.24
412.087	7.46
412.294	7.34
412.5	7.12
412.706	7.92
412.913	7.83
413.119	7.98
413.326	8.26
413.532	7.98
413.738	8.46
413.945	8.52
414.151	8.68
414.357	8.43
414.564	8.64
414.77	8.51
414.976	7.97
415.182	8.35
415.389	8.15
415.595	8.25
415.801	8.38
416.007	8.35
416.214	8.31
416.42	8.19
416.626	8.35
416.832	8.28
417.038	8.49
417.244	8.6
417.45	8.37
417.657	8.44
417.863	7.97
418.069	7.76
418.275	7.7
418.481	7.63
418.687	7.66
418.893	7.46
419.099	7.41
419.305	7.19
419.511	7.23
419.717	7.36
419.923	7.22
420.129	7.33
420.335	7.27
420.541	7.2
420.746	7.08
420.952	7.12
421.158	7.3
421.364	7.28
421.57	7.13
421.776	6.98
421.982	6.88
422.187	6.94
422.393	7.03
422.599	7.08
422.805	7.02
423.01	7.25
423.216	7.17
423.422	7.01
423.628	7.04
423.833	7.23
424.039	7.28
424.245	7.2
424.45	7.26
424.656	7.36
424.862	7.37
425.067	7.47
425.273	7.37
425.478	7.38
425.684	7.33
425.889	7.16
426.095	7.09
426.301	7.07
426.506	7.31
426.712	7.29
426.917	7.02
427.123	7
427.328	7.06
427.533	6.93
427.739	7.17
427.944	7.26
428.15	7.56
428.355	7.7
428.561	7.71
428.766	7.42
428.971	7.42
429.177	7.67
429.382	7.5
429.587	7.64
429.793	7.73
429.998	7.45
430.203	7.56
430.408	7.26
430.614	7.3
430.819	7.06
431.024	7.15
431.229	7
431.434	6.56
431.64	6.92
431.845	6.91
432.05	6.76
432.255	6.65
432.46	6.87
432.665	7
432.87	6.69
433.076	7.1
433.281	7.25
433.486	7.16
433.691	7.52
433.896	7.32
434.101	7.13
434.306	7.14
434.511	7.31
434.716	6.98
434.921	7.09
435.126	7.21
435.331	7.04
435.535	6.85
435.74	7.07
435.945	6.6
436.15	6.55
436.355	6.62
436.56	6.79
436.765	6.76
436.97	6.86
437.174	6.81
437.379	6.89
437.584	6.86
437.789	6.74
437.993	6.72
438.198	7.17
438.403	7.23
438.608	7.14
438.812	7.25
439.017	7.28
439.222	7.19
439.426	7.24
439.631	7.27
439.836	7.62
440.04	7.73
440.245	7.65
440.45	7.61
440.654	7.84
440.859	7.76
441.063	7.68
441.268	7.76
441.472	7.89
441.677	7.89
441.881	7.73
442.086	7.39
442.29	7.42
442.495	7.41
442.699	7.35
442.904	6.83
443.108	6.91
443.312	6.87
443.517	6.87
443.721	6.73
443.925	6.6
444.13	6.88
444.334	7.03
444.538	7.02
444.743	7.13
444.947	7.26
445.151	7.51
445.356	7.67
445.56	7.63
445.764	7.55
445.968	7.4
446.173	7.39
446.377	7.16
446.581	7
446.785	6.98
446.989	6.82
447.193	6.86
447.398	6.89
447.602	6.74
447.806	6.75
448.01	6.74
448.214	6.9
448.418	6.87
448.622	7.08
448.826	7.24
449.03	7.32
449.234	7.39
449.438	7.37
449.642	7.34
449.846	7.36
450.05	7.48
450.254	7.42
450.458	7.49
450.662	7.51
450.866	7.54
451.069	7.44
451.273	7.5
451.477	7.55
451.681	7.31
451.885	7.31
452.089	7.45
452.292	7.26
452.496	7.28
452.7	7.14
452.904	7.14
453.107	7.06
453.311	7.02
453.515	6.98
453.719	6.86
453.922	7.11
454.126	7.01
454.33	6.99
454.533	7.35
454.737	7.28
454.94	7.33
455.144	7.28
455.348	7.18
455.551	7.13
455.755	7.15
455.958	7.25
456.162	7.04
456.365	7.21
456.569	7.22
456.772	7
456.976	7.06
457.179	6.86
457.383	6.92
457.586	7.27
457.79	7.4
457.993	7.18
458.196	7.33
458.4	7.66
458.603	7.46
458.807	7.28
459.01	7.14
459.213	7.08
459.417	7.34
459.62	7.47
459.823	7.29
460.026	7.25
460.23	7.37
460.433	7.39
460.636	7.17
460.839	7.22
461.042	7.22
461.246	7.26
461.449	7.42
461.652	7.3
461.855	7.1
462.058	6.9
462.261	7
