Data from 2937842_Reflection_1.txt Node
Date: Wed Jul 15 16:14:00 EDT 2015
User: robert
Spectrometer: USB4E03001
Autoset integration time: false
Trigger mode: 4
Integration Time (sec): 1.000000E-1
Scans to average: 10
Electric dark correction enabled: true
Nonlinearity correction enabled: false
Boxcar width: 5
Stray light correction enabled: false
XAxis mode: Wavelengths
Stop averaging: false
Number of Pixels in Spectrum: 3648
>>>>>Begin Spectral Data<<<<<
177.566	100.26
177.785	316.6
178.005	-44.98
178.225	-50.23
178.445	-132.67
178.665	265.85
178.885	728.19
179.105	176.19
179.324	185.96
179.544	5235.94
179.764	-130.16
179.984	130.05
180.204	90.13
180.423	76.63
180.643	53.42
180.863	53.76
181.083	249.03
181.302	312.56
181.522	223.02
181.742	143.01
181.961	33.23
182.181	-10774.07
182.401	-419.49
182.621	-420.5
182.84	-2178.81
183.06	123.12
183.279	31.1
183.499	24.09
183.719	-11.13
183.938	52.3
184.158	55.84
184.377	89.65
184.597	98.6
184.816	94.51
185.036	130.72
185.256	93.95
185.475	28.99
185.695	61.64
185.914	9.58
186.134	-16.52
186.353	-1855.7
186.572	-34.36
186.792	48.09
187.011	119.34
187.231	377.04
187.45	251.27
187.67	245.54
187.889	118.12
188.108	133.18
188.328	176.16
188.547	185.33
188.766	120.74
188.986	236.78
189.205	-156.37
189.424	-15.85
189.644	-75.96
189.863	-42.84
190.082	-9.68
190.302	-81.24
190.521	-64.56
190.74	-60.71
190.959	-87.22
191.178	-662.04
191.398	-111.3
191.617	4515.15
191.836	-1914.19
192.055	137.65
192.274	339.94
192.494	174.61
192.713	-668.37
192.932	156.96
193.151	93.74
193.37	157.58
193.589	120.1
193.808	228.41
194.027	77.8
194.246	37.18
194.465	-30.23
194.685	2607.5
194.904	416.48
195.123	-606.13
195.342	3123.92
195.561	187.79
195.78	257.61
195.999	358.3
196.218	-14342.11
196.436	232.65
196.655	151.04
196.874	349.95
197.093	11903.7
197.312	-553.31
197.531	92.73
197.75	58.93
197.969	108.76
198.188	102.54
198.407	70.73
198.625	65.97
198.844	74.12
199.063	87.61
199.282	83.41
199.501	83.27
199.719	92.39
199.938	132.14
200.157	180.77
200.376	226.3
200.594	309.09
200.813	-1190.29
201.032	-250.24
201.251	-297.18
201.469	-1118.69
201.688	-995.83
201.907	-301.98
202.125	2104.88
202.344	-312.04
202.563	-794.57
202.781	-35268
203	-370.62
203.218	-520.47
203.437	-472.59
203.656	-135.6
203.874	-66.08
204.093	-33.3
204.311	-28.78
204.53	-33.9
204.748	-188.75
204.967	-1016.77
205.185	229.87
205.404	196.09
205.622	153.25
205.841	194.26
206.059	163.45
206.278	123.26
206.496	170.11
206.715	101.33
206.933	110.6
207.151	104.2
207.37	153.59
207.588	138.92
207.806	126.1
208.025	112.16
208.243	96.76
208.461	83.22
208.68	90.04
208.898	78.8
209.116	123.44
209.335	102.69
209.553	104.7
209.771	87.75
209.989	77.17
210.208	62
210.426	80.96
210.644	54.58
210.862	116.23
211.081	103.17
211.299	90.35
211.517	60.43
211.735	-189.67
211.953	-235.29
212.171	42.83
212.39	-96.45
212.608	1335.59
212.826	-65.11
213.044	47.19
213.262	31.14
213.48	-20.28
213.698	735.57
213.916	-63.42
214.134	23.99
214.352	-31.03
214.57	-194.52
214.788	183.25
215.006	93.96
215.224	-101.97
215.442	86.3
215.66	87.91
215.878	39.87
216.096	80.12
216.314	13.89
216.532	19.36
216.75	-7.49
216.968	856.31
217.185	70.07
217.403	62.09
217.621	-80.53
217.839	28.83
218.057	-112.97
218.275	523.54
218.492	1200.88
218.71	941.5
218.928	478.31
219.146	195.97
219.363	89.31
219.581	120.52
219.799	108.02
220.017	104.3
220.234	120.39
220.452	85.35
220.67	51.45
220.887	54.02
221.105	46.69
221.323	53.36
221.54	49.94
221.758	80.14
221.976	91.66
222.193	120.21
222.411	131.55
222.629	138.23
222.846	147.76
223.064	176.02
223.281	159.28
223.499	127.15
223.716	112.88
223.934	112.7
224.151	104.44
224.369	92.82
224.586	69.51
224.804	42.43
225.021	6.72
225.239	23.41
225.456	4.4
225.674	9.46
225.891	-2.87
226.108	-7.12
226.326	0.41
226.543	27
226.76	30.64
226.978	33.42
227.195	36.45
227.413	42.89
227.63	31.98
227.847	32.48
228.064	30.47
228.282	31.25
228.499	32.08
228.716	29.77
228.934	24.84
229.151	26.88
229.368	23.52
229.585	21.62
229.802	20.6
230.02	24.02
230.237	23.73
230.454	25.72
230.671	26.95
230.888	27.68
231.105	28.26
231.323	27.12
231.54	21.13
231.757	24.07
231.974	25.75
232.191	29.08
232.408	30.79
232.625	28.9
232.842	20.34
233.059	12.91
233.276	9.31
233.493	8.39
233.71	18.23
233.927	20.38
234.144	18.99
234.361	12.67
234.578	7.49
234.795	2.29
235.012	4.69
235.229	14.66
235.446	16.3
235.663	16.26
235.879	18.83
236.096	22.21
236.313	28.45
236.53	28.44
236.747	26.95
236.964	31.02
237.181	34.93
237.397	33.83
237.614	31.42
237.831	39.44
238.048	37.8
238.264	39.97
238.481	35.31
238.698	31.59
238.915	32.4
239.131	34.78
239.348	37.03
239.565	34.66
239.781	31.14
239.998	31.88
240.215	29.61
240.431	31.26
240.648	27.4
240.865	25.38
241.081	26.46
241.298	25.04
241.514	26.18
241.731	25.79
241.947	25.05
242.164	24.38
242.38	22.38
242.597	19.78
242.814	18.84
243.03	20.79
243.246	21.67
243.463	21.3
243.679	21.48
243.896	20.11
244.112	19.4
244.329	17.12
244.545	20.41
244.762	21.46
244.978	23.11
245.194	22.01
245.411	21.24
245.627	22.61
245.843	21.8
246.06	22.79
246.276	23.38
246.492	22.55
246.709	23.59
246.925	22.04
247.141	22.06
247.357	21.89
247.574	21.05
247.79	20.14
248.006	19.56
248.222	19.61
248.439	19.78
248.655	19.63
248.871	19.18
249.087	19.23
249.303	19.45
249.519	19.48
249.736	18.66
249.952	20.42
250.168	20.94
250.384	18.46
250.6	19.14
250.816	15.98
251.032	15.87
251.248	15.19
251.464	15.92
251.68	16.23
251.896	16.64
252.112	16.03
252.328	17.6
252.544	17.32
252.76	20.35
252.976	19.47
253.192	22.52
253.408	21.78
253.624	22.47
253.84	22.41
254.056	25.48
254.272	25.91
254.487	29.1
254.703	31.35
254.919	35.52
255.135	34.84
255.351	36.25
255.567	36.91
255.782	37.72
255.998	36.98
256.214	37.6
256.43	33.23
256.646	28.12
256.861	24.56
257.077	24.11
257.293	23.12
257.508	21.64
257.724	18.89
257.94	17.95
258.155	17.86
258.371	18.44
258.587	16.51
258.802	17.23
259.018	18.49
259.234	18.9
259.449	18.51
259.665	17.72
259.88	17.54
260.096	18.7
260.312	18.28
260.527	17.82
260.743	17.91
260.958	17.9
261.174	17.65
261.389	17.35
261.605	17.32
261.82	16.49
262.036	16.98
262.251	17.55
262.466	17.68
262.682	17.27
262.897	19.25
263.113	19.37
263.328	21.29
263.543	21.81
263.759	23.84
263.974	24.64
264.189	23.67
264.405	23.24
264.62	22.51
264.835	21.63
265.051	19.59
265.266	16.52
265.481	16.56
265.696	14.52
265.912	14.63
266.127	14.1
266.342	13
266.557	13.21
266.773	12.53
266.988	13.19
267.203	11.12
267.418	14.12
267.633	12.89
267.848	11.61
268.064	13.48
268.279	12.43
268.494	14.17
268.709	14.69
268.924	16.28
269.139	16.29
269.354	16.83
269.569	18.15
269.784	17.8
269.999	20.34
270.214	21.78
270.429	20.64
270.644	19.93
270.859	19.85
271.074	20.01
271.289	19.93
271.504	20.13
271.719	19.63
271.934	19.76
272.149	17.96
272.363	17.17
272.578	16.34
272.793	15.38
273.008	16.32
273.223	14.67
273.438	13.28
273.653	11.62
273.867	11.56
274.082	9
274.297	8.57
274.512	7.74
274.726	7.55
274.941	6.29
275.156	7.24
275.371	7.38
275.585	6.72
275.8	8.65
276.015	9.38
276.229	10.71
276.444	13.58
276.659	14.34
276.873	17.04
277.088	18.01
277.302	20.56
277.517	19.94
277.732	18.57
277.946	17.97
278.161	18.33
278.375	18.4
278.59	18.7
278.804	14.59
279.019	13.24
279.233	12.39
279.448	12.59
279.662	12.02
279.877	13.08
280.091	13.82
280.306	14.26
280.52	13.63
280.735	14.34
280.949	14.26
281.163	16.75
281.378	17.52
281.592	18.4
281.806	16.82
282.021	15.09
282.235	15.64
282.449	15.43
282.664	17.03
282.878	15.9
283.092	15.49
283.307	14.64
283.521	14.37
283.735	14.35
283.949	14.06
284.164	16.05
284.378	17.05
284.592	15.75
284.806	14.9
285.02	15.18
285.234	16.03
285.449	15.97
285.663	16.12
285.877	15.93
286.091	14.43
286.305	15.04
286.519	14.14
286.733	14.39
286.947	14.92
287.161	15.92
287.375	15.42
287.589	15.03
287.803	14.31
288.017	14.21
288.231	13.57
288.445	15.71
288.659	14.88
288.873	15.81
289.087	16.38
289.301	17.16
289.515	17.59
289.729	15.25
289.943	14.82
290.157	14.92
290.371	15.12
290.584	16.27
290.798	15.49
291.012	15.39
291.226	15.15
291.44	14.15
291.654	15.38
291.867	16.08
292.081	18.37
292.295	19.67
292.509	21.27
292.722	20.44
292.936	20.21
293.15	21.4
293.364	20.87
293.577	19.42
293.791	20.25
294.005	18.05
294.218	16.41
294.432	15.76
294.645	15.36
294.859	14.95
295.073	15.43
295.286	16.4
295.5	15.99
295.713	16.4
295.927	17.38
296.14	16.61
296.354	17.94
296.568	18.24
296.781	18.19
296.994	18.33
297.208	18.59
297.421	18.41
297.635	18.01
297.848	17.59
298.062	18.08
298.275	17.75
298.489	19.59
298.702	18.47
298.915	18.12
299.129	19.27
299.342	19.1
299.555	19.34
299.769	19.88
299.982	19.95
300.195	21.38
300.409	21.26
300.622	20.7
300.835	19.11
301.048	19.5
301.262	19.5
301.475	18.09
301.688	19.27
301.901	18.41
302.115	18.77
302.328	17.91
302.541	15.51
302.754	14.55
302.967	14.75
303.18	15.57
303.393	13.89
303.607	13.79
303.82	15.1
304.033	13.74
304.246	14.63
304.459	13.68
304.672	15.32
304.885	17.45
305.098	17.95
305.311	18.45
305.524	17.33
305.737	19.35
305.95	18.54
306.163	17.93
306.376	19.94
306.589	20.54
306.802	20
307.015	20.92
307.228	19.38
307.44	19.06
307.653	20.6
307.866	22.29
308.079	20.65
308.292	22.19
308.505	22.49
308.718	20.92
308.93	19.56
309.143	20.55
309.356	19.62
309.569	20.04
309.781	19.49
309.994	19.37
310.207	18.08
310.42	20.01
310.632	21.44
310.845	21.92
311.058	21
311.27	21.3
311.483	21.37
311.696	21.23
311.908	21.23
312.121	21.86
312.333	20.62
312.546	21.47
312.759	22.09
312.971	20.5
313.184	20.05
313.396	21.42
313.609	20.75
313.821	21.41
314.034	21.12
314.246	20.96
314.459	20.95
314.671	23.39
314.884	22.79
315.096	22.57
315.309	23.45
315.521	22.63
315.733	22.61
315.946	23.56
316.158	21.81
316.371	21.67
316.583	21.5
316.795	21.4
317.008	19.98
317.22	19.83
317.432	18.71
317.644	17.35
317.857	17.32
318.069	16.86
318.281	18.88
318.494	20.92
318.706	20.52
318.918	20.06
319.13	19.08
319.342	21.12
319.555	20.56
319.767	19.81
319.979	21.94
320.191	23.37
320.403	22.89
320.615	21.34
320.827	19.93
321.039	22.29
321.252	22.67
321.464	24.53
321.676	23
321.888	24.6
322.1	23.61
322.312	23.18
322.524	22.7
322.736	24.34
322.948	22.76
323.16	21.8
323.372	19.77
323.584	21.59
323.796	19.45
324.007	18.52
324.219	16.95
324.431	17.52
324.643	15.78
324.855	15.11
325.067	15.1
325.279	16.14
325.491	16.67
325.702	17.34
325.914	16.29
326.126	17.08
326.338	16.84
326.55	17.97
326.761	19.45
326.973	20.43
327.185	19.77
327.396	20.3
327.608	19.92
327.82	21.98
328.032	20.94
328.243	20.8
328.455	21.28
328.666	22.04
328.878	22.66
329.09	20.88
329.301	21.37
329.513	22.18
329.725	20.25
329.936	20.4
330.148	19.41
330.359	20.58
330.571	20.75
330.782	20.46
330.994	20.86
331.205	18.96
331.417	21.37
331.628	20.75
331.84	20.57
332.051	20.45
332.262	20.58
332.474	19.9
332.685	19.1
332.897	18.25
333.108	19.88
333.319	19.51
333.531	20.4
333.742	17.9
333.953	19.25
334.165	17.81
334.376	19.19
334.587	20.04
334.799	18.76
335.01	19.59
335.221	20.44
335.432	19.48
335.644	20.27
335.855	19.71
336.066	20.75
336.277	18.51
336.488	21.51
336.7	21.32
336.911	21.34
337.122	22.94
337.333	23.01
337.544	23.05
337.755	22.45
337.966	21.96
338.177	23.09
338.388	23.18
338.599	24.69
338.811	22.93
339.022	22.76
339.233	22.34
339.444	22.89
339.655	21.96
339.866	23.16
340.076	23.31
340.287	24.75
340.498	25.02
340.709	24.75
340.92	24.97
341.131	25.32
341.342	25.11
341.553	24.38
341.764	23.64
341.975	24.59
342.185	23.06
342.396	24.22
342.607	22.94
342.818	23.74
343.029	24.8
343.239	24.43
343.45	23.97
343.661	23.63
343.872	24.47
344.082	25.98
344.293	25.91
344.504	26.25
344.714	24.75
344.925	24.01
345.136	23.18
345.346	22.25
345.557	21.61
345.768	23.07
345.978	23.95
346.189	24.3
346.399	23.48
346.61	22.75
346.821	22.31
347.031	24.22
347.242	24.98
347.452	23.9
347.663	23.07
347.873	22.59
348.084	21.76
348.294	20.96
348.504	20.79
348.715	20.73
348.925	22.33
349.136	23.21
349.346	21.94
349.557	21.4
349.767	21.96
349.977	21.71
350.188	22.56
350.398	22.21
350.608	22.81
350.819	22.85
351.029	22.75
351.239	22.06
351.449	22.03
351.66	22.27
351.87	22.69
352.08	23.36
352.29	24.67
352.501	24.73
352.711	24.86
352.921	23.95
353.131	24.25
353.341	24.22
353.552	24.61
353.762	22.78
353.972	22.01
354.182	21.57
354.392	20.79
354.602	20.61
354.812	20.12
355.022	20.22
355.232	20.06
355.442	19.91
355.652	19.91
355.862	19.23
356.072	20.2
356.282	21.11
356.492	22.21
356.702	22.38
356.912	21.55
357.122	21.81
357.332	21.09
357.542	21.41
357.752	20.16
357.962	19.58
358.171	19.96
358.381	19.54
358.591	19.51
358.801	18.14
359.011	18.09
359.221	18.77
359.43	18.79
359.64	19.5
359.85	18.88
360.06	19.67
360.269	19.54
360.479	19.63
360.689	19.25
360.899	19.07
361.108	19.34
361.318	18.6
361.528	18.44
361.737	18.56
361.947	18.06
362.156	18.69
362.366	18.41
362.576	18.38
362.785	17.95
362.995	18.87
363.204	18.64
363.414	19.3
363.623	19.48
363.833	20.12
364.042	20.08
364.252	19.94
364.461	19.33
364.671	18.92
364.88	18.82
365.09	18.53
365.299	18.7
365.509	18.69
365.718	18.22
365.927	18.68
366.137	17.87
366.346	17.7
366.555	17.57
366.765	18.49
366.974	18.57
367.183	18.65
367.393	19.18
367.602	18.67
367.811	17.84
368.021	17.38
368.23	17.65
368.439	18.36
368.648	18.26
368.857	18.62
369.067	17.63
369.276	17.9
369.485	17.15
369.694	16.51
369.903	16.92
370.112	18.19
370.321	18.92
370.531	18.6
370.74	18.01
370.949	18.4
371.158	18.01
371.367	18.35
371.576	18.33
371.785	18.82
371.994	18.96
372.203	18.44
372.412	17.32
372.621	16.62
372.83	16.21
373.039	16.18
373.248	15
373.457	15.26
373.666	14.72
373.874	14.84
374.083	14.83
374.292	15.16
374.501	14.33
374.71	15.27
374.919	14.95
375.128	15.36
375.336	15.65
375.545	16.68
375.754	16.67
375.963	16.1
376.171	15.58
376.38	15.89
376.589	15.31
376.798	16.09
377.006	15.73
377.215	15.78
377.424	15.57
377.632	15.6
377.841	15.27
378.05	15.97
378.258	16.33
378.467	17.2
378.675	16.56
378.884	17.07
379.093	16.93
379.301	17.14
379.51	17.16
379.718	17.14
379.927	16.79
380.135	16.71
380.344	15.9
380.552	16.5
380.761	15.35
380.969	16
381.177	15.45
381.386	14.85
381.594	14.75
381.803	14.19
382.011	14.07
382.219	13.91
382.428	14.04
382.636	14.23
382.845	14.29
383.053	14.86
383.261	14.72
383.469	15.08
383.678	14.95
383.886	14.39
384.094	15.17
384.302	15.11
384.511	15.33
384.719	14.75
384.927	14.87
385.135	14.33
385.343	14.19
385.552	13.51
385.76	13.07
385.968	13.62
386.176	13.68
386.384	13.34
386.592	13.56
386.8	13.26
387.008	13.62
387.216	13.44
387.424	13.38
387.633	12.65
387.841	13.3
388.049	13.57
388.257	13.27
388.465	13.28
388.672	13.3
388.88	12.85
389.088	12.55
389.296	12.29
389.504	11.78
389.712	11.83
389.92	12.16
390.128	11.72
390.336	11.61
390.544	10.85
390.751	10.79
390.959	10.63
391.167	10.51
391.375	10.75
391.583	10.88
391.79	11.2
391.998	11.34
392.206	11.35
392.414	11.03
392.621	10.87
392.829	11.57
393.037	11.38
393.244	11.57
393.452	11.8
393.66	11.45
393.867	11.23
394.075	10.95
394.283	10.98
394.49	10.94
394.698	10.94
394.905	10.81
395.113	10.86
395.32	11.02
395.528	10.82
395.735	10.96
395.943	10.76
396.15	10.9
396.358	11.03
396.565	10.6
396.773	10.52
396.98	10.48
397.188	10.81
397.395	10.84
397.602	10.87
397.81	10.97
398.017	11.02
398.225	11.47
398.432	11.61
398.639	11.57
398.847	11.49
399.054	11.18
399.261	11.36
399.468	10.78
399.676	10.37
399.883	10.24
400.09	9.88
400.297	9.59
400.505	9.41
400.712	9.37
400.919	9.52
401.126	9.79
401.333	10.37
401.54	10.52
401.748	10.9
401.955	10.94
402.162	10.9
402.369	10.85
402.576	10.75
402.783	10.72
402.99	10.62
403.197	10.32
403.404	9.97
403.611	9.62
403.818	9.55
404.025	9.65
404.232	9.7
404.439	10.09
404.646	10.01
404.853	9.85
405.06	9.93
405.267	9.74
405.474	9.55
405.681	9.88
405.887	9.82
406.094	9.75
406.301	9.71
406.508	9.91
406.715	9.39
406.922	9.77
407.128	9.87
407.335	9.89
407.542	9.96
407.749	10.36
407.955	10.45
408.162	10.69
408.369	10.6
408.575	10.42
408.782	10.24
408.989	10.63
409.195	10.44
409.402	10.52
409.609	10.28
409.815	10.01
410.022	9.69
410.228	9.21
410.435	8.99
410.642	9.24
410.848	9.49
411.055	9.5
411.261	9.37
411.468	9.44
411.674	9.2
411.881	9.3
412.087	9.6
412.294	9.77
412.5	10.09
412.706	10.27
412.913	10.19
413.119	9.84
413.326	9.37
413.532	9.42
413.738	9.33
413.945	9.42
414.151	9.59
414.357	9.6
414.564	9.71
414.77	9.89
414.976	9.74
415.182	9.81
415.389	10
415.595	10.46
415.801	10.14
416.007	10.26
416.214	10.22
416.42	10.08
416.626	10.07
416.832	10.14
417.038	9.85
417.244	10.1
417.45	10.11
417.657	9.85
417.863	9.58
418.069	9.75
418.275	9.69
418.481	9.74
418.687	9.74
418.893	9.6
419.099	9.35
419.305	9.39
419.511	9.16
419.717	9.04
419.923	8.98
420.129	9.07
420.335	9.03
420.541	8.91
420.746	8.9
420.952	9
421.158	9.17
421.364	9.02
421.57	8.92
421.776	8.99
421.982	8.95
422.187	9
422.393	9.05
422.599	8.87
422.805	9
423.01	9.03
423.216	8.8
423.422	8.72
423.628	9.05
423.833	9.18
424.039	9.2
424.245	9.39
424.45	9.49
424.656	9.49
424.862	9.62
425.067	9.5
425.273	9.55
425.478	9.48
425.684	9.32
425.889	9.13
426.095	8.97
426.301	8.89
426.506	8.72
426.712	8.67
426.917	8.42
427.123	8.3
427.328	8.46
427.533	8.33
427.739	8.32
427.944	8.42
428.15	8.58
428.355	8.84
428.561	8.71
428.766	8.69
428.971	8.77
429.177	8.94
429.382	9.1
429.587	8.92
429.793	8.95
429.998	9.23
430.203	9.28
430.408	9.1
430.614	8.74
430.819	8.8
431.024	8.83
431.229	8.63
431.434	8.52
431.64	8.53
431.845	8.75
432.05	8.59
432.255	8.58
432.46	8.45
432.665	8.52
432.87	8.66
433.076	8.85
433.281	8.87
433.486	8.96
433.691	9.15
433.896	9.01
434.101	8.88
434.306	9.04
434.511	9.03
434.716	9.06
434.921	8.97
435.126	9.11
435.331	8.8
435.535	8.72
435.74	8.61
435.945	8.64
436.15	8.95
436.355	8.85
436.56	8.83
436.765	8.76
436.97	8.76
437.174	8.99
437.379	8.75
437.584	9.02
437.789	8.95
437.993	9.15
438.198	8.93
438.403	8.77
438.608	8.92
438.812	8.71
439.017	8.9
439.222	8.96
439.426	8.71
439.631	8.76
439.836	8.69
440.04	8.82
440.245	8.66
440.45	8.72
440.654	8.62
440.859	8.56
441.063	8.66
441.268	8.54
441.472	8.64
441.677	8.73
441.881	8.83
442.086	8.89
442.29	8.8
442.495	8.79
442.699	8.84
442.904	8.94
443.108	8.85
443.312	8.89
443.517	9
443.721	8.84
443.925	8.94
444.13	8.84
444.334	8.68
444.538	8.74
444.743	8.73
444.947	8.64
445.151	8.56
445.356	8.59
445.56	8.54
445.764	8.57
445.968	8.56
446.173	8.44
446.377	8.58
446.581	8.66
446.785	8.71
446.989	8.76
447.193	8.86
447.398	8.79
447.602	8.94
447.806	8.82
448.01	8.65
448.214	8.65
448.418	8.78
448.622	8.62
448.826	8.67
449.03	8.68
449.234	8.78
449.438	8.93
449.642	9.06
449.846	8.89
450.05	9.09
450.254	9.28
450.458	9.48
450.662	9.39
450.866	9.5
451.069	9.27
451.273	9.08
451.477	8.88
451.681	8.65
451.885	8.62
452.089	8.61
452.292	8.48
452.496	8.33
452.7	8.23
452.904	8.14
453.107	7.88
453.311	7.89
453.515	8.04
453.719	8.03
453.922	8.02
454.126	8
454.33	7.88
454.533	8.03
454.737	8.19
454.94	8.01
455.144	8.16
455.348	8.17
455.551	8.13
455.755	7.89
455.958	7.87
456.162	7.65
456.365	7.76
456.569	7.95
456.772	8.03
456.976	7.98
457.179	7.97
457.383	7.99
457.586	8.09
457.79	8.23
457.993	8.53
458.196	8.52
458.4	8.72
458.603	8.78
