Data from 2937825_Reflection_1.txt Node
Date: Wed Jul 15 17:04:30 EDT 2015
User: robert
Spectrometer: USB4E03001
Autoset integration time: false
Trigger mode: 4
Integration Time (sec): 1.000000E-1
Scans to average: 10
Electric dark correction enabled: true
Nonlinearity correction enabled: false
Boxcar width: 5
Stray light correction enabled: false
XAxis mode: Wavelengths
Stop averaging: false
Number of Pixels in Spectrum: 3648
>>>>>Begin Spectral Data<<<<<
177.566	95.56
177.785	82.44
178.005	85.92
178.225	83.41
178.445	93.59
178.665	111.08
178.885	101.49
179.105	91.68
179.324	107.11
179.544	133.88
179.764	145.13
179.984	136.79
180.204	109.43
180.423	107.23
180.643	113.95
180.863	128.71
181.083	148.02
181.302	160.72
181.522	172.97
181.742	154.99
181.961	136.47
182.181	162.89
182.401	159.61
182.621	226.47
182.84	212.64
183.06	187.26
183.279	193
183.499	171.71
183.719	140.63
183.938	172.27
184.158	200.08
184.377	229.92
184.597	235.66
184.816	303.4
185.036	333.8
185.256	1275.45
185.475	778.74
185.695	486.2
185.914	1002.47
186.134	952.29
186.353	637.74
186.572	494.26
186.792	438.7
187.011	330.96
187.231	243.08
187.45	202.47
187.67	140.3
187.889	161.59
188.108	172.51
188.328	154.81
188.547	204.97
188.766	160.2
188.986	213.35
189.205	181.5
189.424	223.7
189.644	203.7
189.863	209.42
190.082	372.44
190.302	324.42
190.521	316.35
190.74	268.99
190.959	186.2
191.178	223.9
191.398	178.56
191.617	175.12
191.836	168.27
192.055	220.57
192.274	230.99
192.494	162.59
192.713	142.15
192.932	141.73
193.151	225.64
193.37	224.69
193.589	208.24
193.808	226.53
194.027	220.31
194.246	156.91
194.465	126.53
194.685	125.51
194.904	142.45
195.123	291.27
195.342	258.67
195.561	249.64
195.78	650
195.999	294.59
196.218	409.54
196.436	1070.96
196.655	-1306.38
196.874	-6908.38
197.093	-1247.95
197.312	-892.83
197.531	1004.06
197.75	920.98
197.969	441.07
198.188	409.48
198.407	321.93
198.625	276.09
198.844	264.29
199.063	222.94
199.282	219.83
199.501	189.59
199.719	156.25
199.938	161.08
200.157	141.58
200.376	122.28
200.594	98.34
200.813	114.21
201.032	135.74
201.251	128.76
201.469	124.01
201.688	155.76
201.907	193.78
202.125	191.88
202.344	209.74
202.563	189.43
202.781	339.98
203	282.06
203.218	333.43
203.437	274.91
203.656	293.14
203.874	327.5
204.093	290.68
204.311	222.06
204.53	252.68
204.748	295.04
204.967	511.05
205.185	556.2
205.404	4102.22
205.622	-4428.92
205.841	20588.37
206.059	-518.52
206.278	1638.94
206.496	-119.36
206.715	-117.25
206.933	-156.27
207.151	-455.24
207.37	-350.67
207.588	323.88
207.806	213.4
208.025	272.72
208.243	243.98
208.461	179.77
208.68	162.35
208.898	174.35
209.116	139.31
209.335	116.58
209.553	122.37
209.771	114.29
209.989	116.48
210.208	129.93
210.426	112.49
210.644	90.54
210.862	87.15
211.081	116.87
211.299	107.86
211.517	112.49
211.735	138.78
211.953	132.11
212.171	160.89
212.39	165.55
212.608	174.58
212.826	190.7
213.044	217.87
213.262	560.76
213.48	394.22
213.698	2867.26
213.916	-1060.97
214.134	-1136.31
214.352	-1292.66
214.57	1951.91
214.788	-1346.91
215.006	-838.1
215.224	939.15
215.442	630.91
215.66	366.23
215.878	591.13
216.096	341.33
216.314	279.6
216.532	218.43
216.75	213.91
216.968	213.15
217.185	184.63
217.403	168.51
217.621	188.39
217.839	261.97
218.057	179.28
218.275	150.39
218.492	133.6
218.71	131.6
218.928	161.67
219.146	165.09
219.363	212.74
219.581	214.14
219.799	227.31
220.017	341.82
220.234	338.69
220.452	806.1
220.67	-1882.31
220.887	-554.81
221.105	-400.45
221.323	-522.08
221.54	-229.89
221.758	-400.12
221.976	-835.97
222.193	-2041.26
222.411	1044.45
222.629	1092.19
222.846	3749.87
223.064	3452.83
223.281	1755.29
223.499	1712.65
223.716	-1043.04
223.934	5171.2
224.151	-1228.06
224.369	-445.09
224.586	-334.83
224.804	-335.57
225.021	-440.47
225.239	-467
225.456	-710.65
225.674	-665
225.891	-576.01
226.108	7836.79
226.326	-12794.24
226.543	21941.46
226.76	-1726.98
226.978	-3370.18
227.195	-894.36
227.413	-603.63
227.63	-363.64
227.847	-183.03
228.064	-99.61
228.282	-60.87
228.499	-42.12
228.716	-29.67
228.934	-28.4
229.151	-29.28
229.368	-29.07
229.585	-21.15
229.802	-17.94
230.02	-19.29
230.237	-18.77
230.454	-19.1
230.671	-19.92
230.888	-18.27
231.105	-18.38
231.323	-14.15
231.54	-13.37
231.757	-6.24
231.974	-10.55
232.191	-14.5
232.408	-16.05
232.625	-15.43
232.842	-23.81
233.059	-25.64
233.276	-24.24
233.493	-27.07
233.71	-45.87
233.927	-52.35
234.144	-40.35
234.361	-33.45
234.578	-28.04
234.795	-22.69
235.012	-24.3
235.229	-22.75
235.446	-29.22
235.663	-36.8
235.879	-50.35
236.096	-45.8
236.313	-38.36
236.53	-68.49
236.747	-65.95
236.964	-82.65
237.181	-97.41
237.397	-90.87
237.614	-84.94
237.831	-97.62
238.048	-102.34
238.264	-90.33
238.481	-71.55
238.698	-62.15
238.915	-48.57
239.131	-55.41
239.348	-48.64
239.565	-39.53
239.781	-25.46
239.998	-30.99
240.215	-22.38
240.431	-16.66
240.648	-6.72
240.865	-8.12
241.081	-4.96
241.298	-2.91
241.514	-2.88
241.731	-1.33
241.947	-2.28
242.164	-2.65
242.38	-0.87
242.597	0.22
242.814	1.68
243.03	0.27
243.246	1.27
243.463	1.26
243.679	-0.47
243.896	-2.38
244.112	-4.14
244.329	-2.72
244.545	-4.77
244.762	-7.37
244.978	-9.38
245.194	-11.23
245.411	-11.11
245.627	-10.85
245.843	-11.12
246.06	-6.83
246.276	-2.58
246.492	0.47
246.709	1.15
246.925	2.17
247.141	3.54
247.357	3.86
247.574	2.75
247.79	2.67
248.006	3.46
248.222	2.82
248.439	0.73
248.655	-0.65
248.871	-2.15
249.087	-2.42
249.303	-4.62
249.519	-6.04
249.736	-7.3
249.952	-8.86
250.168	-9.71
250.384	-13.64
250.6	-12.15
250.816	-7.76
251.032	-6.36
251.248	-7.07
251.464	-11.38
251.68	-9.44
251.896	-9.74
252.112	-9.67
252.328	-4.92
252.544	-3.34
252.76	-3.51
252.976	-4.96
253.192	-5.75
253.408	-5.07
253.624	-4.52
253.84	-3.12
254.056	-7.33
254.272	-3.85
254.487	-5.59
254.703	-6.35
254.919	-8.94
255.135	-5.36
255.351	-4.99
255.567	-11.96
255.782	-13.48
255.998	-12.53
256.214	-7.75
256.43	-2.12
256.646	-1.03
256.861	1.04
257.077	-1.07
257.293	-0.27
257.508	-2.7
257.724	-2.54
257.94	-0.98
258.155	-1.21
258.371	-2.01
258.587	-1.12
258.802	-0.92
259.018	1.06
259.234	2.48
259.449	4.16
259.665	5.14
259.88	6.47
260.096	7.34
260.312	8.12
260.527	7.91
260.743	7.79
260.958	6.72
261.174	6.55
261.389	3.98
261.605	3.57
261.82	1.92
262.036	-1.46
262.251	-2.91
262.466	-3.74
262.682	-4.65
262.897	-4.69
263.113	-6.89
263.328	-7.98
263.543	-8.52
263.759	-6.38
263.974	-8.2
264.189	-7.2
264.405	-6.94
264.62	-6.54
264.835	-10.94
265.051	-9.19
265.266	-8.91
265.481	-6.25
265.696	-5.14
265.912	-6.61
266.127	-3.02
266.342	-3.15
266.557	-3.07
266.773	-4.14
266.988	-6.07
267.203	-6.45
267.418	-7.92
267.633	-6.77
267.848	-5.91
268.064	-3.92
268.279	-2.37
268.494	-8.31
268.709	-9.53
268.924	-8.65
269.139	-6.45
269.354	-6.34
269.569	-7.27
269.784	-8.35
269.999	-11.15
270.214	-12.46
270.429	-15.19
270.644	-15.79
270.859	-11.12
271.074	-8.3
271.289	-7.88
271.504	-6.89
271.719	-5.34
271.934	-1.93
272.149	-2.58
272.363	-2.26
272.578	-1.05
272.793	0.39
273.008	0.75
273.223	0.33
273.438	-2.02
273.653	-4.43
273.867	-3.93
274.082	-6.05
274.297	-8.46
274.512	-7.33
274.726	-6.14
274.941	-5.98
275.156	-6.29
275.371	-8.02
275.585	-8.09
275.8	-3.76
276.015	-3.05
276.229	-4.08
276.444	-3.83
276.659	-4.94
276.873	-3.9
277.088	-5.18
277.302	-7.07
277.517	-7.65
277.732	-4.4
277.946	-6.16
278.161	-10.23
278.375	-9.14
278.59	-10.13
278.804	-10.71
279.019	-8.35
279.233	-9
279.448	-7.09
279.662	-6.08
279.877	-7.26
280.091	-8.91
280.306	-7.45
280.52	-7.63
280.735	-6.75
280.949	-5.71
281.163	-4.42
281.378	-3.32
281.592	-5.33
281.806	-5.8
282.021	-4.89
282.235	-3.52
282.449	-3.55
282.664	-3.68
282.878	-1.27
283.092	-0.9
283.307	-1.47
283.521	-0.53
283.735	0.43
283.949	2.27
284.164	2.08
284.378	2.74
284.592	3.99
284.806	3.57
285.02	2.83
285.234	1.93
285.449	1.92
285.663	2.31
285.877	2.74
286.091	0.26
286.305	0.97
286.519	1.39
286.733	0.5
286.947	0.34
287.161	0.95
287.375	0.84
287.589	-0.21
287.803	-2.22
288.017	-2.29
288.231	-4.15
288.445	-3.76
288.659	-5.45
288.873	-6.09
289.087	-4.54
289.301	-5.84
289.515	-4.58
289.729	-5.44
289.943	-2.45
290.157	-1.11
290.371	-0.35
290.584	2.33
290.798	3.67
291.012	4.88
291.226	4.36
291.44	2.78
291.654	4.17
291.867	3.07
292.081	3.06
292.295	1.74
292.509	1.81
292.722	1.04
292.936	-1.79
293.15	-2.71
293.364	-5.12
293.577	-4.24
293.791	-3.87
294.005	-5.52
294.218	-3.67
294.432	-1.44
294.645	-1.44
294.859	-4.09
295.073	-4
295.286	-4
295.5	-4.66
295.713	-2.22
295.927	-3.11
296.14	-1.88
296.354	-1.59
296.568	-1.76
296.781	-0.25
296.994	1.46
297.208	5.76
297.421	7.01
297.635	7.82
297.848	8.66
298.062	8.14
298.275	9.35
298.489	8.59
298.702	9.21
298.915	9.38
299.129	7.68
299.342	6.4
299.555	4.33
299.769	4.06
299.982	5.79
300.195	4.43
300.409	4.19
300.622	4.97
300.835	5.23
301.048	5.58
301.262	5.49
301.475	6.51
301.688	9.1
301.901	9.67
302.115	6.22
302.328	3.33
302.541	4.85
302.754	2.26
302.967	2.17
303.18	2.49
303.393	0.17
303.607	-0.36
303.82	0.2
304.033	-0.46
304.246	-1.73
304.459	1.48
304.672	2.37
304.885	2.63
305.098	4.11
305.311	1.05
305.524	1.95
305.737	4.08
305.95	3.25
306.163	3.23
306.376	1.78
306.589	2.42
306.802	1.54
307.015	2.54
307.228	3.61
307.44	4.07
307.653	7.98
307.866	6.11
308.079	4.9
308.292	5.35
308.505	3.38
308.718	2.13
308.93	3.28
309.143	4.7
309.356	3.4
309.569	1.49
309.781	3.07
309.994	2.73
310.207	1.72
310.42	3.5
310.632	4.64
310.845	4.95
311.058	5.68
311.27	3.58
311.483	3
311.696	4.28
311.908	4.94
312.121	3.67
312.333	2.55
312.546	3.58
312.759	1.51
312.971	0.89
313.184	0.23
313.396	-0.57
313.609	2.15
313.821	1.69
314.034	-0.19
314.246	0.65
314.459	0.77
314.671	0.96
314.884	1.14
315.096	2.33
315.309	3.38
315.521	2.69
315.733	2.01
315.946	0.28
316.158	0.35
316.371	2.56
316.583	2.79
316.795	3.13
317.008	4.35
317.22	4.95
317.432	5.15
317.644	5.5
317.857	8.39
318.069	9.37
318.281	9.25
318.494	11.76
318.706	11.29
318.918	10.54
319.13	11.99
319.342	10.35
319.555	10.15
319.767	9.92
319.979	6.13
320.191	6.31
320.403	6.72
320.615	6.56
320.827	3.24
321.039	3.73
321.252	3.31
321.464	3.8
321.676	2.56
321.888	3.18
322.1	2.83
322.312	4.27
322.524	4.41
322.736	5.28
322.948	5.66
323.16	7.65
323.372	7.72
323.584	7.91
323.796	9.18
324.007	10.14
324.219	7.94
324.431	7.23
324.643	7.27
324.855	7.67
325.067	6.93
325.279	6.57
325.491	5.65
325.702	6.06
325.914	6.45
326.126	4.53
326.338	4.25
326.55	5.72
326.761	4.84
326.973	4.54
327.185	3
327.396	3.1
327.608	3.42
327.82	4.75
328.032	0.15
328.243	-0.86
328.455	-1.25
328.666	0.14
328.878	0.63
329.09	1.23
329.301	2.2
329.513	3.51
329.725	4.51
329.936	4.49
330.148	4.75
330.359	7.68
330.571	7.88
330.782	6.5
330.994	4.57
331.205	4.2
331.417	4.55
331.628	5.33
331.84	4.64
332.051	4.16
332.262	5.7
332.474	3.29
332.685	2.62
332.897	3.48
333.108	4.48
333.319	5.93
333.531	7.35
333.742	7.2
333.953	6.79
334.165	7.12
334.376	7.56
334.587	7.58
334.799	7.65
335.01	7.64
335.221	6.98
335.432	8.67
335.644	9.76
335.855	8.7
336.066	9.94
336.277	11.17
336.488	10.94
336.7	9.65
336.911	9.06
337.122	10.5
337.333	11.72
337.544	12.57
337.755	12.42
337.966	9.91
338.177	9.72
338.388	8.82
338.599	6.85
338.811	6.77
339.022	7.32
339.233	5.88
339.444	4.89
339.655	4.08
339.866	2.82
340.076	1.06
340.287	2.87
340.498	4.62
340.709	5.04
340.92	5.86
341.131	5.91
341.342	4.8
341.553	4.65
341.764	3.94
341.975	3.97
342.185	5
342.396	5.41
342.607	4.66
342.818	3.63
343.029	3.1
343.239	3.09
343.45	2.2
343.661	2.2
343.872	3.04
344.082	4.89
344.293	4.83
344.504	5.29
344.714	3.86
344.925	3.13
345.136	3.3
345.346	3.83
345.557	3.54
345.768	4.52
345.978	6.15
346.189	6.1
346.399	4.96
346.61	5.23
346.821	5.61
347.031	6.69
347.242	6.07
347.452	5.19
347.663	4.17
347.873	4.13
348.084	2.37
348.294	1.73
348.504	1.78
348.715	3.81
348.925	4
349.136	3.36
349.346	2.49
349.557	4.84
349.767	5.82
349.977	5.68
350.188	6.52
350.398	8.35
350.608	8.89
350.819	9.96
351.029	7.2
351.239	6.53
351.449	6.64
351.66	9.51
351.87	9.53
352.08	9.32
352.29	10.6
352.501	11.06
352.711	11.17
352.921	8.02
353.131	6.97
353.341	8.14
353.552	9.68
353.762	9.28
353.972	8.14
354.182	7.27
354.392	7.04
354.602	7.62
354.812	6.37
355.022	5.47
355.232	8.92
355.442	9.08
355.652	8.87
355.862	9.84
356.072	9.32
356.282	8.61
356.492	10.01
356.702	11.18
356.912	10.88
357.122	10.79
357.332	12.02
357.542	9.82
357.752	10.22
357.962	9.95
358.171	9.08
358.381	9.37
358.591	10.21
358.801	10.26
359.011	8.21
359.221	8.17
359.43	8.49
359.64	8.92
359.85	11.09
360.06	11.82
360.269	12.52
360.479	11.25
360.689	10.94
360.899	10.62
361.108	9.67
361.318	11.37
361.528	10.75
361.737	10.11
361.947	8.95
362.156	9.02
362.366	8.29
362.576	7.74
362.785	7.92
362.995	8.16
363.204	7.22
363.414	6.78
363.623	6.07
363.833	6.44
364.042	7.13
364.252	6.73
364.461	5.78
364.671	6.09
364.88	6.11
365.09	6.78
365.299	7.04
365.509	8.16
365.718	8.78
365.927	8.54
366.137	8
366.346	8.68
366.555	9.61
366.765	10.66
366.974	9.42
367.183	8.89
367.393	8.51
367.602	9.58
367.811	8.83
368.021	8.77
368.23	8.7
368.439	8.54
368.648	7.02
368.857	5.19
369.067	3.6
369.276	3.59
369.485	3.97
369.694	4.15
369.903	2
370.112	2.66
370.321	1.99
370.531	1.93
370.74	3.17
370.949	3.68
371.158	4.69
371.367	4.69
371.576	5.13
371.785	5.58
371.994	4.96
372.203	5.16
372.412	5.03
372.621	5.55
372.83	6.24
373.039	5.37
373.248	6.01
373.457	5.95
373.666	6.77
373.874	7.89
374.083	7.8
374.292	8.37
374.501	7.91
374.71	8.13
374.919	8.62
375.128	8.34
375.336	9.17
375.545	9.23
375.754	9.98
375.963	9.48
376.171	9.32
376.38	9.12
376.589	8.23
376.798	8.91
377.006	8.5
377.215	8.23
377.424	8.41
377.632	7.34
377.841	7.3
378.05	6.42
378.258	6.12
378.467	5.17
378.675	4.97
378.884	6.01
379.093	5.69
379.301	6.21
379.51	6.03
379.718	5.25
379.927	6.29
380.135	6.2
380.344	6.36
380.552	7.73
380.761	8.47
380.969	8.47
381.177	8.2
381.386	8.44
381.594	7.42
381.803	7.8
382.011	8.28
382.219	8.23
382.428	8.3
382.636	8.41
382.845	7.57
383.053	7.11
383.261	7.32
383.469	7.75
383.678	7.97
383.886	8.04
384.094	8.15
384.302	7.52
384.511	7.28
384.719	6.73
384.927	7.36
385.135	6.91
385.343	6.56
385.552	6.05
385.76	5.53
385.968	5.26
386.176	5.96
386.384	5.39
386.592	5.67
386.8	5.26
387.008	5.27
387.216	4.67
387.424	5.12
387.633	4.91
387.841	5.29
388.049	5.37
388.257	5.39
388.465	5.06
388.672	5.35
388.88	5.36
389.088	5.29
389.296	5.33
389.504	5.18
389.712	4.78
389.92	5.68
390.128	6.08
390.336	6.16
390.544	6.24
390.751	6.61
390.959	6.39
391.167	6
391.375	6.24
391.583	6.3
391.79	6.43
391.998	6.31
392.206	5.89
392.414	5.55
392.621	5.6
392.829	5.62
393.037	4.97
393.244	4.99
393.452	5.32
393.66	5.34
393.867	5.14
394.075	5.26
394.283	5.43
394.49	5.41
394.698	5.04
394.905	5.09
395.113	5.25
395.32	5.1
395.528	5.05
395.735	5.18
395.943	4.98
396.15	5.18
396.358	5.21
396.565	5.2
396.773	5.32
396.98	5.85
397.188	5.78
397.395	5.25
397.602	5.86
397.81	6.01
398.017	5.94
398.225	5.97
398.432	5.85
398.639	5.48
398.847	5.35
399.054	5.3
399.261	5.04
399.468	4.95
399.676	5.09
399.883	4.95
400.09	4.77
400.297	4.61
400.505	4.53
400.712	4.7
400.919	4.83
401.126	5.24
401.333	5.54
401.54	5.43
401.748	5.62
401.955	5.45
402.162	5.6
402.369	5.61
402.576	5.7
402.783	5.94
402.99	5.81
403.197	6.19
403.404	5.88
403.611	5.38
403.818	5.56
404.025	5.26
404.232	5.36
404.439	5.13
404.646	5.31
404.853	5.37
405.06	5.44
405.267	5.67
405.474	5.34
405.681	5.41
405.887	5.77
406.094	5.6
406.301	5.25
406.508	5.61
406.715	5.58
406.922	5.41
407.128	5.32
407.335	5.02
407.542	4.67
407.749	4.84
407.955	4.62
408.162	4.67
408.369	4.65
408.575	5.02
408.782	4.7
408.989	4.71
409.195	4.68
409.402	4.56
409.609	4.39
409.815	4.79
410.022	4.66
410.228	4.89
410.435	4.48
410.642	4.6
410.848	4.74
411.055	4.55
411.261	4.41
411.468	4.54
411.674	4.73
411.881	4.79
412.087	4.52
412.294	4.78
412.5	4.58
412.706	4.77
412.913	4.98
413.119	4.93
413.326	5.05
413.532	5.32
413.738	5.25
413.945	5.21
414.151	5.5
414.357	5.57
414.564	5.42
414.77	5.56
414.976	5.53
415.182	5.18
415.389	5.24
415.595	5.29
415.801	5.29
416.007	5.59
416.214	5.57
416.42	5.42
416.626	5.23
416.832	5.42
417.038	5.53
417.244	5.65
417.45	5.68
417.657	5.51
417.863	5.84
418.069	5.89
418.275	5.66
418.481	5.68
418.687	5.73
418.893	6.03
419.099	5.99
419.305	5.96
419.511	5.83
419.717	6.08
419.923	6.19
420.129	6.02
420.335	6.01
420.541	6.06
420.746	6.06
420.952	6.24
421.158	6.09
421.364	5.94
421.57	5.82
421.776	5.97
421.982	5.91
422.187	5.9
422.393	5.83
422.599	5.8
422.805	5.94
423.01	5.85
423.216	5.76
423.422	5.78
423.628	5.78
423.833	5.98
424.039	5.99
424.245	5.8
424.45	5.78
424.656	5.84
424.862	5.88
425.067	5.71
425.273	5.91
425.478	5.89
425.684	5.98
425.889	5.99
426.095	5.76
426.301	5.56
426.506	5.77
426.712	5.75
426.917	5.75
427.123	5.87
427.328	5.93
427.533	5.74
427.739	5.61
427.944	5.36
428.15	5.49
428.355	5.54
428.561	5.68
428.766	5.5
428.971	5.52
429.177	5.3
429.382	5.04
429.587	4.84
429.793	4.98
429.998	5.04
430.203	5.13
430.408	5
430.614	4.98
430.819	4.94
431.024	5.03
431.229	5.07
431.434	5.15
431.64	5.07
431.845	5.11
432.05	4.82
432.255	4.74
432.46	4.77
432.665	4.84
432.87	4.72
433.076	4.78
433.281	4.76
433.486	4.66
433.691	4.74
433.896	4.8
434.101	4.73
434.306	4.89
434.511	5
434.716	4.78
434.921	4.66
435.126	4.74
435.331	4.7
435.535	4.68
435.74	4.73
435.945	4.85
436.15	4.95
436.355	5.18
436.56	5.15
436.765	5.22
436.97	5.46
437.174	5.52
437.379	5.8
437.584	5.73
437.789	5.93
437.993	5.81
438.198	5.59
438.403	5.66
438.608	5.52
438.812	5.67
439.017	5.6
439.222	5.62
439.426	5.42
439.631	5.3
439.836	5.47
440.04	5.42
440.245	5.56
440.45	5.51
440.654	5.38
440.859	5.46
441.063	5.36
441.268	5.37
441.472	5.32
441.677	5.51
441.881	5.48
442.086	5.32
442.29	5.25
442.495	5.28
442.699	5.29
442.904	5.34
443.108	5.24
443.312	5.25
443.517	5.25
443.721	5.21
443.925	5.18
444.13	5.08
444.334	5.06
444.538	4.95
444.743	4.91
444.947	5.04
445.151	5.13
445.356	5.2
445.56	5.18
445.764	5.1
445.968	5.13
446.173	5.27
446.377	5.35
446.581	5.36
446.785	5.47
446.989	5.49
447.193	5.44
447.398	5.36
447.602	5.23
447.806	5.19
448.01	5.16
448.214	5.2
448.418	5.09
448.622	5.11
448.826	5.15
449.03	5.06
449.234	4.86
449.438	4.95
449.642	4.81
449.846	4.92
450.05	4.94
450.254	5.11
450.458	4.98
450.662	4.83
450.866	4.76
451.069	4.86
451.273	4.72
451.477	4.89
451.681	4.58
451.885	4.76
452.089	4.61
452.292	4.63
452.496	4.5
452.7	4.37
452.904	4.49
453.107	4.52
453.311	4.37
453.515	4.55
453.719	4.57
453.922	4.88
454.126	4.83
454.33	5.04
454.533	5.03
454.737	5.05
454.94	5.18
455.144	5.14
455.348	5.11
455.551	5.11
455.755	4.83
455.958	4.86
456.162	4.51
456.365	4.44
456.569	4.41
456.772	4.26
456.976	4.43
457.179	4.58
457.383	4.29
457.586	4.24
457.79	4.21
457.993	4.34
458.196	4.43
458.4	4.64
458.603	4.75
458.807	4.71
459.01	4.83
459.213	4.79
459.417	4.82
459.62	5.05
459.823	5.19
460.026	5.15
460.23	5.2
460.433	5.1
460.636	5.1
460.839	4.93
461.042	4.99
461.246	4.87
461.449	4.74
461.652	4.6
461.855	4.6
462.058	4.5
462.261	4.48
462.464	4.53
462.668	4.52
462.871	4.48
463.074	4.62
463.277	4.45
463.48	4.68
