Data from 2937887_Reflection_1.txt Node
Date: Wed Jul 15 14:27:21 EDT 2015
User: robert
Spectrometer: USB4E03001
Autoset integration time: false
Trigger mode: 4
Integration Time (sec): 1.000000E-1
Scans to average: 10
Electric dark correction enabled: true
Nonlinearity correction enabled: false
Boxcar width: 5
Stray light correction enabled: false
XAxis mode: Wavelengths
Stop averaging: false
Number of Pixels in Spectrum: 3648
>>>>>Begin Spectral Data<<<<<
177.566	11648.89
177.785	-636.18
178.005	-64.28
178.225	-22.6
178.445	-88.04
178.665	-93.55
178.885	-135.71
179.105	-700.7
179.324	-274.34
179.544	-2793.75
179.764	742.98
179.984	-259.92
180.204	-105.54
180.423	-27.34
180.643	-23.27
180.863	-28.69
181.083	-68.59
181.302	-75.75
181.522	-60.94
181.742	-63.61
181.961	-45.63
182.181	-38.63
182.401	-43.64
182.621	-29.96
182.84	-33.9
183.06	-35.32
183.279	-25.27
183.499	2.42
183.719	6.67
183.938	29.52
184.158	34.68
184.377	17.89
184.597	3.73
184.816	-5.57
185.036	-9.33
185.256	0.89
185.475	2.3
185.695	-1.31
185.914	6.99
186.134	4.87
186.353	-29.07
186.572	-34.53
186.792	-33.78
187.011	-49.18
187.231	-72.93
187.45	-69.61
187.67	-100.81
187.889	-21.24
188.108	-39.98
188.328	-59.77
188.547	-66.36
188.766	-63.95
188.986	-52.19
189.205	-18.21
189.424	30.73
189.644	30.39
189.863	5.95
190.082	-9.16
190.302	-2.94
190.521	2.74
190.74	2.92
190.959	-17.1
191.178	1.74
191.398	-38.24
191.617	-82.89
191.836	-217.31
192.055	-148.47
192.274	-53.08
192.494	-49.44
192.713	-134.78
192.932	-143.2
193.151	-235.87
193.37	-122.48
193.589	-123.48
193.808	-66.54
194.027	-78.38
194.246	-26.2
194.465	-44.49
194.685	-104.24
194.904	-85.07
195.123	-100.11
195.342	-88.07
195.561	-8.64
195.78	-22.29
195.999	-31.6
196.218	-32.38
196.436	2.11
196.655	9.18
196.874	-5.61
197.093	24.76
197.312	10.79
197.531	28.33
197.75	29.95
197.969	19.63
198.188	48.02
198.407	68.03
198.625	73.04
198.844	64.53
199.063	40.08
199.282	18.26
199.501	39.35
199.719	59.12
199.938	5.99
200.157	-28.11
200.376	-23.29
200.594	-146.92
200.813	-116.55
201.032	-200.25
201.251	-80.79
201.469	-615.14
201.688	-2729.79
201.907	3044.73
202.125	3547.62
202.344	499.19
202.563	313.39
202.781	367.8
203	404.5
203.218	465.06
203.437	-265.71
203.656	363400
203.874	-303.4
204.093	-316.95
204.311	-116.07
204.53	-215.74
204.748	-66.71
204.967	-42.67
205.185	-63.19
205.404	-67.52
205.622	-46.26
205.841	-20.19
206.059	-14.11
206.278	-6.79
206.496	-22.8
206.715	-26.29
206.933	-6.16
207.151	10.89
207.37	-65.25
207.588	-31.77
207.806	-117.42
208.025	-35.9
208.243	-42.92
208.461	-73.25
208.68	-69.62
208.898	-64.27
209.116	-113.31
209.335	-147.76
209.553	-119.48
209.771	-148.65
209.989	-80.64
210.208	-36.95
210.426	-351.06
210.644	-1044.14
210.862	-328.6
211.081	-192.11
211.299	-64.71
211.517	15.83
211.735	59.47
211.953	-67.66
212.171	48.53
212.39	-467.99
212.608	-82.97
212.826	-72.1
213.044	2.79
213.262	-21.23
213.48	-212.53
213.698	-423.14
213.916	-394.32
214.134	-105.14
214.352	-33.9
214.57	-107.13
214.788	-81.58
215.006	-146.11
215.224	-345.79
215.442	-801.75
215.66	-249.38
215.878	-129.1
216.096	-150.15
216.314	-1755.56
216.532	1063.61
216.75	496.95
216.968	910.63
217.185	354.34
217.403	526.58
217.621	178.5
217.839	128
218.057	80.95
218.275	-40.37
218.492	-203.02
218.71	-49.17
218.928	4.36
219.146	-11.06
219.363	-200.58
219.581	-94.48
219.799	-177.79
220.017	-383.99
220.234	-495.48
220.452	-740.39
220.67	265.25
220.887	534.67
221.105	21.2
221.323	6.52
221.54	102.55
221.758	85.87
221.976	164.44
222.193	202.56
222.411	216.69
222.629	200.75
222.846	207.09
223.064	337.53
223.281	435.03
223.499	-899.35
223.716	-656.82
223.934	-178.65
224.151	-99.95
224.369	-60.12
224.586	-43.71
224.804	-2.38
225.021	19.71
225.239	13.88
225.456	4.01
225.674	7.09
225.891	22.35
226.108	31.54
226.326	30.33
226.543	47.15
226.76	33.73
226.978	36.16
227.195	26.43
227.413	13.74
227.63	19.57
227.847	18.95
228.064	15.03
228.282	12.44
228.499	14.26
228.716	13.61
228.934	10.01
229.151	12.08
229.368	11.71
229.585	13.63
229.802	15.84
230.02	12.45
230.237	15.36
230.454	17.21
230.671	19.67
230.888	17.15
231.105	18.15
231.323	18.27
231.54	20.71
231.757	16.2
231.974	15.04
232.191	1.81
232.408	6.82
232.625	-0.42
232.842	1.69
233.059	-2.02
233.276	2.56
233.493	-0.56
233.71	0.82
233.927	-4.99
234.144	-1.81
234.361	0.58
234.578	10.87
234.795	6.27
235.012	10.55
235.229	9.63
235.446	15.92
235.663	16.06
235.879	16.15
236.096	14.84
236.313	24.83
236.53	26.43
236.747	32.77
236.964	28.31
237.181	32.96
237.397	27.57
237.614	27.84
237.831	19.72
238.048	18.26
238.264	19.59
238.481	21.19
238.698	9.69
238.915	13.46
239.131	11.81
239.348	15.83
239.565	9.8
239.781	13.73
239.998	15.06
240.215	15.81
240.431	17.05
240.648	11.83
240.865	11.67
241.081	15.04
241.298	11.87
241.514	13.79
241.731	14.27
241.947	15.7
242.164	13.8
242.38	14.29
242.597	16.63
242.814	16.19
243.03	15.91
243.246	17.96
243.463	17.28
243.679	20.4
243.896	19.24
244.112	19.95
244.329	18.8
244.545	19.99
244.762	19.11
244.978	15.68
245.194	18.35
245.411	21.3
245.627	16.85
245.843	17
246.06	16.21
246.276	16.11
246.492	14.87
246.709	15.87
246.925	15.85
247.141	15.79
247.357	16.14
247.574	15.98
247.79	15.12
248.006	16.34
248.222	16.04
248.439	14.7
248.655	14.54
248.871	14.48
249.087	14.58
249.303	15.14
249.519	13.17
249.736	13.95
249.952	12.35
250.168	12.21
250.384	11.54
250.6	11.67
250.816	13.4
251.032	12.45
251.248	12.57
251.464	12.12
251.68	11
251.896	13.18
252.112	12.42
252.328	12.19
252.544	12.28
252.76	10.13
252.976	10.72
253.192	11.02
253.408	12.7
253.624	12.79
253.84	12.72
254.056	9.64
254.272	8.78
254.487	5.76
254.703	5.45
254.919	7.35
255.135	5.69
255.351	5.72
255.567	4.48
255.782	0.72
255.998	-0.17
256.214	-2.81
256.43	1.15
256.646	5.34
256.861	7.22
257.077	7.37
257.293	6.85
257.508	11.33
257.724	11.83
257.94	11.89
258.155	11.27
258.371	10.86
258.587	11.82
258.802	11.71
259.018	11.17
259.234	12.31
259.449	12.58
259.665	12.07
259.88	11.62
260.096	10.9
260.312	10.73
260.527	10.66
260.743	11.17
260.958	9.9
261.174	10.07
261.389	9.92
261.605	8.52
261.82	7.81
262.036	7.86
262.251	8.03
262.466	9.24
262.682	8.61
262.897	10.41
263.113	9.91
263.328	12.06
263.543	12.13
263.759	12.77
263.974	13.51
264.189	12.36
264.405	10.62
264.62	10.74
264.835	7.39
265.051	5.06
265.266	6.19
265.481	5.7
265.696	6.67
265.912	6.86
266.127	6.54
266.342	6.17
266.557	6.81
266.773	7.69
266.988	6.24
267.203	6.62
267.418	10.58
267.633	8.22
267.848	8.89
268.064	9.53
268.279	9.74
268.494	8.57
268.709	8.95
268.924	9.74
269.139	10.42
269.354	11.72
269.569	10.79
269.784	8.87
269.999	9.48
270.214	10.35
270.429	9.38
270.644	7.71
270.859	8.68
271.074	9.31
271.289	10.28
271.504	10.41
271.719	9.78
271.934	11.2
272.149	10.47
272.363	9.78
272.578	8.89
272.793	8.86
273.008	10.03
273.223	9.84
273.438	9.55
273.653	8.54
273.867	7.82
274.082	7.72
274.297	7.49
274.512	8.41
274.726	9.24
274.941	10.52
275.156	8.83
275.371	8.57
275.585	10.14
275.8	10.54
276.015	10.78
276.229	10.79
276.444	9.98
276.659	10.32
276.873	9.41
277.088	10.5
277.302	10.08
277.517	12.91
277.732	13.71
277.946	12.41
278.161	12.38
278.375	11.34
278.59	11.39
278.804	11.82
279.019	11.05
279.233	11.95
279.448	10.32
279.662	10.07
279.877	9.02
280.091	8.54
280.306	8.23
280.52	7.63
280.735	9.99
280.949	9.68
281.163	8.5
281.378	9.38
281.592	10.14
281.806	9.25
282.021	8.39
282.235	9.09
282.449	9.86
282.664	10.34
282.878	10.4
283.092	8.92
283.307	10.79
283.521	11.54
283.735	11.43
283.949	10.92
284.164	12.73
284.378	12.46
284.592	10.65
284.806	8.73
285.02	7.87
285.234	9.29
285.449	10.26
285.663	8.8
285.877	9.11
286.091	9.38
286.305	9.46
286.519	8.76
286.733	9.3
286.947	10.32
287.161	11.91
287.375	12.2
287.589	10.41
287.803	8.74
288.017	8.85
288.231	8.5
288.445	7.49
288.659	8.59
288.873	8.23
289.087	6.7
289.301	6.92
289.515	6.37
289.729	7.63
289.943	8.41
290.157	9.98
290.371	9.39
290.584	10.8
290.798	11.75
291.012	11.1
291.226	11.39
291.44	12.97
291.654	12.99
291.867	12.63
292.081	11.1
292.295	10.49
292.509	9.1
292.722	9.25
292.936	7.29
293.15	6.19
293.364	5.09
293.577	5.49
293.791	6.27
294.005	7.24
294.218	7.45
294.432	7.02
294.645	8.12
294.859	8.82
295.073	10.15
295.286	11.59
295.5	11.97
295.713	11.92
295.927	12.11
296.14	11.55
296.354	10.61
296.568	11.37
296.781	12.23
296.994	12.31
297.208	11.79
297.421	12.31
297.635	12
297.848	11.81
298.062	12.17
298.275	11.62
298.489	11.6
298.702	12.27
298.915	11.71
299.129	11.98
299.342	11.14
299.555	12.67
299.769	12.25
299.982	13.26
300.195	14.16
300.409	14.02
300.622	13.83
300.835	13.76
301.048	12.4
301.262	12.76
301.475	12.94
301.688	14.1
301.901	13.02
302.115	12.14
302.328	12.34
302.541	12.24
302.754	13.37
302.967	14.02
303.18	13.42
303.393	15.05
303.607	14.25
303.82	13.34
304.033	13.64
304.246	14.34
304.459	14.85
304.672	12.99
304.885	14.38
305.098	13.57
305.311	13.34
305.524	13.5
305.737	13
305.95	14.07
306.163	14.48
306.376	13.54
306.589	10.69
306.802	10.86
307.015	11.7
307.228	10.27
307.44	10.11
307.653	11.79
307.866	11.44
308.079	11.02
308.292	12.32
308.505	13.84
308.718	13.96
308.93	16.51
309.143	17.02
309.356	18.01
309.569	18.25
309.781	19.51
309.994	19.18
310.207	19.12
310.42	18.83
310.632	18.86
310.845	17.82
311.058	17.12
311.27	17.16
311.483	16.64
311.696	16.37
311.908	16.47
312.121	14.92
312.333	14.8
312.546	16.34
312.759	17.47
312.971	16.66
313.184	17.63
313.396	19.9
313.609	20.37
313.821	20.93
314.034	19.99
314.246	19.82
314.459	21.31
314.671	21.88
314.884	20.03
315.096	18.78
315.309	18.68
315.521	17.01
315.733	14.76
315.946	13.33
316.158	11.62
316.371	10.83
316.583	10.44
316.795	10.02
317.008	8.65
317.22	9.87
317.432	11.29
317.644	11.45
317.857	13.99
318.069	14.72
318.281	15.34
318.494	17.17
318.706	19.75
318.918	20
319.13	20.25
319.342	21.22
319.555	23.02
319.767	23.5
319.979	23.07
320.191	22
320.403	22.64
320.615	23.54
320.827	23.37
321.039	23.53
321.252	24.76
321.464	25.93
321.676	23.88
321.888	21.82
322.1	22.33
322.312	22.2
322.524	22.9
322.736	22.18
322.948	20.65
323.16	19.81
323.372	17.43
323.584	15.66
323.796	15.26
324.007	16.63
324.219	17.47
324.431	16.35
324.643	16.85
324.855	15.05
325.067	14.35
325.279	14.6
325.491	15.42
325.702	15.58
325.914	16.26
326.126	14
326.338	14.94
326.55	15.18
326.761	15.64
326.973	16.78
327.185	18.65
327.396	19.92
327.608	21.79
327.82	21.83
328.032	23.29
328.243	23.32
328.455	25.44
328.666	25.55
328.878	25.28
329.09	24.67
329.301	23.81
329.513	24.26
329.725	23.82
329.936	23.12
330.148	23.98
330.359	24.45
330.571	24.47
330.782	25.4
330.994	24.32
331.205	24.12
331.417	25.12
331.628	23.55
331.84	23.4
332.051	24.14
332.262	25.23
332.474	24.39
332.685	24.43
332.897	24.59
333.108	24.24
333.319	25.37
333.531	26.08
333.742	25.39
333.953	25.76
334.165	25.28
334.376	25.23
334.587	24.41
334.799	24.69
335.01	23.21
335.221	21.78
335.432	20.78
335.644	19.32
335.855	18.43
336.066	17.73
336.277	18.37
336.488	19.15
336.7	19.78
336.911	19.06
337.122	19.26
337.333	19.94
337.544	21.61
337.755	20.83
337.966	20.73
338.177	20.98
338.388	22.26
338.599	23.16
338.811	21.67
339.022	21.85
339.233	22.58
339.444	22.53
339.655	21.85
339.866	21.2
340.076	22.01
340.287	22.86
340.498	23.42
340.709	20.84
340.92	19.75
341.131	20.36
341.342	19.45
341.553	19.33
341.764	19.04
341.975	20.4
342.185	20.67
342.396	21.45
342.607	21.56
342.818	21.32
343.029	23.93
343.239	23.22
343.45	24.12
343.661	24.3
343.872	22.7
344.082	22.71
344.293	22.73
344.504	22.39
344.714	22.35
344.925	21.85
345.136	22.14
345.346	21.98
345.557	22.36
345.768	21.39
345.978	21.57
346.189	23.14
346.399	22.65
346.61	20.78
346.821	21.83
347.031	21.98
347.242	21.74
347.452	21.08
347.663	21.69
347.873	22.61
348.084	22.42
348.294	22.17
348.504	21.21
348.715	22.23
348.925	23.68
349.136	22.36
349.346	22
349.557	22.28
349.767	22.03
349.977	20.71
350.188	19.36
350.398	19.87
350.608	19.49
350.819	20.51
351.029	19.64
351.239	19.24
351.449	20.42
351.66	19.54
351.87	18.72
352.08	17.53
352.29	16.81
352.501	17.48
352.711	17.16
352.921	17.34
353.131	16.44
353.341	16.69
353.552	16.6
353.762	15.85
353.972	16.23
354.182	17.97
354.392	19.01
354.602	19.53
354.812	18.8
355.022	19.36
355.232	18.36
355.442	18.37
355.652	17.49
355.862	17.5
356.072	17.62
356.282	16.84
356.492	16.23
356.702	15.78
356.912	16.03
357.122	16.57
357.332	15.57
357.542	15.66
357.752	16.19
357.962	16.31
358.171	17.06
358.381	16.95
358.591	18.03
358.801	18.02
359.011	18.16
359.221	17.04
359.43	17.28
359.64	17.53
359.85	17.49
360.06	17.51
360.269	17.53
360.479	16.5
360.689	15.77
360.899	15.71
361.108	15.62
361.318	15.99
361.528	16.18
361.737	16.32
361.947	15.95
362.156	16.15
362.366	15.68
362.576	15.54
362.785	15.71
362.995	16.07
363.204	15.61
363.414	15.66
363.623	15.57
363.833	15.77
364.042	15.49
364.252	15.79
364.461	15.66
364.671	15.59
364.88	15.8
365.09	16.15
365.299	15.77
365.509	15.71
365.718	15.56
365.927	15.56
366.137	15.6
366.346	15.07
366.555	14.82
366.765	14.74
366.974	13.96
367.183	14.18
367.393	14.11
367.602	14.13
367.811	13.84
368.021	13.3
368.23	13.24
368.439	13.97
368.648	15.12
368.857	15.34
369.067	16.01
369.276	17.08
369.485	16.95
369.694	16.05
369.903	16.01
370.112	16.42
370.321	16.42
370.531	16.48
370.74	15.52
370.949	14.64
371.158	14.59
371.367	14.33
371.576	13.62
371.785	13.51
371.994	13.43
372.203	13.63
372.412	13.77
372.621	14.25
372.83	13.77
373.039	14.59
373.248	14.96
373.457	14.35
373.666	14.28
373.874	14.77
374.083	14.93
374.292	15.33
374.501	15.79
374.71	14.8
374.919	14.91
375.128	14.31
375.336	13.73
375.545	13.79
375.754	14.17
375.963	13.57
376.171	14.03
376.38	13.78
376.589	14.04
376.798	13.61
377.006	14.11
377.215	13.89
377.424	14.52
377.632	14.55
377.841	14.37
378.05	15.15
378.258	15.49
378.467	15.44
378.675	15.28
378.884	15.03
379.093	15.12
379.301	14.88
379.51	15
379.718	15
379.927	14.74
380.135	14.61
380.344	14.19
380.552	13.43
380.761	12.57
380.969	12.83
381.177	11.88
381.386	12.09
381.594	12.36
381.803	11.67
382.011	11.52
382.219	11.36
382.428	11.02
382.636	10.56
382.845	10.89
383.053	11.05
383.261	10.74
383.469	11.27
383.678	10.51
383.886	10.53
384.094	11.02
384.302	11.18
384.511	11
384.719	10.91
384.927	11.12
385.135	11.23
385.343	11.35
385.552	11.3
385.76	11.46
385.968	11.77
386.176	11.81
386.384	11.38
386.592	10.96
386.8	11.2
387.008	11.27
387.216	10.66
387.424	10.73
387.633	10.2
387.841	10.12
388.049	10.25
388.257	9.79
388.465	10.08
388.672	10.2
388.88	10.35
389.088	10.13
389.296	9.86
389.504	9.98
389.712	10.42
389.92	10.72
390.128	10.96
390.336	10.6
390.544	10.99
390.751	10.78
390.959	10.8
391.167	10.96
391.375	11.12
391.583	11.25
391.79	11.37
391.998	10.85
392.206	10.98
392.414	10.95
392.621	11.4
392.829	11.41
393.037	11.06
393.244	11.3
393.452	11.01
393.66	10.98
393.867	11.09
394.075	11.39
394.283	11.57
394.49	11.16
394.698	11.11
394.905	10.77
395.113	10.89
395.32	10.84
395.528	10.5
395.735	10.48
395.943	10.21
396.15	10.11
396.358	9.73
396.565	9.52
396.773	9.67
396.98	9.55
397.188	9.7
397.395	9.87
397.602	10.14
397.81	9.9
398.017	9.82
398.225	9.86
398.432	9.88
398.639	10.05
398.847	10.31
399.054	10.09
399.261	10.04
399.468	9.65
399.676	9.5
399.883	9.48
400.09	9.59
400.297	10
400.505	10.52
400.712	10.54
400.919	10.39
401.126	9.95
401.333	10.17
401.54	10.22
401.748	10.37
401.955	10.08
402.162	9.83
402.369	10.04
402.576	10.14
402.783	9.86
402.99	9.94
403.197	10.04
403.404	10.05
403.611	10.45
403.818	10.22
404.025	10.14
404.232	10.16
404.439	10.31
404.646	9.92
404.853	9.78
405.06	9.91
405.267	9.59
405.474	9.58
405.681	9.77
405.887	9.86
406.094	10.07
406.301	9.95
406.508	9.66
406.715	9.57
406.922	9.94
407.128	9.66
407.335	9.23
407.542	8.92
407.749	8.99
407.955	8.91
408.162	8.41
408.369	8.24
408.575	8.63
408.782	8.94
408.989	8.79
409.195	8.41
409.402	8.25
409.609	8.32
409.815	8.79
410.022	8.7
410.228	8.49
410.435	8.4
410.642	8.49
410.848	8.16
411.055	8.3
411.261	8.15
411.468	7.97
411.674	8.22
411.881	8.19
412.087	8.35
412.294	8.22
412.5	8.46
412.706	8.35
412.913	8.35
413.119	8.34
413.326	7.98
413.532	8.29
413.738	8.81
413.945	8.68
414.151	8.47
414.357	8.44
414.564	8.43
414.77	8.41
414.976	8.58
415.182	8.33
415.389	8.31
415.595	8.41
415.801	8.25
416.007	8.4
416.214	8.29
416.42	8.6
416.626	8.57
416.832	8.5
417.038	8.46
417.244	8.57
417.45	8.78
417.657	8.87
417.863	8.94
418.069	8.95
418.275	8.86
418.481	9.06
418.687	8.82
418.893	8.85
419.099	8.9
419.305	8.9
419.511	8.71
419.717	8.73
419.923	8.79
420.129	8.73
420.335	8.72
420.541	8.56
420.746	8.33
420.952	8.33
421.158	8.07
421.364	7.97
421.57	7.83
421.776	8.09
421.982	7.89
422.187	7.78
422.393	7.72
422.599	7.8
422.805	7.93
423.01	8.02
423.216	8.11
423.422	8.16
423.628	8.19
423.833	8.33
424.039	8.17
424.245	8.43
424.45	8.6
424.656	8.72
424.862	8.59
425.067	8.5
425.273	8.48
425.478	8.41
425.684	8.48
425.889	8.39
426.095	8.45
426.301	8.5
426.506	8.12
426.712	7.88
426.917	7.71
427.123	7.68
427.328	7.61
427.533	7.61
427.739	7.71
427.944	7.63
428.15	7.67
428.355	7.59
428.561	7.46
428.766	7.53
428.971	7.75
429.177	7.85
429.382	7.9
429.587	7.96
429.793	7.78
429.998	7.73
430.203	8.09
430.408	8.14
430.614	8.29
430.819	8.31
431.024	8.38
431.229	8.28
431.434	8.27
431.64	8.23
431.845	8.17
432.05	8.34
432.255	8.3
432.46	8.01
432.665	8.04
432.87	7.88
433.076	7.88
433.281	7.93
433.486	7.9
433.691	7.81
433.896	7.73
434.101	7.69
434.306	7.7
434.511	7.75
434.716	8.05
434.921	8.18
435.126	8.15
435.331	8.03
435.535	8.13
435.74	8.18
435.945	8.31
436.15	8.58
436.355	8.81
436.56	8.67
436.765	8.56
436.97	8.28
437.174	7.95
437.379	7.91
437.584	8.03
437.789	7.92
437.993	7.94
438.198	7.94
438.403	7.68
438.608	7.41
438.812	7.55
439.017	7.74
439.222	7.63
439.426	7.75
439.631	7.63
439.836	7.57
440.04	7.65
440.245	7.37
440.45	7.36
440.654	7.42
440.859	7.52
441.063	7.47
441.268	7.2
441.472	7.25
441.677	7.24
441.881	7.45
442.086	7.43
442.29	7.27
442.495	7.47
442.699	7.51
442.904	7.65
443.108	7.66
443.312	7.88
443.517	8.08
443.721	7.76
443.925	7.77
444.13	7.91
444.334	7.99
444.538	7.97
444.743	7.88
444.947	7.68
445.151	7.44
445.356	7.44
445.56	7.48
445.764	7.41
445.968	7.62
446.173	7.65
446.377	7.47
446.581	7.49
446.785	7.48
446.989	7.44
447.193	7.6
447.398	7.8
447.602	7.78
447.806	7.61
448.01	7.76
448.214	7.77
448.418	7.74
448.622	7.63
448.826	7.47
449.03	7.61
449.234	7.91
449.438	7.87
449.642	7.71
449.846	7.73
450.05	7.64
450.254	7.36
450.458	7.38
450.662	7.41
450.866	7.48
451.069	7.63
451.273	7.51
451.477	7.37
451.681	7.09
451.885	7.08
452.089	7.06
452.292	7.06
452.496	7.07
452.7	7.04
452.904	7.07
453.107	7.19
453.311	7.14
453.515	7.13
453.719	7.08
453.922	7.11
454.126	7.15
454.33	7.13
454.533	7.22
454.737	7.21
454.94	7.24
455.144	7.18
455.348	7.11
455.551	7.03
455.755	6.98
455.958	7.06
456.162	7.21
456.365	7.35
456.569	7.29
456.772	7.28
456.976	7.39
457.179	7.13
457.383	7.18
457.586	7.28
457.79	7.25
457.993	7.33
458.196	7.16
458.4	7.22
458.603	7.07
458.807	7.17
459.01	7.01
459.213	7.2
459.417	7.38
459.62	7.36
459.823	7.32
460.026	7.4
460.23	7.29
