Data from 2937884_Reflection_3.txt Node
Date: Wed Jul 15 14:37:13 EDT 2015
User: robert
Spectrometer: USB4E03001
Autoset integration time: false
Trigger mode: 4
Integration Time (sec): 1.000000E-1
Scans to average: 10
Electric dark correction enabled: true
Nonlinearity correction enabled: false
Boxcar width: 5
Stray light correction enabled: false
XAxis mode: Wavelengths
Stop averaging: false
Number of Pixels in Spectrum: 3648
>>>>>Begin Spectral Data<<<<<
177.566	83.41
177.785	114.18
178.005	111.26
178.225	85.34
178.445	202.43
178.665	-14.13
178.885	-62.25
179.105	57.13
179.324	71.12
179.544	179.47
179.764	238.72
179.984	149.62
180.204	268.25
180.423	267.86
180.643	250.87
180.863	-156.59
181.083	66.89
181.302	-28.17
181.522	12.51
181.742	98.23
181.961	176.14
182.181	208.66
182.401	145.46
182.621	184.06
182.84	145.85
183.06	175.84
183.279	144.09
183.499	168.86
183.719	142
183.938	218.98
184.158	215.52
184.377	54144.44
184.597	122.4
184.816	131.2
185.036	149.04
185.256	169.91
185.475	178.68
185.695	152.33
185.914	1643.36
186.134	-177.26
186.353	-267.91
186.572	-306.35
186.792	-12.83
187.011	-19.45
187.231	-133.38
187.45	-54.07
187.67	-90.49
187.889	-102.61
188.108	17.77
188.328	306.5
188.547	181.68
188.766	-21.22
188.986	98.83
189.205	30.69
189.424	13.05
189.644	122.26
189.863	449.52
190.082	320.93
190.302	94.86
190.521	6.42
190.74	-15.73
190.959	-12733.33
191.178	92.11
191.398	40.2
191.617	53.2
191.836	-26.61
192.055	23.41
192.274	-45.39
192.494	133.63
192.713	431.8
192.932	254.16
193.151	387.42
193.37	89.36
193.589	37.01
193.808	44.35
194.027	5.93
194.246	51.11
194.465	182.95
194.685	99.74
194.904	1245.16
195.123	258.27
195.342	183.89
195.561	141.46
195.78	137.17
195.999	122.4
196.218	120.45
196.436	155.49
196.655	69.27
196.874	104.3
197.093	146.62
197.312	-81.85
197.531	-156.44
197.75	-215.13
197.969	-305.7
198.188	-361.79
198.407	-302.86
198.625	-232.39
198.844	-168.92
199.063	-112.84
199.282	-121.74
199.501	-179.24
199.719	-110.06
199.938	-50.77
200.157	101.8
200.376	159.66
200.594	324.11
200.813	70.53
201.032	363.57
201.251	-332.81
201.469	-165.43
201.688	-279.23
201.907	-71.64
202.125	6.5
202.344	-9.54
202.563	2.81
202.781	-61.5
203	-68.56
203.218	-191.33
203.437	-119.17
203.656	-52.27
203.874	-77.26
204.093	-81.99
204.311	-331.99
204.53	-350.19
204.748	-413.62
204.967	-143.82
205.185	-93.9
205.404	-84.52
205.622	-9.29
205.841	-28.29
206.059	-54.8
206.278	62.54
206.496	61.71
206.715	134.49
206.933	74.52
207.151	-533.61
207.37	-455.36
207.588	3494.56
207.806	674.69
208.025	-155.22
208.243	-383.57
208.461	-231.36
208.68	-13.24
208.898	31.78
209.116	100.75
209.335	32.94
209.553	-695.12
209.771	-171
209.989	359.92
210.208	693.43
210.426	-128.13
210.644	-406.29
210.862	534.34
211.081	759.21
211.299	-532.86
211.517	-165.07
211.735	-932.61
211.953	635
212.171	631.03
212.39	26254.29
212.608	470.34
212.826	263.61
213.044	203.46
213.262	176.96
213.48	327.05
213.698	287.01
213.916	155.11
214.134	495.69
214.352	640.05
214.57	151.36
214.788	38.81
215.006	87.23
215.224	14.1
215.442	-109.76
215.66	143.92
215.878	331.54
216.096	-583.16
216.314	63.6
216.532	43.14
216.75	27.34
216.968	9.69
217.185	-27.47
217.403	-12.37
217.621	-28.11
217.839	-65.3
218.057	-77.01
218.275	-72.58
218.492	-99.87
218.71	-168.31
218.928	-748.8
219.146	460.08
219.363	-946.45
219.581	4024.78
219.799	411.32
220.017	-106.15
220.234	19.09
220.452	22.86
220.67	48.15
220.887	74.12
221.105	52.45
221.323	41.37
221.54	48.56
221.758	37.7
221.976	50.68
222.193	38.63
222.411	-2.44
222.629	-5.3
222.846	-3.01
223.064	6.38
223.281	-6.76
223.499	11.21
223.716	2.13
223.934	-18.28
224.151	-58.58
224.369	-55.86
224.586	-63.3
224.804	11.44
225.021	30.83
225.239	-15.87
225.456	-48.57
225.674	-48.55
225.891	-64.16
226.108	-53.54
226.326	-44.93
226.543	-9.98
226.76	-18.55
226.978	-11.75
227.195	-16.73
227.413	-31.32
227.63	-15.14
227.847	-2.08
228.064	-4.88
228.282	4.45
228.499	1.46
228.716	2.45
228.934	-0.33
229.151	5.52
229.368	1.85
229.585	4.17
229.802	8.43
230.02	10.04
230.237	6.15
230.454	7.8
230.671	4.26
230.888	7.87
231.105	11.53
231.323	14.12
231.54	11.93
231.757	18.85
231.974	22.51
232.191	17.33
232.408	22.09
232.625	27.67
232.842	26.68
233.059	26.44
233.276	29.58
233.493	25.96
233.71	23.13
233.927	23.48
234.144	17.18
234.361	16.44
234.578	18.46
234.795	5.73
235.012	2.65
235.229	-1.15
235.446	5.1
235.663	4.1
235.879	-2.59
236.096	4.41
236.313	-1.1
236.53	3.94
236.747	-2.25
236.964	5.3
237.181	22.13
237.397	26.73
237.614	26.52
237.831	28.16
238.048	22.71
238.264	21.43
238.481	23.88
238.698	26.69
238.915	19.94
239.131	17.29
239.348	10.42
239.565	7.82
239.781	-1.83
239.998	-0.74
240.215	-2.93
240.431	-6.03
240.648	-4.44
240.865	-6.67
241.081	-4.92
241.298	-4.71
241.514	0.17
241.731	-0.76
241.947	-3.31
242.164	1.83
242.38	0.9
242.597	-1.15
242.814	-0.85
243.03	1.46
243.246	3.28
243.463	1.73
243.679	2.47
243.896	-0.66
244.112	2.18
244.329	4.89
244.545	4.26
244.762	6.12
244.978	8.58
245.194	10.21
245.411	10.88
245.627	8.09
245.843	10.67
246.06	10.72
246.276	9.98
246.492	8.75
246.709	7.4
246.925	8.82
247.141	8.54
247.357	9.33
247.574	9.33
247.79	7.08
248.006	7.01
248.222	6.85
248.439	6.77
248.655	7.12
248.871	7.37
249.087	6.07
249.303	3.08
249.519	2.53
249.736	-0.03
249.952	-1.88
250.168	0.85
250.384	-0.76
250.6	-1.63
250.816	-2.45
251.032	-0.99
251.248	-0.67
251.464	1.5
251.68	3.69
251.896	4.17
252.112	5.35
252.328	4.77
252.544	1.37
252.76	1.44
252.976	0.98
253.192	-1.44
253.408	-3.24
253.624	-2.6
253.84	-0.96
254.056	-5.66
254.272	-6.67
254.487	-6.14
254.703	-6.47
254.919	-3.47
255.135	-1.51
255.351	-4.48
255.567	2.64
255.782	5.91
255.998	6.55
256.214	4.72
256.43	5.71
256.646	3.25
256.861	1.66
257.077	-0.41
257.293	-2.11
257.508	-2.34
257.724	0.11
257.94	-3.77
258.155	-5.5
258.371	-5.87
258.587	-3.59
258.802	-0.56
259.018	0.52
259.234	0.72
259.449	3.66
259.665	5.2
259.88	5.63
260.096	4.98
260.312	6.02
260.527	7.02
260.743	7.51
260.958	7.44
261.174	6.37
261.389	6.52
261.605	6.52
261.82	5.6
262.036	5.47
262.251	5.14
262.466	5.54
262.682	5.4
262.897	3.75
263.113	2.09
263.328	0.12
263.543	0.98
263.759	-0.3
263.974	0.8
264.189	2.08
264.405	0.94
264.62	2.01
264.835	0.48
265.051	1.25
265.266	4.14
265.481	3.8
265.696	6.34
265.912	8.2
266.127	9.79
266.342	7.93
266.557	6.3
266.773	6.13
266.988	7
267.203	8.5
267.418	8.66
267.633	8.2
267.848	10.32
268.064	7.79
268.279	8.53
268.494	7.31
268.709	6.04
268.924	7.54
269.139	7.12
269.354	6.13
269.569	5.58
269.784	4.23
269.999	1.95
270.214	-0.74
270.429	1.38
270.644	0.14
270.859	1.99
271.074	2.23
271.289	-0.17
271.504	0.21
271.719	-0.7
271.934	-0.27
272.149	-1.2
272.363	0.34
272.578	0.34
272.793	0.16
273.008	0.67
273.223	-0.2
273.438	1.96
273.653	2.63
273.867	1.18
274.082	1.51
274.297	0.96
274.512	3.04
274.726	1.82
274.941	3.66
275.156	5
275.371	4.79
275.585	3.29
275.8	2.62
276.015	1.61
276.229	2.81
276.444	2.8
276.659	3.93
276.873	4.11
277.088	6.14
277.302	3.05
277.517	3.3
277.732	2.87
277.946	4.25
278.161	4.66
278.375	8.74
278.59	8.44
278.804	8.15
279.019	9.2
279.233	7.81
279.448	6.71
279.662	8.29
279.877	5.59
280.091	4.65
280.306	5.83
280.52	5.36
280.735	3.68
280.949	4.45
281.163	6.94
281.378	5.07
281.592	5.35
281.806	5.73
282.021	6.72
282.235	7.14
282.449	7.99
282.664	6.59
282.878	6.8
283.092	5.72
283.307	6.28
283.521	4.32
283.735	5.63
283.949	4.5
284.164	3.85
284.378	3.57
284.592	3.85
284.806	4.13
285.02	4.75
285.234	4.81
285.449	6.93
285.663	6.98
285.877	6.87
286.091	5.79
286.305	8.01
286.519	7.73
286.733	7.32
286.947	6.57
287.161	6.48
287.375	6.14
287.589	5.35
287.803	3
288.017	1.93
288.231	2.28
288.445	2.27
288.659	0.74
288.873	2.13
289.087	3.02
289.301	4.48
289.515	2.56
289.729	3.91
289.943	5.71
290.157	5.89
290.371	7.66
290.584	7.56
290.798	8.75
291.012	9.21
291.226	8.32
291.44	8.45
291.654	7.44
291.867	8.39
292.081	6.62
292.295	5.53
292.509	5.19
292.722	3.72
292.936	3.21
293.15	1.71
293.364	1.31
293.577	1.53
293.791	0.83
294.005	2.36
294.218	1.15
294.432	3.24
294.645	3.23
294.859	4.07
295.073	2.6
295.286	3.72
295.5	4.42
295.713	4.78
295.927	4.77
296.14	4.95
296.354	4.66
296.568	7.12
296.781	6.17
296.994	5.84
297.208	5.68
297.421	7.44
297.635	7.06
297.848	7.18
298.062	6.31
298.275	6.83
298.489	6.49
298.702	6.72
298.915	5.35
299.129	6.3
299.342	7.1
299.555	8.38
299.769	7.89
299.982	7.95
300.195	7.49
300.409	8.52
300.622	7.91
300.835	8.97
301.048	9.88
301.262	11.19
301.475	11.14
301.688	12.23
301.901	12.42
302.115	13.98
302.328	13.91
302.541	14.22
302.754	13.37
302.967	14.17
303.18	13.93
303.393	13.36
303.607	12.52
303.82	14.59
304.033	13.29
304.246	11.91
304.459	11.27
304.672	11.75
304.885	8.98
305.098	9.81
305.311	11
305.524	12.16
305.737	12
305.95	13.95
306.163	13.51
306.376	13.72
306.589	15.56
306.802	13.3
307.015	13.88
307.228	18.3
307.44	19.47
307.653	18.81
307.866	18.14
308.079	17.48
308.292	16.17
308.505	16.09
308.718	16.34
308.93	14.23
309.143	16.38
309.356	15.81
309.569	14.21
309.781	10.97
309.994	10.36
310.207	11.17
310.42	11.9
310.632	11.36
310.845	10.44
311.058	10.32
311.27	10.32
311.483	10.49
311.696	11.27
311.908	11.13
312.121	12.92
312.333	13.35
312.546	12.98
312.759	12.18
312.971	12.73
313.184	13.88
313.396	10.98
313.609	12.19
313.821	9.91
314.034	8.26
314.246	10.07
314.459	9.55
314.671	10.81
314.884	9.54
315.096	10.3
315.309	10.9
315.521	8.78
315.733	10.32
315.946	8.07
316.158	9.54
316.371	9.86
316.583	8.59
316.795	7.89
317.008	6.83
317.22	9.24
317.432	7.86
317.644	8.4
317.857	11.16
318.069	11.23
318.281	12.62
318.494	13.33
318.706	14.34
318.918	17.84
319.13	20.16
319.342	20.22
319.555	19.73
319.767	19.74
319.979	18.44
320.191	17.96
320.403	21.55
320.615	20.93
320.827	21.19
321.039	21.9
321.252	20.34
321.464	19.75
321.676	23.06
321.888	20.81
322.1	22.29
322.312	25.17
322.524	24.7
322.736	21.99
322.948	23.51
323.16	22.64
323.372	22.61
323.584	20.89
323.796	21.44
324.007	19.62
324.219	20.24
324.431	21.46
324.643	19.55
324.855	18.34
325.067	19.74
325.279	19.26
325.491	20.65
325.702	20.27
325.914	22.59
326.126	21.18
326.338	21.98
326.55	23.73
326.761	22.2
326.973	22.76
327.185	25.7
327.396	24.5
327.608	24.86
327.82	25.32
328.032	25.1
328.243	25.41
328.455	26.8
328.666	25.98
328.878	27.13
329.09	28.84
329.301	30.63
329.513	30.76
329.725	32.25
329.936	33
330.148	32.64
330.359	35.12
330.571	35.86
330.782	37.17
330.994	38.26
331.205	37.05
331.417	39.09
331.628	38.45
331.84	37.02
332.051	37.77
332.262	38.67
332.474	39.2
332.685	40.98
332.897	39.32
333.108	40.55
333.319	40.42
333.531	42.45
333.742	41.39
333.953	42.48
334.165	45.13
334.376	46.95
334.587	47.43
334.799	47.97
335.01	46.44
335.221	48.52
335.432	48.08
335.644	48.5
335.855	47.83
336.066	49.28
336.277	50.11
336.488	49.4
336.7	48.7
336.911	50.33
337.122	51.39
337.333	52.13
337.544	51.43
337.755	50.84
337.966	51.66
338.177	51.85
338.388	52.51
338.599	52.08
338.811	51.8
339.022	53.11
339.233	50.54
339.444	49.25
339.655	48.93
339.866	50.34
340.076	52.41
340.287	52.91
340.498	53.3
340.709	51.29
340.92	50.62
341.131	52.32
341.342	53.13
341.553	53.25
341.764	52.63
341.975	51.75
342.185	53.19
342.396	50.78
342.607	50.05
342.818	50.19
343.029	50.91
343.239	51.86
343.45	51.76
343.661	50.73
343.872	52.45
344.082	53.62
344.293	56.71
344.504	53.8
344.714	56.42
344.925	57.53
345.136	56.99
345.346	57.76
345.557	57.42
345.768	57.31
345.978	58.08
346.189	58.14
346.399	58.09
346.61	57.43
346.821	59.1
347.031	57.95
347.242	57.52
347.452	58.45
347.663	58.05
347.873	59.13
348.084	57.13
348.294	55.51
348.504	55.61
348.715	55.28
348.925	55.18
349.136	55.07
349.346	56.33
349.557	55.27
349.767	55.78
349.977	57.39
350.188	58.07
350.398	60.59
350.608	61.11
350.819	60.4
351.029	60.77
351.239	60.72
351.449	60.29
351.66	59.69
351.87	61.04
352.08	60.72
352.29	59.46
352.501	59.78
352.711	58.19
352.921	59.1
353.131	59.02
353.341	59.11
353.552	58.1
353.762	57.28
353.972	56.18
354.182	55.93
354.392	55.78
354.602	55.86
354.812	54.23
355.022	55.3
355.232	55.62
355.442	55.96
355.652	56.06
355.862	56.08
356.072	56.93
356.282	58.04
356.492	58.04
356.702	57.84
356.912	57.83
357.122	58.76
357.332	59.02
357.542	59.05
357.752	58.51
357.962	58.56
358.171	57.44
358.381	56.33
358.591	55.16
358.801	53.76
359.011	53.85
359.221	53.84
359.43	52.31
359.64	51.68
359.85	51.05
360.06	51.25
360.269	52.07
360.479	53.42
360.689	54.34
360.899	55.62
361.108	56.9
361.318	57.19
361.528	57.42
361.737	57.45
361.947	57.48
362.156	57.68
362.366	57.41
362.576	55.87
362.785	55.86
362.995	55.69
363.204	55.33
363.414	55.77
363.623	55.46
363.833	53.62
364.042	53.7
364.252	53.83
364.461	53.28
364.671	53.71
364.88	54.41
365.09	54.03
365.299	53.2
365.509	52
365.718	50.87
365.927	50.36
366.137	52.13
366.346	52.11
366.555	52.31
366.765	52.22
366.974	52.43
367.183	53.19
367.393	52.12
367.602	52.89
367.811	53.16
368.021	53.14
368.23	53.26
368.439	53.37
368.648	53.65
368.857	52.78
369.067	52.88
369.276	52.67
369.485	52.89
369.694	53.71
369.903	53.33
370.112	53.12
370.321	52.23
370.531	51.41
370.74	51.03
370.949	51.29
371.158	51.73
371.367	52.64
371.576	51.63
371.785	50.61
371.994	50.98
372.203	51.44
372.412	51.65
372.621	51.54
372.83	52.53
373.039	52.24
373.248	52.38
373.457	52.38
373.666	50.52
373.874	51.63
374.083	51.18
374.292	50.87
374.501	49.6
374.71	50.52
374.919	51.69
375.128	50.93
375.336	50.72
375.545	49.16
375.754	48.91
375.963	49.36
376.171	48.87
376.38	49.1
376.589	48.23
376.798	48.45
377.006	47.7
377.215	47.23
377.424	47.06
377.632	46.66
377.841	47.13
378.05	46.46
378.258	45.88
378.467	45.39
378.675	44.62
378.884	45.38
379.093	45.58
379.301	45.28
379.51	45.31
379.718	44.8
379.927	44.83
380.135	44.89
380.344	45.17
380.552	45.58
380.761	45.97
380.969	46.05
381.177	45.15
381.386	44.97
381.594	44.85
381.803	44.23
382.011	44.14
382.219	44.24
382.428	43.99
382.636	44.01
382.845	43.88
383.053	43.65
383.261	44.1
383.469	43.96
383.678	43.74
383.886	43.96
384.094	43.62
384.302	43.62
384.511	43.33
384.719	43.08
384.927	42.71
385.135	42.83
385.343	42.54
385.552	42.14
385.76	42.42
385.968	42.67
386.176	41.79
386.384	41.99
386.592	41.84
386.8	41.96
387.008	41.66
387.216	42.08
387.424	41.3
387.633	41.61
387.841	41.54
388.049	41.69
388.257	41.6
388.465	41.7
388.672	41.59
388.88	41.98
389.088	42.15
389.296	42.17
389.504	41.34
389.712	41.22
389.92	41.04
390.128	41.08
390.336	40.61
390.544	39.96
390.751	40.28
390.959	40.56
391.167	40.46
391.375	39.86
391.583	40.11
391.79	39.83
391.998	40.2
392.206	39.88
392.414	39.99
392.621	40.14
392.829	40.32
393.037	40.31
393.244	39.77
393.452	39.6
393.66	39.23
393.867	38.89
394.075	39.22
394.283	39.22
394.49	39.13
394.698	38.88
394.905	38.55
395.113	38.53
395.32	38.07
395.528	38.54
395.735	38.66
395.943	38.89
396.15	39.56
396.358	39.35
396.565	39.48
396.773	39.08
396.98	39.45
397.188	39.34
397.395	39.42
397.602	39.71
397.81	39.46
398.017	39
398.225	39.24
398.432	38.69
398.639	38.96
398.847	38.91
399.054	39.16
399.261	38.64
399.468	39.01
399.676	38.86
399.883	39.21
400.09	39.32
400.297	39.39
400.505	39.11
400.712	38.85
400.919	38.87
401.126	38.92
401.333	39.09
401.54	38.76
401.748	38.49
401.955	38.65
402.162	37.91
402.369	37.88
402.576	38.19
402.783	38.19
402.99	38.69
403.197	38.85
403.404	38.73
403.611	38.71
403.818	39.42
404.025	39.6
404.232	39.68
404.439	39.92
404.646	39.92
404.853	39.91
405.06	39.9
405.267	40.03
405.474	39.73
405.681	39.75
405.887	39.8
406.094	39.56
406.301	39.69
406.508	39.52
406.715	39.51
406.922	39.33
407.128	39.15
407.335	39.13
407.542	39.32
407.749	39.44
407.955	39.17
408.162	39.19
408.369	39
408.575	38.68
408.782	38.76
408.989	38.58
409.195	38.49
409.402	38.53
409.609	39.1
409.815	38.44
410.022	38.44
410.228	38.71
410.435	38.45
410.642	38.52
410.848	38.49
411.055	38.23
411.261	38.53
411.468	38.31
411.674	38.21
411.881	37.65
412.087	37.63
412.294	37.8
412.5	37.81
412.706	38.02
412.913	37.73
413.119	37.54
413.326	37.86
413.532	37.81
413.738	38.16
413.945	38.33
414.151	38.94
414.357	39.21
414.564	38.8
414.77	38.56
414.976	38.41
415.182	38.57
415.389	38.53
415.595	38.51
415.801	38.39
416.007	38.23
416.214	38.09
416.42	37.54
416.626	37.33
416.832	37.36
417.038	37.18
417.244	37
417.45	36.83
417.657	36.84
417.863	36.67
418.069	36.65
418.275	36.76
418.481	36.74
418.687	36.77
418.893	36.72
419.099	36.64
419.305	36.55
419.511	36.64
419.717	36.67
419.923	36.87
420.129	36.92
420.335	36.7
420.541	36.56
420.746	36.72
420.952	36.76
421.158	36.77
421.364	36.73
421.57	36.87
421.776	36.98
421.982	36.93
422.187	36.67
422.393	36.59
422.599	36.81
422.805	36.79
423.01	36.69
423.216	36.59
423.422	36.49
423.628	36.56
423.833	36.38
424.039	36.16
424.245	36.22
424.45	36.47
424.656	36.47
424.862	36.32
425.067	36.16
425.273	35.99
425.478	36.03
425.684	36.04
425.889	35.89
426.095	35.93
426.301	36.01
426.506	36.25
426.712	35.9
426.917	35.67
427.123	35.52
427.328	35.6
427.533	35.54
427.739	35.48
427.944	35.21
428.15	35.28
428.355	35.43
428.561	35.42
428.766	35.01
428.971	35.09
429.177	35.23
429.382	35.37
429.587	35.49
429.793	35.43
429.998	35.53
430.203	35.85
430.408	35.81
430.614	35.56
430.819	35.52
431.024	35.65
431.229	35.45
431.434	35.04
431.64	35.06
431.845	35.23
432.05	35.23
432.255	34.92
432.46	34.94
432.665	35.11
432.87	35.14
433.076	35.06
433.281	35.13
433.486	35.29
433.691	35.57
433.896	35.57
434.101	35.45
434.306	35.42
434.511	35.51
434.716	35.28
434.921	35.2
435.126	35.06
435.331	34.98
435.535	34.81
435.74	34.68
435.945	34.75
436.15	34.62
436.355	34.63
436.56	34.8
436.765	34.89
436.97	35.1
437.174	35.02
437.379	35.36
437.584	35.25
437.789	35.23
437.993	35.36
438.198	35.26
438.403	35.41
438.608	35.23
438.812	35.32
439.017	35.35
439.222	35.29
439.426	35.27
439.631	35.36
439.836	35.78
440.04	35.73
440.245	35.8
440.45	35.76
440.654	35.91
440.859	35.94
441.063	35.83
441.268	35.82
441.472	35.84
441.677	35.96
441.881	35.82
442.086	35.59
442.29	35.75
442.495	35.64
442.699	35.61
442.904	35.25
443.108	35.16
443.312	35.06
443.517	34.8
443.721	34.82
443.925	34.7
444.13	34.69
444.334	34.66
444.538	34.61
444.743	34.61
444.947	34.71
445.151	34.97
445.356	35.17
445.56	35.28
445.764	35.35
445.968	35.1
446.173	35.07
446.377	34.88
446.581	34.74
446.785	34.74
446.989	34.61
447.193	34.61
447.398	34.54
447.602	34.49
447.806	34.32
448.01	34.29
448.214	34.42
448.418	34.4
448.622	34.49
448.826	34.5
449.03	34.53
449.234	34.69
449.438	34.63
449.642	34.57
449.846	34.33
450.05	34.43
450.254	34.46
450.458	34.29
450.662	34.38
450.866	34.28
451.069	34.26
451.273	34.15
451.477	34.02
451.681	33.9
451.885	33.83
452.089	33.89
452.292	33.83
452.496	33.64
452.7	33.75
452.904	33.47
453.107	33.59
453.311	33.64
453.515	33.53
453.719	33.36
453.922	33.58
454.126	33.58
454.33	33.7
454.533	33.82
454.737	34.03
454.94	34.02
455.144	34
455.348	34
455.551	33.93
455.755	34.04
455.958	34.29
456.162	34
456.365	34.02
456.569	34.02
456.772	33.92
456.976	33.9
457.179	33.85
457.383	34.17
457.586	34.13
457.79	34.15
457.993	34.06
458.196	34.08
458.4	34.31
