Data from 2937861_Reflection_1.txt Node
Date: Wed Jul 15 15:24:46 EDT 2015
User: robert
Spectrometer: USB4E03001
Autoset integration time: false
Trigger mode: 4
Integration Time (sec): 1.000000E-1
Scans to average: 10
Electric dark correction enabled: true
Nonlinearity correction enabled: false
Boxcar width: 5
Stray light correction enabled: false
XAxis mode: Wavelengths
Stop averaging: false
Number of Pixels in Spectrum: 3648
>>>>>Begin Spectral Data<<<<<
177.566	-149.94
177.785	-94.19
178.005	-195.16
178.225	-149
178.445	-312.6
178.665	-703.35
178.885	-471.11
179.105	726.84
179.324	401.9
179.544	-170.47
179.764	-112.97
179.984	-77.21
180.204	-70.61
180.423	-152.87
180.643	-136.82
180.863	-120.91
181.083	-110.94
181.302	-64.87
181.522	-66.01
181.742	-49.1
181.961	-125.22
182.181	-143.49
182.401	-179.08
182.621	-51.25
182.84	-48.62
183.06	-36.43
183.279	-25.24
183.499	-33.29
183.719	-39.53
183.938	7.62
184.158	9.52
184.377	3.84
184.597	-1.73
184.816	-15.86
185.036	-117.16
185.256	-69.81
185.475	-101.99
185.695	-153.76
185.914	-423.99
186.134	-208.34
186.353	-128.16
186.572	-134.8
186.792	-109.56
187.011	-82.4
187.231	-69.45
187.45	-2.08
187.67	26.72
187.889	20
188.108	17.55
188.328	9.04
188.547	1.41
188.766	-9.14
188.986	-6.42
189.205	13.3
189.424	9.73
189.644	-71.8
189.863	-311.85
190.082	-1431.95
190.302	3992.56
190.521	-309.53
190.74	-195.96
190.959	-253.5
191.178	-163.24
191.398	-198.95
191.617	-256.47
191.836	-197.8
192.055	-87.46
192.274	-62.87
192.494	-12.19
192.713	-20.91
192.932	-53.97
193.151	-102.22
193.37	-183.02
193.589	-6846.36
193.808	-1316.84
194.027	-1628.79
194.246	-644.56
194.465	-205.61
194.685	-254.05
194.904	-147.56
195.123	-60.04
195.342	-57.56
195.561	-61.08
195.78	-40.7
195.999	8.82
196.218	2.01
196.436	-7.56
196.655	-12.38
196.874	-25.43
197.093	-28.37
197.312	-41.88
197.531	-78.58
197.75	-71.13
197.969	-33.71
198.188	-10.94
198.407	-3.48
198.625	-13.28
198.844	-35.92
199.063	-139.39
199.282	-135.17
199.501	-93.43
199.719	-240.36
199.938	-91.74
200.157	-70.93
200.376	-49.86
200.594	-83.37
200.813	-190.35
201.032	-92.85
201.251	-84.55
201.469	-72.23
201.688	-62.78
201.907	-62.2
202.125	-46.37
202.344	-73.94
202.563	-150.79
202.781	-703.82
203	-312.31
203.218	-124.25
203.437	16335
203.656	1064.32
203.874	-348.22
204.093	-396.94
204.311	-148.78
204.53	-331.05
204.748	-110.7
204.967	-97.35
205.185	-66.3
205.404	-115.35
205.622	-91.2
205.841	-82.19
206.059	-70.22
206.278	-30.47
206.496	-20
206.715	-6.33
206.933	-0.33
207.151	17.28
207.37	9.75
207.588	-18.85
207.806	21.5
208.025	25.98
208.243	-3.95
208.461	0.46
208.68	14.87
208.898	21.66
209.116	18.73
209.335	34.6
209.553	17.89
209.771	9.16
209.989	20.21
210.208	3.88
210.426	-21.91
210.644	8.59
210.862	-11.15
211.081	-31.88
211.299	-32.78
211.517	-6.68
211.735	-13.7
211.953	-17.54
212.171	1.89
212.39	-10.63
212.608	-20.91
212.826	-3.71
213.044	-0.54
213.262	3.7
213.48	-3.18
213.698	2.38
213.916	-16.89
214.134	19.93
214.352	36.56
214.57	41.34
214.788	58.12
215.006	69.95
215.224	52.8
215.442	46.69
215.66	35.82
215.878	13.82
216.096	-28.4
216.314	-9.2
216.532	-18.81
216.75	-31.69
216.968	-52.71
217.185	-58.89
217.403	-88.54
217.621	-103.12
217.839	-157.72
218.057	-210.75
218.275	-144.57
218.492	-97.95
218.71	-200.99
218.928	-455.21
219.146	-339.81
219.363	-213.37
219.581	-104.99
219.799	-70.38
220.017	-60.03
220.234	-53.74
220.452	-43.33
220.67	-28.54
220.887	-40.91
221.105	-14.89
221.323	-14.65
221.54	-8.48
221.758	-12.5
221.976	-39.11
222.193	-35.37
222.411	-12.16
222.629	-10.55
222.846	4.81
223.064	2.4
223.281	18.82
223.499	10.89
223.716	18.42
223.934	14.85
224.151	13.38
224.369	11.88
224.586	7.04
224.804	-2.29
225.021	-11.36
225.239	-21.51
225.456	-27.25
225.674	-18.21
225.891	-5.65
226.108	-5.39
226.326	-10.65
226.543	-15.86
226.76	-8.67
226.978	-2.67
227.195	4.54
227.413	5
227.63	7.81
227.847	6.4
228.064	2.27
228.282	1.73
228.499	3.84
228.716	5.2
228.934	8.07
229.151	8.76
229.368	7.74
229.585	7.5
229.802	9.44
230.02	9.05
230.237	9.25
230.454	8.09
230.671	3.27
230.888	2.35
231.105	0.87
231.323	-5.48
231.54	-6.16
231.757	-7.25
231.974	-9.54
232.191	-12.88
232.408	-15.86
232.625	-17.17
232.842	-12.14
233.059	-3.16
233.276	-4.53
233.493	0.96
233.71	5.79
233.927	2.39
234.144	3.12
234.361	3.84
234.578	3.54
234.795	4.72
235.012	7.9
235.229	3.72
235.446	1.36
235.663	6.01
235.879	8.38
236.096	8.33
236.313	3.57
236.53	-0.3
236.747	0.08
236.964	5.74
237.181	4.94
237.397	5.91
237.614	11.08
237.831	13.3
238.048	11.01
238.264	1.82
238.481	2.6
238.698	9.29
238.915	10.37
239.131	6.49
239.348	2
239.565	2.89
239.781	3.37
239.998	0.2
240.215	-4.79
240.431	-5.74
240.648	-0.11
240.865	4.21
241.081	5.08
241.298	6.91
241.514	7.39
241.731	8.77
241.947	8.13
242.164	7.14
242.38	7.69
242.597	8.51
242.814	9.83
243.03	9.99
243.246	9.6
243.463	8.44
243.679	7.01
243.896	7.72
244.112	6.98
244.329	7.36
244.545	9.59
244.762	7.56
244.978	7.44
245.194	7.19
245.411	6.61
245.627	5.03
245.843	6.04
246.06	8.19
246.276	9.99
246.492	10.69
246.709	10.5
246.925	10.19
247.141	10.8
247.357	11.27
247.574	11.94
247.79	12.01
248.006	12.5
248.222	12.25
248.439	11.11
248.655	9.95
248.871	9.45
249.087	7.8
249.303	7.05
249.519	6.87
249.736	6.64
249.952	5.09
250.168	5.88
250.384	4.99
250.6	4.36
250.816	6.61
251.032	5.34
251.248	3.88
251.464	7.21
251.68	6.11
251.896	5.51
252.112	5.09
252.328	4.93
252.544	4.89
252.76	4.68
252.976	3.97
253.192	3.27
253.408	3.23
253.624	1.77
253.84	1.66
254.056	1.53
254.272	0.16
254.487	-0.29
254.703	-3.75
254.919	-5.78
255.135	-4.51
255.351	-1.92
255.567	-3.84
255.782	-2.81
255.998	0.88
256.214	2.87
256.43	3.41
256.646	5.18
256.861	5.85
257.077	7.7
257.293	7.03
257.508	4.9
257.724	3.67
257.94	4.72
258.155	3.2
258.371	3
258.587	3.74
258.802	5.1
259.018	5.14
259.234	6.09
259.449	6.97
259.665	7.79
259.88	8.45
260.096	8.83
260.312	9.07
260.527	9.65
260.743	9.64
260.958	8.27
261.174	7.79
261.389	8.42
261.605	8.68
261.82	7.56
262.036	6.95
262.251	6.01
262.466	5.54
262.682	4.72
262.897	4.67
263.113	5.1
263.328	5.8
263.543	5.66
263.759	3.4
263.974	0.66
264.189	0.01
264.405	0.07
264.62	2.4
264.835	2.09
265.051	1.36
265.266	0.17
265.481	0.3
265.696	1.99
265.912	1.09
266.127	3.04
266.342	3.71
266.557	5.43
266.773	4.66
266.988	3.29
267.203	4.05
267.418	4.59
267.633	3.93
267.848	4.46
268.064	3.8
268.279	3.84
268.494	3.34
268.709	4
268.924	4.06
269.139	3.4
269.354	2.95
269.569	2.74
269.784	2.63
269.999	4.64
270.214	4.31
270.429	4.83
270.644	4.41
270.859	3.38
271.074	3.82
271.289	3.35
271.504	4.33
271.719	4.48
271.934	3.09
272.149	3.5
272.363	3.06
272.578	2.53
272.793	1.14
273.008	2.38
273.223	3.28
273.438	2.66
273.653	3.73
273.867	4.32
274.082	3.99
274.297	4.39
274.512	4.87
274.726	5
274.941	4.59
275.156	7.04
275.371	6.21
275.585	6.35
275.8	5.11
276.015	3.66
276.229	2.57
276.444	3.03
276.659	4.06
276.873	2.9
277.088	1.86
277.302	0.49
277.517	-1.39
277.732	-0.49
277.946	-0.64
278.161	0.6
278.375	2.5
278.59	4.06
278.804	2.24
279.019	1.58
279.233	4.24
279.448	5.29
279.662	6.06
279.877	5.98
280.091	5.44
280.306	5.93
280.52	4.62
280.735	3.08
280.949	1.75
281.163	3.91
281.378	4.99
281.592	3.47
281.806	2.23
282.021	3.97
282.235	5.2
282.449	5.12
282.664	4.68
282.878	5.97
283.092	6.67
283.307	6.71
283.521	5.88
283.735	5.12
283.949	5.47
284.164	7.3
284.378	6.17
284.592	5.73
284.806	6.11
285.02	7.94
285.234	7.36
285.449	7.25
285.663	7.2
285.877	7.14
286.091	7.83
286.305	7.27
286.519	7.07
286.733	7.89
286.947	8.05
287.161	7.72
287.375	5.99
287.589	6.63
287.803	5.86
288.017	6.62
288.231	7.68
288.445	6.92
288.659	7.34
288.873	7.24
289.087	6.6
289.301	6.54
289.515	6.6
289.729	7.31
289.943	5.84
290.157	6.94
290.371	6.06
290.584	5.55
290.798	5.71
291.012	4.9
291.226	4.64
291.44	3.9
291.654	3.83
291.867	3.79
292.081	3.19
292.295	3.62
292.509	2.91
292.722	2.58
292.936	3.48
293.15	3.13
293.364	3.82
293.577	2.23
293.791	3.74
294.005	3.08
294.218	2.53
294.432	3.86
294.645	4.63
294.859	4.76
295.073	6.45
295.286	6.62
295.5	7.19
295.713	8.79
295.927	9.99
296.14	10.03
296.354	9.94
296.568	10.89
296.781	10.56
296.994	10.41
297.208	10.06
297.421	9.56
297.635	8.98
297.848	9.25
298.062	7.62
298.275	6.94
298.489	6.54
298.702	7.02
298.915	6.95
299.129	6.72
299.342	6.64
299.555	7.02
299.769	7.29
299.982	7.68
300.195	7.52
300.409	8.29
300.622	9.19
300.835	10.93
301.048	10.95
301.262	9.97
301.475	9.69
301.688	10.03
301.901	10.05
302.115	9.06
302.328	8.84
302.541	8.87
302.754	8.09
302.967	8.23
303.18	5.92
303.393	5.15
303.607	5.53
303.82	5.78
304.033	6.53
304.246	5.24
304.459	5.41
304.672	6.32
304.885	5.66
305.098	5.32
305.311	4.82
305.524	5.99
305.737	6.69
305.95	6.34
306.163	7.01
306.376	7.56
306.589	8.65
306.802	9.17
307.015	7.7
307.228	7.65
307.44	8.94
307.653	10.03
307.866	10.17
308.079	10.88
308.292	10.9
308.505	9.71
308.718	8.49
308.93	8.94
309.143	8.5
309.356	9.68
309.569	10.12
309.781	9.63
309.994	9.87
310.207	8.94
310.42	8.95
310.632	9.87
310.845	10.98
311.058	10.98
311.27	11.7
311.483	11.75
311.696	10.45
311.908	9.53
312.121	9.57
312.333	8.59
312.546	8.53
312.759	7.31
312.971	5.56
313.184	4.23
313.396	2.82
313.609	1.59
313.821	2.1
314.034	2.46
314.246	3.55
314.459	4.42
314.671	4.76
314.884	5.77
315.096	7.29
315.309	8.22
315.521	9
315.733	10.89
315.946	11.51
316.158	11.18
316.371	11.9
316.583	12
316.795	9.77
317.008	10.36
317.22	9.7
317.432	7.44
317.644	6.61
317.857	6.01
318.069	5.13
318.281	4.91
318.494	5.74
318.706	6.57
318.918	5.11
319.13	6.51
319.342	3.57
319.555	3.07
319.767	3.77
319.979	6.12
320.191	6.08
320.403	4.04
320.615	3.9
320.827	3.25
321.039	1.34
321.252	2.15
321.464	2.55
321.676	5.88
321.888	6.95
322.1	7.85
322.312	6.06
322.524	5.6
322.736	8.42
322.948	7.99
323.16	7.08
323.372	8.2
323.584	8.18
323.796	7.02
324.007	6.06
324.219	5.35
324.431	5.33
324.643	5.22
324.855	6.39
325.067	5.97
325.279	6.36
325.491	7.07
325.702	7.55
325.914	8.19
326.126	10.16
326.338	9.44
326.55	10.11
326.761	9.36
326.973	9.09
327.185	8.08
327.396	7.63
327.608	6.75
327.82	6.38
328.032	5.64
328.243	6.09
328.455	3.95
328.666	3.99
328.878	2.39
329.09	3.17
329.301	2.6
329.513	3.36
329.725	4.57
329.936	5.17
330.148	5.98
330.359	4.68
330.571	3.89
330.782	5.13
330.994	5.78
331.205	7.27
331.417	6.34
331.628	6.6
331.84	5.3
332.051	4.11
332.262	4.08
332.474	3.06
332.685	3.42
332.897	3.7
333.108	3.49
333.319	2.47
333.531	2.45
333.742	3.34
333.953	4.23
334.165	4.61
334.376	4.96
334.587	5.56
334.799	6
335.01	7.27
335.221	6.57
335.432	6.66
335.644	6.97
335.855	6.58
336.066	6.21
336.277	5.17
336.488	5.72
336.7	5.19
336.911	5.1
337.122	5.58
337.333	4.43
337.544	4.47
337.755	3.81
337.966	4.32
338.177	5.24
338.388	5.93
338.599	7.57
338.811	7.19
339.022	7.36
339.233	7.12
339.444	7.24
339.655	8.07
339.866	8.3
340.076	8.03
340.287	7.91
340.498	7.61
340.709	7.23
340.92	6.46
341.131	7.99
341.342	9.72
341.553	8.07
341.764	7.01
341.975	6.54
342.185	6.39
342.396	6.75
342.607	6.25
342.818	7.02
343.029	8.52
343.239	8.61
343.45	7.34
343.661	6.54
343.872	7.72
344.082	7.81
344.293	7.99
344.504	7.72
344.714	8.16
344.925	8.53
345.136	8.03
345.346	7.39
345.557	8.47
345.768	8.48
345.978	8.51
346.189	8.66
346.399	9.68
346.61	9.73
346.821	9.37
347.031	9.94
347.242	10.59
347.452	9.07
347.663	8.16
347.873	8.45
348.084	7.87
348.294	7.53
348.504	8.49
348.715	7.39
348.925	6.33
349.136	7.79
349.346	6.57
349.557	5.88
349.767	6.39
349.977	7.08
350.188	6.23
350.398	6.9
350.608	7.39
350.819	5.94
351.029	5.65
351.239	6.24
351.449	7.04
351.66	7.54
351.87	7.82
352.08	9.42
352.29	9.32
352.501	9.07
352.711	7.89
352.921	7.24
353.131	7.64
353.341	7.38
353.552	7.8
353.762	6.16
353.972	6.55
354.182	6.87
354.392	5.07
354.602	4.98
354.812	4.76
355.022	6.01
355.232	6.33
355.442	6.47
355.652	7.41
355.862	6.39
356.072	5.93
356.282	5.27
356.492	4.93
356.702	5.46
356.912	5.17
357.122	5.6
357.332	4.78
357.542	4.66
357.752	5.03
357.962	5.19
358.171	6.08
358.381	6.64
358.591	7.91
358.801	7
359.011	7.67
359.221	7.47
359.43	7.22
359.64	7.16
359.85	7.14
360.06	7.05
360.269	6.54
360.479	6.35
360.689	6.51
360.899	6.5
361.108	6.91
361.318	7.06
361.528	7.44
361.737	7.43
361.947	7.52
362.156	7.56
362.366	7.15
362.576	6.8
362.785	6.53
362.995	6.47
363.204	6.01
363.414	6.78
363.623	6.54
363.833	6.58
364.042	6.3
364.252	6.75
364.461	6.34
364.671	6.68
364.88	7.33
365.09	7.66
365.299	7.6
365.509	7.54
365.718	7.81
365.927	7.27
366.137	6.52
366.346	6.23
366.555	6.31
366.765	5.95
366.974	5.87
367.183	6.07
367.393	6.3
367.602	5.61
367.811	5.03
368.021	4.85
368.23	4.6
368.439	5.19
368.648	5.27
368.857	4.81
369.067	5.3
369.276	5.26
369.485	4.41
369.694	3.95
369.903	3.91
370.112	4.73
370.321	3.85
370.531	4.2
370.74	4.19
370.949	4.42
371.158	4.5
371.367	4.11
371.576	4.52
371.785	5.03
371.994	5.02
372.203	5.38
372.412	4.85
372.621	5.14
372.83	5.03
373.039	5.1
373.248	5.18
373.457	5.59
373.666	6.08
373.874	5.92
374.083	5.69
374.292	6.26
374.501	6.64
374.71	6.48
374.919	6.27
375.128	6.36
375.336	6.45
375.545	6.68
375.754	6.52
375.963	6.29
376.171	6.26
376.38	6.8
376.589	6.97
376.798	6.37
377.006	6.06
377.215	5.89
377.424	6.06
377.632	5.62
377.841	5.55
378.05	5.5
378.258	5.55
378.467	5.88
378.675	5.7
378.884	5.91
379.093	6.42
379.301	7.13
379.51	7.42
379.718	7.22
379.927	7.08
380.135	6.98
380.344	6.58
380.552	6.23
380.761	5.94
380.969	5.53
381.177	4.54
381.386	4.07
381.594	3.53
381.803	2.86
382.011	3.08
382.219	3.5
382.428	2.91
382.636	3.15
382.845	3.38
383.053	3.05
383.261	3.38
383.469	3.53
383.678	4.11
383.886	4.06
384.094	5.04
384.302	4.23
384.511	4.6
384.719	4.9
384.927	5.1
385.135	5.63
385.343	5.97
385.552	5.89
385.76	6
385.968	5.55
386.176	5.76
386.384	5.19
386.592	5.95
386.8	5.72
387.008	5.65
387.216	5.89
387.424	5.5
387.633	4.76
387.841	4.56
388.049	4.59
388.257	4.71
388.465	4.13
388.672	4.29
388.88	3.62
389.088	3.32
389.296	3.27
389.504	2.69
389.712	2.77
389.92	3.3
390.128	3.49
390.336	3.52
390.544	3.88
390.751	4.14
390.959	4.04
391.167	4.99
391.375	4.75
391.583	4.62
391.79	4.99
391.998	4.83
392.206	4.65
392.414	4.62
392.621	4.48
392.829	4.24
393.037	4.42
393.244	4.38
393.452	3.71
393.66	4.27
393.867	4.52
394.075	4.49
394.283	4.76
394.49	4.45
394.698	4.57
394.905	4.78
395.113	4.62
395.32	4.75
395.528	4.99
395.735	5.1
395.943	5
396.15	5.25
396.358	4.86
396.565	4.53
396.773	5.02
396.98	4.95
397.188	4.9
397.395	4.83
397.602	4.74
397.81	4.29
398.017	4.72
398.225	4.72
398.432	4.43
398.639	4.59
398.847	4.59
399.054	4.37
399.261	4.61
399.468	4.27
399.676	4.42
399.883	4.5
400.09	4.55
400.297	4.21
400.505	3.92
400.712	3.91
400.919	3.89
401.126	3.96
401.333	4.01
401.54	3.83
401.748	4.02
401.955	3.73
402.162	3.62
402.369	3.4
402.576	3.45
402.783	3.43
402.99	3.34
403.197	3.41
403.404	3.4
403.611	3.68
403.818	3.37
404.025	3.45
404.232	3.61
404.439	3.47
404.646	3.78
404.853	3.79
405.06	3.82
405.267	3.99
405.474	3.92
405.681	4.05
405.887	3.93
406.094	4.14
406.301	4.24
406.508	4.61
406.715	4.65
406.922	4.99
407.128	4.7
407.335	4.87
407.542	4.76
407.749	4.74
407.955	4.75
408.162	4.54
408.369	4.46
408.575	4.59
408.782	4.16
408.989	4.19
409.195	3.72
409.402	3.87
409.609	3.92
409.815	4.1
410.022	4.13
410.228	4
410.435	4.15
410.642	4.22
410.848	3.94
411.055	4.11
411.261	4.23
411.468	4.31
411.674	4.2
411.881	3.99
412.087	4.09
412.294	4.1
412.5	4.09
412.706	4.29
412.913	4.2
413.119	4.51
413.326	4.43
413.532	4.34
413.738	4.49
413.945	4.79
414.151	4.95
414.357	4.83
414.564	5.14
414.77	5
414.976	4.76
415.182	4.76
415.389	4.47
415.595	4.6
415.801	4.64
416.007	4.68
416.214	4.65
416.42	4.72
416.626	4.35
416.832	3.96
417.038	4.12
417.244	3.93
417.45	4.05
417.657	3.99
417.863	3.86
418.069	3.85
418.275	3.9
418.481	3.91
418.687	3.74
418.893	4.12
419.099	4.19
419.305	4.16
419.511	4.34
419.717	4.32
419.923	4.29
420.129	4.33
420.335	4.26
420.541	4.24
420.746	4.13
420.952	4.07
421.158	3.84
421.364	3.92
421.57	3.98
421.776	4.08
421.982	3.88
422.187	3.85
422.393	3.8
422.599	3.89
422.805	3.77
423.01	3.72
423.216	3.88
423.422	3.98
423.628	3.9
423.833	3.86
424.039	3.76
424.245	3.91
424.45	4.07
424.656	4.05
424.862	3.99
425.067	4.14
425.273	4.19
425.478	4.12
425.684	4.07
425.889	4.14
426.095	4.04
426.301	3.91
426.506	3.89
426.712	3.92
426.917	4.03
427.123	4.07
427.328	3.97
427.533	3.96
427.739	3.89
427.944	4.09
428.15	3.99
428.355	4.33
428.561	4.43
428.766	4.28
428.971	4.12
429.177	4.14
429.382	4
429.587	3.84
429.793	4.06
429.998	3.89
430.203	3.68
430.408	3.73
430.614	3.44
430.819	3.26
431.024	3.25
431.229	3.1
431.434	3.05
431.64	3.14
431.845	3.17
432.05	3.02
432.255	3.19
432.46	3.1
432.665	2.97
432.87	2.95
433.076	3.25
433.281	3.44
433.486	3.62
433.691	3.8
433.896	3.87
434.101	3.97
434.306	4.11
434.511	4.15
434.716	4.3
434.921	4.35
435.126	4.4
435.331	4.25
435.535	4.15
435.74	3.95
435.945	3.77
436.15	3.71
436.355	3.53
436.56	3.28
436.765	3.26
436.97	3.15
437.174	3.27
437.379	3.31
437.584	3.38
437.789	3.48
437.993	3.59
438.198	3.46
438.403	3.49
438.608	3.55
438.812	3.58
439.017	3.51
439.222	3.63
439.426	3.58
439.631	3.68
439.836	3.7
440.04	3.62
440.245	3.64
440.45	3.68
440.654	3.65
440.859	3.78
441.063	3.93
441.268	4
441.472	3.91
441.677	3.87
441.881	3.76
442.086	3.64
442.29	3.65
442.495	3.61
442.699	3.56
442.904	3.44
443.108	3.27
443.312	3.23
443.517	3.31
443.721	3.3
443.925	3.46
444.13	3.53
444.334	3.62
444.538	3.73
444.743	3.53
444.947	3.62
445.151	3.62
445.356	3.63
445.56	3.52
445.764	3.55
445.968	3.59
446.173	3.54
446.377	3.58
446.581	3.59
446.785	3.53
446.989	3.7
447.193	3.72
447.398	3.88
447.602	4.02
447.806	4.04
448.01	4
448.214	4.08
448.418	4.01
448.622	3.84
448.826	3.74
449.03	3.67
449.234	3.7
449.438	3.77
449.642	3.67
449.846	3.51
450.05	3.65
450.254	3.46
450.458	3.44
450.662	3.45
450.866	3.45
451.069	3.63
451.273	3.44
451.477	3.48
451.681	3.42
451.885	3.47
452.089	3.51
452.292	3.42
452.496	3.66
452.7	3.44
452.904	3.42
453.107	3.52
453.311	3.44
453.515	3.58
453.719	3.59
453.922	3.78
454.126	3.88
454.33	3.72
454.533	3.62
454.737	3.41
454.94	3.59
455.144	3.73
455.348	3.72
455.551	3.85
455.755	3.75
455.958	3.59
456.162	3.31
456.365	3.09
456.569	3.4
456.772	3.46
456.976	3.43
457.179	3.42
457.383	3.47
457.586	3.44
457.79	3.17
457.993	3.42
458.196	3.47
458.4	3.55
458.603	3.47
458.807	3.49
459.01	3.45
459.213	3.62
459.417	3.74
459.62	3.59
459.823	3.6
460.026	3.66
460.23	3.63
460.433	3.62
460.636	3.67
460.839	3.86
461.042	3.71
461.246	3.85
461.449	3.85
461.652	3.61
461.855	3.68
462.058	3.72
462.261	3.87
462.464	3.82
462.668	3.79
462.871	3.7
463.074	3.77
463.277	3.83
463.48	3.63
463.683	3.4
463.886	3.5
464.089	3.43
464.292	3.55
464.495	3.51
464.698	3.66
464.901	3.66
465.104	3.64
465.306	3.61
465.509	3.5
465.712	3.58
465.915	3.69
466.118	3.69
466.321	3.77
466.524	3.6
466.726	3.6
466.929	3.43
467.132	3.4
467.335	3.45
467.538	3.16
467.74	3.04
467.943	3.03
468.146	2.96
468.348	2.92
468.551	2.79
468.754	2.86
468.956	2.72
469.159	2.95
469.362	3.11
469.564	2.98
469.767	3.07
