Data from 2937865_Reflection_1.txt Node
Date: Wed Jul 15 15:12:53 EDT 2015
User: robert
Spectrometer: USB4E03001
Autoset integration time: false
Trigger mode: 4
Integration Time (sec): 1.000000E-1
Scans to average: 10
Electric dark correction enabled: true
Nonlinearity correction enabled: false
Boxcar width: 5
Stray light correction enabled: false
XAxis mode: Wavelengths
Stop averaging: false
Number of Pixels in Spectrum: 3648
>>>>>Begin Spectral Data<<<<<
177.566	126.18
177.785	-53.51
178.005	2000.49
178.225	-1135.49
178.445	1054.05
178.665	187.73
178.885	119.29
179.105	88.85
179.324	87.76
179.544	71.48
179.764	62.05
179.984	44.11
180.204	-50.07
180.423	-460.8
180.643	-735.5
180.863	-1129.72
181.083	-218.3
181.302	-50.4
181.522	34.12
181.742	-87.1
181.961	-64.52
182.181	-84.81
182.401	-25.32
182.621	11.64
182.84	-8.3
183.06	21.75
183.279	24.29
183.499	33.13
183.719	19.74
183.938	-9.06
184.158	57.03
184.377	44.47
184.597	65.73
184.816	54.25
185.036	70.28
185.256	92.91
185.475	75.94
185.695	67.88
185.914	74.97
186.134	113.43
186.353	89.85
186.572	63.1
186.792	153.81
187.011	79.29
187.231	-235.96
187.45	39.3
187.67	44.15
187.889	49.36
188.108	12.12
188.328	-31.15
188.547	-12.03
188.766	19.11
188.986	47.85
189.205	25.68
189.424	51.96
189.644	57.99
189.863	58.63
190.082	75.32
190.302	79.6
190.521	137.98
190.74	154.77
190.959	131.27
191.178	154.98
191.398	114.12
191.617	136.92
191.836	151.22
192.055	125.59
192.274	119.43
192.494	834.42
192.713	177.03
192.932	-147.15
193.151	-156.68
193.37	238.26
193.589	343.08
193.808	224
194.027	-61.28
194.246	-95.76
194.465	44.23
194.685	107.93
194.904	34.83
195.123	-9.12
195.342	152.34
195.561	538.28
195.78	77.4
195.999	66.45
196.218	249.01
196.436	587.28
196.655	54.75
196.874	141.84
197.093	111.86
197.312	190.55
197.531	137.45
197.75	118.62
197.969	158.81
198.188	107.07
198.407	123.52
198.625	86.46
198.844	133.19
199.063	213.2
199.282	17160
199.501	216.67
199.719	94.58
199.938	194.51
200.157	134.4
200.376	68.04
200.594	89.32
200.813	99.35
201.032	65.15
201.251	29.12
201.469	60.98
201.688	49.18
201.907	54.27
202.125	56.34
202.344	45.37
202.563	50.52
202.781	79.29
203	74.65
203.218	70.9
203.437	100.1
203.656	82.49
203.874	112.01
204.093	80.38
204.311	91.04
204.53	96.8
204.748	207.55
204.967	177.38
205.185	268.19
205.404	236.01
205.622	271.24
205.841	96.03
206.059	177.93
206.278	259.33
206.496	-109.11
206.715	-112.48
206.933	-4.97
207.151	123.74
207.37	64.86
207.588	140.9
207.806	-184.02
208.025	3215.79
208.243	229.88
208.461	-32.74
208.68	-32.23
208.898	3.46
209.116	45.24
209.335	59.98
209.553	68.4
209.771	81.45
209.989	79.12
210.208	94.27
210.426	88.8
210.644	129.86
210.862	149.69
211.081	102.11
211.299	96.51
211.517	92.53
211.735	107.6
211.953	126.5
212.171	112.57
212.39	131.95
212.608	170.69
212.826	173.56
213.044	135.11
213.262	134.76
213.48	112.76
213.698	382.9
213.916	187.37
214.134	143.99
214.352	154.91
214.57	96.45
214.788	110.65
215.006	94.06
215.224	113.81
215.442	102
215.66	90.68
215.878	160.19
216.096	111.89
216.314	116.53
216.532	98.7
216.75	135.29
216.968	120.58
217.185	102.87
217.403	107.83
217.621	95.65
217.839	92.69
218.057	88.79
218.275	64.62
218.492	67.94
218.71	68.51
218.928	63.69
219.146	37.15
219.363	38.56
219.581	21.6
219.799	14.2
220.017	-18.01
220.234	-41.55
220.452	-14.99
220.67	-45.6
220.887	-10.48
221.105	-8.1
221.323	16.32
221.54	27.53
221.758	9.94
221.976	-26.72
222.193	1.11
222.411	29.97
222.629	28.36
222.846	23.56
223.064	58.78
223.281	71.1
223.499	64.99
223.716	40.17
223.934	44.69
224.151	38.45
224.369	74.34
224.586	76.77
224.804	21.51
225.021	70.87
225.239	70.98
225.456	56.76
225.674	71.19
225.891	76.81
226.108	82.39
226.326	74.37
226.543	80.35
226.76	73.59
226.978	66.2
227.195	60.26
227.413	44.02
227.63	44.85
227.847	44.19
228.064	37.73
228.282	36.15
228.499	30.64
228.716	33.08
228.934	32.25
229.151	30.67
229.368	31.48
229.585	34.94
229.802	38.89
230.02	36.07
230.237	33.66
230.454	33.83
230.671	33.01
230.888	35.15
231.105	34.72
231.323	34.97
231.54	37.3
231.757	41.44
231.974	37.24
232.191	36.59
232.408	37.92
232.625	34.06
232.842	32.92
233.059	37.37
233.276	38.94
233.493	33.2
233.71	27.39
233.927	26.99
234.144	21.19
234.361	24.9
234.578	22.58
234.795	26.43
235.012	34.42
235.229	38.62
235.446	37.82
235.663	31.84
235.879	35.43
236.096	39.92
236.313	31.08
236.53	29.62
236.747	25.9
236.964	27.95
237.181	24.23
237.397	22.56
237.614	13.27
237.831	10.97
238.048	19.64
238.264	16.83
238.481	12.46
238.698	21.87
238.915	18.9
239.131	17.68
239.348	12.91
239.565	21.18
239.781	19.68
239.998	21.5
240.215	22.01
240.431	14.66
240.648	19.48
240.865	20.57
241.081	20.69
241.298	23.78
241.514	24.73
241.731	23.64
241.947	22.01
242.164	20.82
242.38	20
242.597	21.86
242.814	22.34
243.03	21.64
243.246	22.88
243.463	22.23
243.679	22.36
243.896	23.04
244.112	23.83
244.329	22.34
244.545	21.61
244.762	21.63
244.978	18.06
245.194	18.44
245.411	18.8
245.627	17.98
245.843	17.82
246.06	17.72
246.276	15.2
246.492	15.97
246.709	17.09
246.925	17.32
247.141	17.4
247.357	18.07
247.574	18.91
247.79	18.69
248.006	18.96
248.222	18.13
248.439	17.08
248.655	17.88
248.871	18.35
249.087	17.44
249.303	17.42
249.519	17.22
249.736	16.61
249.952	15.23
250.168	14.1
250.384	14.41
250.6	15.07
250.816	17.41
251.032	13.68
251.248	12.38
251.464	11.99
251.68	12.65
251.896	11.82
252.112	10.88
252.328	11.06
252.544	11.54
252.76	7.89
252.976	7.87
253.192	4.53
253.408	5.97
253.624	5.16
253.84	7.42
254.056	7.02
254.272	8.8
254.487	9.65
254.703	9.1
254.919	8.44
255.135	12.22
255.351	14.8
255.567	19.96
255.782	21.93
255.998	21.69
256.214	21.22
256.43	19.63
256.646	18.64
256.861	17.16
257.077	16.21
257.293	15.04
257.508	13.68
257.724	13.04
257.94	9.74
258.155	9.5
258.371	9.67
258.587	9.53
258.802	9.13
259.018	8.75
259.234	8.68
259.449	8.58
259.665	9.2
259.88	9.36
260.096	10.23
260.312	10.52
260.527	10.89
260.743	10.94
260.958	10.85
261.174	11.04
261.389	11.93
261.605	11.69
261.82	12.53
262.036	13.09
262.251	11.7
262.466	10.97
262.682	10.68
262.897	9.46
263.113	8.46
263.328	7.86
263.543	8.39
263.759	7.03
263.974	9.44
264.189	9.15
264.405	9.3
264.62	13.49
264.835	12.5
265.051	14.53
265.266	15.19
265.481	14.1
265.696	11.42
265.912	12.28
266.127	11.9
266.342	12.47
266.557	11.71
266.773	11.31
266.988	11.11
267.203	11.56
267.418	11.21
267.633	12.64
267.848	13.3
268.064	14.62
268.279	14.47
268.494	15.74
268.709	14.99
268.924	15.76
269.139	15.28
269.354	14.47
269.569	12.08
269.784	11.94
269.999	10.32
270.214	11.1
270.429	12.77
270.644	11.97
270.859	11.32
271.074	11.53
271.289	10.35
271.504	10.55
271.719	10.76
271.934	12.85
272.149	12.18
272.363	11.03
272.578	9.58
272.793	8.76
273.008	9.89
273.223	10.09
273.438	9.63
273.653	10.36
273.867	10.31
274.082	9.93
274.297	10.52
274.512	10.48
274.726	11.81
274.941	13.21
275.156	13.27
275.371	12.97
275.585	12.66
275.8	12.03
276.015	11.12
276.229	11.89
276.444	12.88
276.659	11.4
276.873	10.82
277.088	12.23
277.302	13.03
277.517	12.48
277.732	12.05
277.946	11.86
278.161	12.65
278.375	13.23
278.59	11.98
278.804	12.49
279.019	11.18
279.233	12.11
279.448	9.34
279.662	8.43
279.877	9.37
280.091	8.6
280.306	8.83
280.52	10.2
280.735	10.77
280.949	10.41
281.163	9.57
281.378	11.98
281.592	12.08
281.806	13.35
282.021	14.25
282.235	14.14
282.449	14.64
282.664	15.06
282.878	13.97
283.092	13.5
283.307	16.43
283.521	14.92
283.735	14.05
283.949	14.41
284.164	14.26
284.378	13.02
284.592	12.47
284.806	11.53
285.02	11.01
285.234	12.25
285.449	12.06
285.663	10.97
285.877	11.48
286.091	12.44
286.305	12.24
286.519	12.59
286.733	13.47
286.947	13.37
287.161	13.74
287.375	14.19
287.589	13.25
287.803	13.49
288.017	13.7
288.231	13.94
288.445	12.71
288.659	11.88
288.873	12.22
289.087	11.19
289.301	12.02
289.515	13.18
289.729	11.77
289.943	11.87
290.157	11.4
290.371	9.17
290.584	11.16
290.798	9.82
291.012	9.31
291.226	10.72
291.44	10.43
291.654	11.45
291.867	12.93
292.081	15.1
292.295	15.01
292.509	16.27
292.722	18.94
292.936	16.37
293.15	19.58
293.364	20.36
293.577	17.67
293.791	18.9
294.005	17.28
294.218	15.84
294.432	16.47
294.645	16.5
294.859	15.78
295.073	15.15
295.286	15.82
295.5	14.38
295.713	14.4
295.927	14.68
296.14	14.65
296.354	15.04
296.568	15.16
296.781	13.8
296.994	14.4
297.208	14.44
297.421	13.31
297.635	13.79
297.848	14.13
298.062	14.28
298.275	13.68
298.489	14.27
298.702	13.99
298.915	14.27
299.129	13.45
299.342	12.82
299.555	13.12
299.769	14.86
299.982	15.77
300.195	16.45
300.409	18.06
300.622	20.64
300.835	19.47
301.048	19.4
301.262	19.15
301.475	19.55
301.688	20.27
301.901	20.01
302.115	19.66
302.328	19.21
302.541	18.3
302.754	16.47
302.967	15.66
303.18	15.6
303.393	15.62
303.607	15.49
303.82	15.4
304.033	13.5
304.246	14.26
304.459	12.46
304.672	11.55
304.885	11.1
305.098	11.95
305.311	12
305.524	11.37
305.737	10.33
305.95	9.19
306.163	9.96
306.376	11.53
306.589	10.01
306.802	11.43
307.015	11.81
307.228	13.35
307.44	12.18
307.653	10.74
307.866	12.49
308.079	13.47
308.292	14.43
308.505	15.82
308.718	15.77
308.93	16.23
309.143	16.11
309.356	14.86
309.569	13.58
309.781	14.46
309.994	13.75
310.207	13.48
310.42	13.77
310.632	12.99
310.845	12.88
311.058	11.7
311.27	12.39
311.483	13.13
311.696	12.84
311.908	12.35
312.121	11.54
312.333	11.63
312.546	11.52
312.759	12.12
312.971	12.22
313.184	13.08
313.396	13.01
313.609	11.44
313.821	11.34
314.034	12.97
314.246	15.31
314.459	16.92
314.671	18.91
314.884	19.28
315.096	18.97
315.309	20.22
315.521	17.1
315.733	18.4
315.946	18.38
316.158	18.26
316.371	18.48
316.583	16.23
316.795	14.28
317.008	13.61
317.22	14.51
317.432	15.04
317.644	13.31
317.857	12.33
318.069	12.34
318.281	13.26
318.494	12.52
318.706	11.92
318.918	13.03
319.13	14.31
319.342	12.59
319.555	10.18
319.767	8.24
319.979	10.25
320.191	12.89
320.403	12.13
320.615	13.21
320.827	13.1
321.039	13.05
321.252	12.83
321.464	12.06
321.676	13.89
321.888	14.72
322.1	16.46
322.312	15.09
322.524	13.8
322.736	14.12
322.948	13.45
323.16	14.99
323.372	14.54
323.584	14.48
323.796	14
324.007	13.86
324.219	13.31
324.431	13.03
324.643	12.7
324.855	13.92
325.067	12.98
325.279	12.54
325.491	10.82
325.702	11.54
325.914	11.34
326.126	13.03
326.338	11.71
326.55	12.14
326.761	11.45
326.973	12.06
327.185	12.8
327.396	14.42
327.608	15.95
327.82	16.79
328.032	16.16
328.243	17.11
328.455	16.53
328.666	18.73
328.878	18.43
329.09	18.67
329.301	18.7
329.513	17.35
329.725	16.57
329.936	14.32
330.148	13.37
330.359	13.01
330.571	12.77
330.782	11.28
330.994	9.46
331.205	9.96
331.417	9.53
331.628	9.64
331.84	9.02
332.051	10.27
332.262	11.82
332.474	11.64
332.685	12.11
332.897	11.02
333.108	11.9
333.319	11.58
333.531	11.12
333.742	10.57
333.953	10.73
334.165	12.16
334.376	11.35
334.587	12.01
334.799	12.21
335.01	12.06
335.221	12.28
335.432	11.3
335.644	12.33
335.855	12.88
336.066	13.98
336.277	12.29
336.488	12.25
336.7	11.68
336.911	11.14
337.122	12.17
337.333	13.5
337.544	12.85
337.755	13.74
337.966	13.26
338.177	13.66
338.388	13.6
338.599	14.65
338.811	13.45
339.022	13.58
339.233	13.46
339.444	12.18
339.655	11.59
339.866	11.62
340.076	12.75
340.287	12.38
340.498	11.9
340.709	11.55
340.92	11.96
341.131	12.75
341.342	13.19
341.553	11.53
341.764	11.71
341.975	11.38
342.185	12.03
342.396	11.19
342.607	12.45
342.818	12.4
343.029	12.33
343.239	12.78
343.45	12.51
343.661	13.48
343.872	13.95
344.082	14.54
344.293	13.96
344.504	12.98
344.714	12.67
344.925	11.61
345.136	11.34
345.346	11.85
345.557	11.28
345.768	10.86
345.978	10.19
346.189	10.19
346.399	10.01
346.61	8.49
346.821	8.81
347.031	9.45
347.242	9.33
347.452	8.62
347.663	8.89
347.873	8.62
348.084	7.83
348.294	7.73
348.504	8.73
348.715	8.24
348.925	10.9
349.136	11.38
349.346	10.97
349.557	11.35
349.767	12.29
349.977	11.99
350.188	11.49
350.398	12.3
350.608	10.59
350.819	11.13
351.029	11.02
351.239	11
351.449	10.46
351.66	10.77
351.87	11.8
352.08	11.92
352.29	11.3
352.501	12.72
352.711	12.76
352.921	13.03
353.131	12.05
353.341	13.28
353.552	13.49
353.762	14.4
353.972	14.44
354.182	12.88
354.392	12.43
354.602	12.33
354.812	11.86
355.022	11.77
355.232	12.27
355.442	13.03
355.652	12.33
355.862	12.01
356.072	12.51
356.282	13.61
356.492	14.04
356.702	13.15
356.912	13.43
357.122	13.08
357.332	12.46
357.542	13.45
357.752	13.21
357.962	13.19
358.171	12.76
358.381	12.61
358.591	11.69
358.801	11.48
359.011	11.7
359.221	12.15
359.43	13.42
359.64	14.52
359.85	13.78
360.06	13.41
360.269	12.68
360.479	12.84
360.689	12.38
360.899	12.61
361.108	12.55
361.318	12.62
361.528	12.12
361.737	11.25
361.947	10.7
362.156	10.81
362.366	10.36
362.576	10.68
362.785	10.56
362.995	11.05
363.204	10.55
363.414	10.73
363.623	11.92
363.833	12.16
364.042	12.16
364.252	11.86
364.461	11.67
364.671	12.3
364.88	12.25
365.09	12.17
365.299	10.99
365.509	10.72
365.718	10.65
365.927	9.3
366.137	9.49
366.346	9
366.555	9.21
366.765	8.86
366.974	8.7
367.183	9.57
367.393	9.58
367.602	9.08
367.811	8.49
368.021	9.05
368.23	9.4
368.439	9.25
368.648	9.49
368.857	9.65
369.067	9.6
369.276	9.54
369.485	9.27
369.694	8.69
369.903	9.88
370.112	10.65
370.321	9.8
370.531	8.81
370.74	8.17
370.949	7.29
371.158	6.96
371.367	7.1
371.576	7.14
371.785	6.22
371.994	6.52
372.203	5.69
372.412	6
372.621	5.5
372.83	5.54
373.039	6.11
373.248	6.73
373.457	6.48
373.666	6.34
373.874	6.34
374.083	7.15
374.292	7.8
374.501	8.57
374.71	8.37
374.919	8.45
375.128	8.54
375.336	7.8
375.545	8.59
375.754	9.21
375.963	9.97
376.171	9.66
376.38	9.32
376.589	8.66
376.798	8.12
377.006	7.57
377.215	8.16
377.424	9.2
377.632	10.06
377.841	9.97
378.05	10.26
378.258	9.74
378.467	10.21
378.675	10.06
378.884	10.46
379.093	10.47
379.301	10.76
379.51	10.02
379.718	9.3
379.927	9
380.135	8.12
380.344	7.4
380.552	7.64
380.761	6.77
380.969	7.06
381.177	7.21
381.386	7.29
381.594	7.12
381.803	6.98
382.011	7.34
382.219	6.94
382.428	7.68
382.636	7.78
382.845	7.85
383.053	8.27
383.261	8.19
383.469	7.71
383.678	7.85
383.886	7.74
384.094	8.21
384.302	7.99
384.511	7.91
384.719	7.69
384.927	7.8
385.135	7.43
385.343	7.59
385.552	7.89
385.76	8.35
385.968	7.92
386.176	8.45
386.384	7.9
386.592	7.73
386.8	7.73
387.008	7.63
387.216	7.66
387.424	7.97
387.633	7.69
387.841	7.24
388.049	6.5
388.257	6.73
388.465	6.47
388.672	6.73
388.88	6.63
389.088	6.43
389.296	6.37
389.504	6.13
389.712	6.02
389.92	6.05
390.128	5.57
390.336	5.88
390.544	5.71
390.751	5.55
390.959	5.75
391.167	5.73
391.375	5.74
391.583	5.04
391.79	4.99
391.998	4.69
392.206	4.72
392.414	4.89
392.621	5.04
392.829	5.18
393.037	5.16
393.244	4.85
393.452	5.28
393.66	5.56
393.867	6.09
394.075	6.07
394.283	6.14
394.49	5.81
394.698	5.74
394.905	5.44
395.113	5.11
395.32	5.12
395.528	5.27
395.735	4.68
395.943	4.65
396.15	4.52
396.358	4.77
396.565	5.08
396.773	5.35
396.98	5.8
397.188	6.24
397.395	6.75
397.602	6.91
397.81	7.02
398.017	7.35
398.225	7.19
398.432	7.23
398.639	7.21
398.847	7.2
399.054	6.99
399.261	6.33
399.468	5.97
399.676	5.6
399.883	5.4
400.09	5.38
400.297	5.23
400.505	5.35
400.712	5.48
400.919	5.65
401.126	5.2
401.333	5.65
401.54	6
401.748	6.01
401.955	6.2
402.162	5.73
402.369	6.05
402.576	5.91
402.783	5.67
402.99	5.48
403.197	5.14
403.404	5.49
403.611	5.18
403.818	5.42
404.025	5.41
404.232	5.27
404.439	5.72
404.646	5.4
404.853	5.41
405.06	5.51
405.267	5.35
405.474	5.33
405.681	5.31
405.887	5.22
406.094	5.28
406.301	5.36
406.508	5.3
406.715	5.34
406.922	5.29
407.128	5.36
407.335	5.39
407.542	5.77
407.749	5.82
407.955	5.8
408.162	5.79
408.369	5.7
408.575	5.34
408.782	5.55
408.989	5.39
409.195	5.61
409.402	5.27
409.609	5.04
409.815	4.99
410.022	4.71
410.228	4.66
410.435	4.75
410.642	4.85
410.848	5.19
411.055	5.17
411.261	5.12
411.468	4.99
411.674	5.36
411.881	5.58
412.087	5.52
412.294	5.66
412.5	5.62
412.706	5.9
412.913	5.67
413.119	5.6
413.326	5.39
413.532	5.18
413.738	5.24
413.945	5.33
414.151	5.39
414.357	5.36
414.564	5.31
414.77	5
414.976	4.63
415.182	4.44
415.389	4.41
415.595	4.62
415.801	5.01
416.007	4.86
416.214	4.9
416.42	4.85
416.626	4.84
416.832	4.86
417.038	5.08
417.244	5.36
417.45	5.47
417.657	5.43
417.863	5.19
418.069	5.14
418.275	5.16
418.481	4.96
418.687	4.85
418.893	4.81
419.099	4.96
419.305	4.76
419.511	4.67
419.717	4.66
419.923	4.7
420.129	4.68
420.335	4.49
420.541	4.36
420.746	4.42
420.952	4.52
421.158	4.5
421.364	4.56
421.57	4.65
421.776	4.57
421.982	4.56
422.187	4.53
422.393	4.64
422.599	4.66
422.805	4.77
423.01	4.83
423.216	4.83
423.422	4.95
423.628	4.88
423.833	4.95
424.039	4.9
424.245	4.89
424.45	4.86
424.656	4.87
424.862	5.03
425.067	5.4
425.273	5.32
425.478	5.1
425.684	4.97
425.889	4.84
426.095	4.76
426.301	4.89
426.506	4.8
426.712	4.88
426.917	4.85
427.123	4.7
427.328	4.37
427.533	4.43
427.739	4.59
427.944	4.79
428.15	4.74
428.355	4.66
428.561	4.73
428.766	4.73
428.971	4.76
429.177	4.69
429.382	4.66
429.587	4.6
429.793	4.69
429.998	4.57
430.203	4.51
430.408	4.52
430.614	4.6
430.819	4.46
431.024	4.82
431.229	4.72
431.434	5.1
431.64	5.07
431.845	5
432.05	4.68
432.255	4.74
432.46	4.71
432.665	4.81
432.87	4.92
433.076	5.06
433.281	4.82
433.486	4.92
433.691	4.65
433.896	4.69
434.101	4.68
434.306	4.78
434.511	5.07
434.716	4.92
434.921	4.95
435.126	4.99
435.331	4.83
435.535	4.82
435.74	4.6
435.945	4.51
436.15	4.4
436.355	4.44
436.56	4.54
436.765	4.27
436.97	4.21
437.174	4.2
437.379	4.13
437.584	4.14
437.789	4.17
437.993	4.45
438.198	4.51
438.403	4.67
438.608	4.51
438.812	4.33
439.017	4.29
439.222	4.47
439.426	4.29
439.631	4.27
439.836	4.34
440.04	4.32
440.245	4.2
440.45	4.25
440.654	4.13
440.859	4.21
441.063	4.39
441.268	4.36
441.472	4.35
441.677	4.41
441.881	4.31
442.086	4.3
442.29	4.34
442.495	4.2
442.699	4.08
442.904	4.2
443.108	4.34
443.312	4.3
443.517	4.4
443.721	4.3
443.925	4.46
444.13	4.31
444.334	4.05
444.538	4.16
444.743	4.37
444.947	4.49
445.151	4.6
445.356	4.51
445.56	4.34
445.764	4.38
445.968	4.42
446.173	4.38
446.377	4.5
446.581	4.67
446.785	4.65
446.989	4.66
447.193	4.69
447.398	4.46
447.602	4.35
447.806	4.53
448.01	4.41
448.214	4.45
448.418	4.4
448.622	4.5
448.826	4.44
449.03	4.14
449.234	4.18
449.438	3.97
449.642	3.81
449.846	3.78
450.05	3.7
450.254	3.98
450.458	4.14
450.662	4.12
450.866	4.04
451.069	4.02
451.273	4.23
451.477	4.04
451.681	4.31
451.885	4.62
452.089	4.87
452.292	4.57
452.496	4.38
452.7	4.24
452.904	4.32
453.107	4.1
453.311	4.25
453.515	4.22
453.719	4.11
453.922	4.03
454.126	3.86
454.33	3.45
454.533	3.64
454.737	3.47
454.94	3.38
455.144	3.22
455.348	3.5
455.551	3.55
455.755	3.71
455.958	3.86
456.162	3.79
456.365	3.94
456.569	4.37
456.772	4.48
456.976	4.65
457.179	4.75
457.383	4.74
457.586	4.59
457.79	4.4
457.993	4.31
458.196	4.33
458.4	4.42
458.603	4.33
458.807	4.14
459.01	4.22
459.213	4.04
459.417	3.88
459.62	4.02
459.823	4.1
460.026	4.13
460.23	4.14
460.433	4.09
460.636	4.08
460.839	4.25
461.042	4.42
461.246	4.3
461.449	4.53
461.652	4.62
461.855	4.5
462.058	4.55
462.261	4.71
462.464	4.79
462.668	4.89
462.871	4.91
463.074	4.74
463.277	4.65
463.48	4.61
