Data from 2937836_Reflection_1.txt Node
Date: Wed Jul 15 16:30:18 EDT 2015
User: robert
Spectrometer: USB4E03001
Autoset integration time: false
Trigger mode: 4
Integration Time (sec): 1.000000E-1
Scans to average: 10
Electric dark correction enabled: true
Nonlinearity correction enabled: false
Boxcar width: 5
Stray light correction enabled: false
XAxis mode: Wavelengths
Stop averaging: false
Number of Pixels in Spectrum: 3648
>>>>>Begin Spectral Data<<<<<
177.566	204.89
177.785	198.22
178.005	-23.83
178.225	87.42
178.445	123.26
178.665	156.85
178.885	62.36
179.105	127.96
179.324	103.21
179.544	139.89
179.764	99.04
179.984	97.51
180.204	25.6
180.423	52.87
180.643	68.09
180.863	125.15
181.083	121.96
181.302	-607.69
181.522	-667.89
181.742	143.28
181.961	159.89
182.181	124.64
182.401	211.62
182.621	317.09
182.84	145.94
183.06	145.93
183.279	77.81
183.499	77.07
183.719	41.53
183.938	46.57
184.158	83.18
184.377	64.46
184.597	54
184.816	21.48
185.036	43.58
185.256	-5.82
185.475	-7.63
185.695	-9.2
185.914	19.71
186.134	34.97
186.353	39.55
186.572	17.39
186.792	30.72
187.011	11.82
187.231	42.62
187.45	37.01
187.67	63.14
187.889	45.82
188.108	69.55
188.328	66.27
188.547	66.35
188.766	53.05
188.986	61.63
189.205	66.57
189.424	82.67
189.644	72.11
189.863	68.21
190.082	74.22
190.302	80.86
190.521	85.27
190.74	67.01
190.959	57.78
191.178	71.07
191.398	-47.09
191.617	-92.39
191.836	-68.31
192.055	-31.22
192.274	3
192.494	-38.67
192.713	-21.35
192.932	-136.77
193.151	43.26
193.37	46.5
193.589	40.86
193.808	30.26
194.027	39.14
194.246	15.66
194.465	13.68
194.685	0.72
194.904	7.64
195.123	-20.82
195.342	-18.89
195.561	12.5
195.78	-18.47
195.999	-61.17
196.218	-10.51
196.436	62.99
196.655	36.79
196.874	-86.92
197.093	4767.69
197.312	243.64
197.531	-96.42
197.75	323.96
197.969	274.87
198.188	80.38
198.407	-37.28
198.625	44.42
198.844	48.05
199.063	71.93
199.282	83.06
199.501	67.65
199.719	63.31
199.938	63.9
200.157	67.09
200.376	53.19
200.594	46.28
200.813	46.51
201.032	48.78
201.251	41.2
201.469	33.27
201.688	13.58
201.907	15.12
202.125	8.45
202.344	8.74
202.563	3.8
202.781	4.74
203	4.18
203.218	-3.7
203.437	-8.69
203.656	-15.86
203.874	-20.38
204.093	2.25
204.311	15.78
204.53	23.58
204.748	38.27
204.967	31.98
205.185	45.06
205.404	50.16
205.622	55.47
205.841	55.79
206.059	66.09
206.278	71.68
206.496	62.15
206.715	27.83
206.933	-76.34
207.151	-253.48
207.37	9309.62
207.588	823.97
207.806	-310.74
208.025	-319.58
208.243	-225.94
208.461	-115.8
208.68	10.94
208.898	-5.49
209.116	165.67
209.335	102.59
209.553	206.09
209.771	217.82
209.989	254
210.208	159.89
210.426	148.79
210.644	185.14
210.862	161.95
211.081	104.86
211.299	81.63
211.517	71.29
211.735	84.59
211.953	76.43
212.171	71.42
212.39	28.82
212.608	27.05
212.826	16.86
213.044	22.53
213.262	4.12
213.48	11.42
213.698	19.57
213.916	34.41
214.134	35.63
214.352	38.87
214.57	43.72
214.788	74.95
215.006	86.58
215.224	93.98
215.442	92.53
215.66	104.23
215.878	112.5
216.096	130.33
216.314	126.52
216.532	139.7
216.75	123.62
216.968	117.39
217.185	93.45
217.403	92
217.621	108.91
217.839	96.05
218.057	68.7
218.275	76.69
218.492	60.38
218.71	57.37
218.928	48.07
219.146	39.51
219.363	36.52
219.581	59.92
219.799	73.23
220.017	88.09
220.234	93.26
220.452	105.99
220.67	81.08
220.887	100.07
221.105	102.73
221.323	98.74
221.54	110.82
221.758	98.78
221.976	105.56
222.193	93.53
222.411	64.54
222.629	66.06
222.846	61.18
223.064	63.37
223.281	40
223.499	46.57
223.716	49.26
223.934	20.73
224.151	23.81
224.369	23.66
224.586	25.77
224.804	38.71
225.021	25.7
225.239	39.55
225.456	38.91
225.674	35.83
225.891	29.69
226.108	25.08
226.326	29.81
226.543	33.87
226.76	38.39
226.978	36.93
227.195	30.56
227.413	27.28
227.63	24.42
227.847	20.91
228.064	23.18
228.282	22.8
228.499	23.66
228.716	23.16
228.934	23.92
229.151	20.62
229.368	18.94
229.585	18.09
229.802	20.45
230.02	16.89
230.237	15.56
230.454	14.66
230.671	16.72
230.888	14.72
231.105	13.31
231.323	13.51
231.54	11.62
231.757	6.68
231.974	5.71
232.191	1.01
232.408	0.32
232.625	-0.18
232.842	-2.96
233.059	-8.43
233.276	3.89
233.493	7.38
233.71	0.36
233.927	8.27
234.144	18.66
234.361	24.55
234.578	29.24
234.795	34
235.012	34.75
235.229	37.04
235.446	38.72
235.663	36.94
235.879	36.33
236.096	40.37
236.313	42.13
236.53	46.61
236.747	43.34
236.964	43.94
237.181	38.6
237.397	41.91
237.614	35.26
237.831	33.31
238.048	30.9
238.264	27.99
238.481	26.37
238.698	23.37
238.915	16.2
239.131	16.14
239.348	12.53
239.565	17.39
239.781	15.46
239.998	22.49
240.215	22.04
240.431	20.6
240.648	22.97
240.865	25.61
241.081	26.3
241.298	26.83
241.514	27.1
241.731	27.59
241.947	26.14
242.164	26.41
242.38	24.89
242.597	25.77
242.814	26.56
243.03	26.36
243.246	25.69
243.463	26.18
243.679	25.22
243.896	23.9
244.112	23.9
244.329	24.14
244.545	24.21
244.762	23.75
244.978	20.36
245.194	19.3
245.411	18.47
245.627	15.81
245.843	15.09
246.06	15.52
246.276	16.65
246.492	15.95
246.709	14.91
246.925	15.32
247.141	15.88
247.357	16.38
247.574	15.85
247.79	15.45
248.006	15.37
248.222	14.89
248.439	14.87
248.655	13.37
248.871	12.89
249.087	13.83
249.303	13.02
249.519	10.68
249.736	11.9
249.952	11.94
250.168	11.43
250.384	10.64
250.6	9.55
250.816	9.57
251.032	9.35
251.248	9.84
251.464	9.6
251.68	10.77
251.896	14.82
252.112	15.2
252.328	16.95
252.544	18.75
252.76	16.35
252.976	16.34
253.192	16.42
253.408	16.13
253.624	16.65
253.84	16.93
254.056	15.49
254.272	13.74
254.487	11.03
254.703	10.84
254.919	8.45
255.135	14.96
255.351	15.96
255.567	15.12
255.782	17.44
255.998	16.44
256.214	13.22
256.43	14.44
256.646	14.46
256.861	13.22
257.077	12.05
257.293	8.68
257.508	6.59
257.724	7.05
257.94	7.61
258.155	6.89
258.371	7.27
258.587	8.64
258.802	8.08
259.018	7.71
259.234	9.02
259.449	8.46
259.665	10.02
259.88	9.81
260.096	9.61
260.312	9.64
260.527	10.64
260.743	11.08
260.958	11.57
261.174	11.63
261.389	12.07
261.605	12.23
261.82	12.62
262.036	12.93
262.251	13.59
262.466	14.53
262.682	15.45
262.897	14.19
263.113	13.44
263.328	13.07
263.543	13.84
263.759	14.59
263.974	13.82
264.189	15.26
264.405	14.85
264.62	13.61
264.835	12.43
265.051	10.69
265.266	13.83
265.481	15.13
265.696	12.4
265.912	14.14
266.127	11.97
266.342	12.15
266.557	11.12
266.773	9.63
266.988	11.28
267.203	11.68
267.418	11.76
267.633	9.67
267.848	10.4
268.064	13.8
268.279	13.22
268.494	13.71
268.709	13.29
268.924	13.84
269.139	14.16
269.354	13.58
269.569	13.3
269.784	14.39
269.999	13.62
270.214	13.26
270.429	12.24
270.644	12.89
270.859	12.42
271.074	12.6
271.289	11.74
271.504	12.97
271.719	13.55
271.934	13.12
272.149	11.32
272.363	12.51
272.578	13.61
272.793	13.76
273.008	11.94
273.223	12.87
273.438	13.55
273.653	14.21
273.867	12.74
274.082	13.05
274.297	14.48
274.512	16.51
274.726	16.53
274.941	13.73
275.156	13.59
275.371	14.12
275.585	13.23
275.8	11.48
276.015	11.91
276.229	14.43
276.444	13.58
276.659	12.43
276.873	12.37
277.088	11.24
277.302	10.97
277.517	10.36
277.732	9.48
277.946	8.91
278.161	9.99
278.375	7.5
278.59	6.9
278.804	7.27
279.019	8.77
279.233	7.45
279.448	7.32
279.662	7.64
279.877	7.8
280.091	9.59
280.306	10.88
280.52	10.49
280.735	11.62
280.949	11.11
281.163	11.42
281.378	10.69
281.592	12.04
281.806	13.1
282.021	13.67
282.235	14.62
282.449	14.98
282.664	14.76
282.878	16.3
283.092	16.99
283.307	18.11
283.521	18.13
283.735	19.01
283.949	18.25
284.164	17.62
284.378	17.15
284.592	16.03
284.806	15.4
285.02	14.25
285.234	12.91
285.449	12.49
285.663	11.35
285.877	10.87
286.091	10.49
286.305	11.62
286.519	10.69
286.733	10.12
286.947	9.53
287.161	9.98
287.375	10.76
287.589	10.4
287.803	10.22
288.017	10.24
288.231	10.65
288.445	9.22
288.659	8.91
288.873	10.79
289.087	13.5
289.301	13.75
289.515	12.26
289.729	13.61
289.943	14.79
290.157	15.06
290.371	14.94
290.584	14.95
290.798	15.93
291.012	15.93
291.226	15.27
291.44	13.66
291.654	13.3
291.867	12.22
292.081	11.47
292.295	9.81
292.509	9.76
292.722	10.9
292.936	9.17
293.15	9.14
293.364	8.42
293.577	9.21
293.791	10.25
294.005	12.54
294.218	14.12
294.432	14.25
294.645	16.62
294.859	16.45
295.073	17.37
295.286	18.14
295.5	18.46
295.713	18.88
295.927	19.15
296.14	18.03
296.354	17.79
296.568	19.03
296.781	18.27
296.994	17.01
297.208	17.69
297.421	15.63
297.635	15.47
297.848	15.15
298.062	15.72
298.275	15.15
298.489	15.63
298.702	14.88
298.915	13.87
299.129	13.57
299.342	14.28
299.555	12.95
299.769	15.42
299.982	16.79
300.195	17.48
300.409	15.52
300.622	15.86
300.835	16.92
301.048	16.47
301.262	16.61
301.475	18.24
301.688	17.89
301.901	18.38
302.115	16.18
302.328	14.88
302.541	15.73
302.754	15.92
302.967	15.88
303.18	14.77
303.393	16.16
303.607	17.22
303.82	17.05
304.033	15.26
304.246	15.43
304.459	16.74
304.672	17.43
304.885	15.96
305.098	15.9
305.311	16.09
305.524	16.74
305.737	16.33
305.95	16.35
306.163	15.34
306.376	18.48
306.589	18.98
306.802	18.3
307.015	18.94
307.228	19.85
307.44	20.18
307.653	21.37
307.866	21.75
308.079	22.07
308.292	19.51
308.505	21.51
308.718	19.04
308.93	19.06
309.143	20.64
309.356	19.68
309.569	19.12
309.781	21.1
309.994	20.37
310.207	19.73
310.42	19.41
310.632	21.39
310.845	20.8
311.058	21.45
311.27	21.11
311.483	19.49
311.696	18.75
311.908	19.07
312.121	17.81
312.333	17.28
312.546	16.28
312.759	14.93
312.971	13.77
313.184	10.81
313.396	11.94
313.609	11.33
313.821	10.59
314.034	11.66
314.246	10.65
314.459	9.61
314.671	11.52
314.884	13.49
315.096	15.81
315.309	16.63
315.521	18.57
315.733	17.33
315.946	16.58
316.158	17.88
316.371	18.15
316.583	17.38
316.795	17.06
317.008	15.94
317.22	14.75
317.432	14.8
317.644	15.78
317.857	16.03
318.069	16.84
318.281	18.26
318.494	18.08
318.706	17.93
318.918	19.08
319.13	20.12
319.342	19.57
319.555	19.98
319.767	18.99
319.979	17.25
320.191	17.17
320.403	16.91
320.615	15.43
320.827	15.69
321.039	17.09
321.252	18.11
321.464	19.04
321.676	18.76
321.888	18.46
322.1	20.95
322.312	23.13
322.524	22.61
322.736	23.29
322.948	23.72
323.16	24.38
323.372	24.23
323.584	22.28
323.796	21.41
324.007	20.28
324.219	21.96
324.431	20.08
324.643	18.31
324.855	17.83
325.067	16.31
325.279	16.86
325.491	16.6
325.702	15.99
325.914	16.47
326.126	16.35
326.338	17.08
326.55	15.4
326.761	16
326.973	15.76
327.185	15.98
327.396	16.55
327.608	16.7
327.82	16.32
328.032	13.09
328.243	13.88
328.455	13.81
328.666	13.45
328.878	15.87
329.09	15.9
329.301	16.24
329.513	18.1
329.725	17.34
329.936	17.42
330.148	16.38
330.359	17.87
330.571	17.88
330.782	18.17
330.994	17.88
331.205	15.4
331.417	14.52
331.628	14.69
331.84	15.86
332.051	15.9
332.262	15.99
332.474	17.36
332.685	19.19
332.897	18.18
333.108	19.78
333.319	20.92
333.531	21.7
333.742	21.47
333.953	21.1
334.165	19.56
334.376	20.71
334.587	21.79
334.799	21.87
335.01	21.56
335.221	22.43
335.432	22.02
335.644	21.66
335.855	21.23
336.066	20
336.277	19.43
336.488	20.07
336.7	19.76
336.911	19.27
337.122	18.3
337.333	18.9
337.544	18.33
337.755	17.55
337.966	16.91
338.177	16.75
338.388	19.11
338.599	18.81
338.811	16.89
339.022	15.57
339.233	14.3
339.444	14.08
339.655	13.98
339.866	13.4
340.076	13.83
340.287	14.71
340.498	15.41
340.709	14.67
340.92	15.58
341.131	17.04
341.342	19.85
341.553	20.25
341.764	21.87
341.975	21.93
342.185	22.62
342.396	22.31
342.607	22.5
342.818	23.89
343.029	23.39
343.239	22.98
343.45	22.66
343.661	21.19
343.872	21.96
344.082	20.44
344.293	19.35
344.504	18.79
344.714	17.9
344.925	19.24
345.136	17.46
345.346	18.03
345.557	17.8
345.768	17.39
345.978	17.23
346.189	16.85
346.399	17.45
346.61	18.28
346.821	18.65
347.031	19.5
347.242	18.75
347.452	18.73
347.663	19.22
347.873	20.02
348.084	21.44
348.294	21.01
348.504	19.4
348.715	19.53
348.925	17.63
349.136	17.05
349.346	16.49
349.557	15.75
349.767	15.87
349.977	15.92
350.188	16.14
350.398	15.72
350.608	17.56
350.819	18.19
351.029	19.11
351.239	20.89
351.449	22.36
351.66	21.21
351.87	21.5
352.08	21.75
352.29	21.2
352.501	20.82
352.711	19.29
352.921	17.98
353.131	18.56
353.341	18.06
353.552	17.14
353.762	16.41
353.972	18.09
354.182	17.54
354.392	18.26
354.602	18.23
354.812	18.01
355.022	19.11
355.232	20.01
355.442	20.06
355.652	19.22
355.862	19.43
356.072	20.65
356.282	20.36
356.492	20.65
356.702	19.28
356.912	18.69
357.122	19.16
357.332	19
357.542	19.12
357.752	18.86
357.962	19.36
358.171	18.72
358.381	17.49
358.591	17.92
358.801	17.61
359.011	18.43
359.221	18.69
359.43	18.85
359.64	19.06
359.85	17.63
360.06	18.21
360.269	17.46
360.479	17.84
360.689	18.79
360.899	18.23
361.108	19.64
361.318	20.3
361.528	20.32
361.737	19.98
361.947	19.15
362.156	19.75
362.366	19.78
362.576	20.4
362.785	20.48
362.995	20.3
363.204	20.61
363.414	19.41
363.623	18.02
363.833	17.85
364.042	18.11
364.252	18.65
364.461	17.56
364.671	17.02
364.88	17.14
365.09	17.94
365.299	17.41
365.509	18.26
365.718	18.37
365.927	18.62
366.137	18.99
366.346	18.76
366.555	18.25
366.765	18.61
366.974	18.45
367.183	17.85
367.393	16.98
367.602	16.53
367.811	15.89
368.021	16.13
368.23	16.46
368.439	15.85
368.648	15.32
368.857	15.92
369.067	15.68
369.276	14.88
369.485	16.05
369.694	15.75
369.903	15.85
370.112	15.34
370.321	15.32
370.531	14.59
370.74	14.56
370.949	14.99
371.158	14.69
371.367	15.46
371.576	16.9
371.785	16.32
371.994	16.5
372.203	16.38
372.412	16.26
372.621	16.16
372.83	17.11
373.039	17.51
373.248	17.24
373.457	16.42
373.666	16.32
373.874	15.27
374.083	15.6
374.292	15.9
374.501	16.02
374.71	16.28
374.919	15.97
375.128	14.88
375.336	14.64
375.545	14.44
375.754	14.45
375.963	14.2
376.171	14.37
376.38	13.4
376.589	13.16
376.798	13.42
377.006	12.95
377.215	12.43
377.424	13.27
377.632	13.4
377.841	13.12
378.05	13.04
378.258	12.63
378.467	12.75
378.675	13.03
378.884	13.12
379.093	12.87
379.301	12.99
379.51	13.57
379.718	12.78
379.927	12.07
380.135	12.1
380.344	12.76
380.552	13.02
380.761	13.13
380.969	13.14
381.177	13.04
381.386	13.43
381.594	13.55
381.803	13.08
382.011	13.86
382.219	14.83
382.428	15.19
382.636	14.9
382.845	14.55
383.053	14
383.261	13.37
383.469	13.02
383.678	12.76
383.886	12.98
384.094	12.79
384.302	12.19
384.511	11.92
384.719	12.04
384.927	12.21
385.135	12.31
385.343	12.49
385.552	13.14
385.76	13.25
385.968	12.61
386.176	12
386.384	12.26
386.592	12.32
386.8	11.67
387.008	11.49
387.216	11.53
387.424	11.68
387.633	11.52
387.841	11.19
388.049	10.81
388.257	11.58
388.465	11.79
388.672	11.36
388.88	11.34
389.088	11.84
389.296	11.47
389.504	10.98
389.712	10.99
389.92	10.6
390.128	10.08
390.336	10.21
390.544	9.69
390.751	9.4
390.959	9.55
391.167	9.25
391.375	9.03
391.583	9.39
391.79	9.72
391.998	9.68
392.206	9.63
392.414	10.09
392.621	10.19
392.829	10.44
393.037	10.74
393.244	10.72
393.452	11.03
393.66	10.57
393.867	10.64
394.075	10.17
394.283	9.58
394.49	10.32
394.698	9.94
394.905	9.82
395.113	9.46
395.32	9.27
395.528	9.09
395.735	9.12
395.943	9.65
396.15	9.03
396.358	9.32
396.565	9.96
396.773	9.34
396.98	9.81
397.188	9.46
397.395	9.43
397.602	9.15
397.81	9.39
398.017	8.93
398.225	8.97
398.432	9.43
398.639	9.38
398.847	8.94
399.054	8.98
399.261	8.71
399.468	9.09
399.676	9.07
399.883	9.19
400.09	9.13
400.297	9.07
400.505	8.88
400.712	9.09
400.919	9.2
401.126	9.28
401.333	9.25
401.54	9.31
401.748	9.05
401.955	8.91
402.162	8.91
402.369	8.94
402.576	8.87
402.783	8.98
402.99	8.82
403.197	8.69
403.404	8.92
403.611	8.92
403.818	8.84
404.025	9.04
404.232	9.07
404.439	8.93
404.646	8.84
404.853	9.28
405.06	9.27
405.267	9.14
405.474	9.02
405.681	8.84
405.887	8.96
406.094	9.1
406.301	9.06
406.508	9.31
406.715	9.43
406.922	9.46
407.128	9.4
407.335	9
407.542	8.68
407.749	8.69
407.955	8.38
408.162	8.3
408.369	8.22
408.575	8.55
408.782	8.13
408.989	8.01
409.195	8.12
409.402	8.13
409.609	8.41
409.815	8.45
410.022	8.39
410.228	8.53
410.435	8.56
410.642	8.36
410.848	7.71
411.055	7.89
411.261	7.8
411.468	7.59
411.674	7.64
411.881	7.67
412.087	7.67
412.294	7.61
412.5	7.73
412.706	7.53
412.913	7.59
413.119	8.05
413.326	7.88
413.532	8.2
413.738	8.01
413.945	7.71
414.151	7.78
414.357	7.77
414.564	7.9
414.77	7.84
414.976	7.9
415.182	7.83
415.389	7.7
415.595	7.75
415.801	7.67
416.007	7.9
416.214	7.86
416.42	7.67
416.626	7.84
416.832	7.78
417.038	8
417.244	7.93
417.45	8.01
417.657	7.95
417.863	8.24
418.069	8.26
418.275	8.12
418.481	8.06
418.687	8.12
418.893	8.04
419.099	8.06
419.305	8.12
419.511	8.14
419.717	8.18
419.923	8.36
420.129	8.32
420.335	8.26
420.541	8.41
420.746	8.46
420.952	8.58
421.158	8.39
421.364	8.5
421.57	8.42
421.776	8.38
421.982	8.4
422.187	8.27
422.393	8.14
422.599	8.17
422.805	8.21
423.01	8.05
423.216	7.93
423.422	8.13
423.628	8.05
423.833	7.99
424.039	8.1
424.245	8.04
424.45	8.05
424.656	8.01
424.862	8.01
425.067	7.88
425.273	8.06
425.478	8.21
425.684	8.18
425.889	8.1
426.095	8.21
426.301	8.06
426.506	8.06
426.712	7.92
426.917	7.91
427.123	7.88
427.328	7.95
427.533	7.89
427.739	7.77
427.944	7.95
428.15	8.25
428.355	7.86
428.561	8.12
428.766	8.08
428.971	8.19
429.177	8.06
429.382	7.93
429.587	7.72
429.793	7.81
429.998	7.68
430.203	7.36
430.408	7.15
430.614	7.28
430.819	7.05
431.024	7.15
431.229	7.35
431.434	7.65
431.64	7.66
431.845	7.77
432.05	7.58
432.255	7.47
432.46	7.67
432.665	7.58
432.87	7.46
433.076	7.5
433.281	7.44
433.486	7.33
433.691	7.25
433.896	7.35
434.101	7.24
434.306	7.48
434.511	7.58
434.716	7.81
434.921	7.76
435.126	8.04
435.331	8.14
435.535	7.85
435.74	7.93
435.945	7.85
436.15	7.77
436.355	7.74
436.56	7.57
436.765	7.52
436.97	7.3
437.174	7.57
437.379	7.5
437.584	7.44
437.789	7.67
437.993	7.48
438.198	7.59
438.403	7.6
438.608	7.8
438.812	7.7
439.017	7.88
439.222	7.6
439.426	7.51
439.631	7.36
439.836	7.31
440.04	7.36
440.245	7.32
440.45	7.27
440.654	7.22
440.859	7.2
441.063	7.27
441.268	7.11
441.472	7.24
441.677	7.22
441.881	7.17
442.086	7.07
442.29	6.92
442.495	6.97
442.699	6.89
442.904	7.08
443.108	6.98
443.312	6.88
443.517	6.9
443.721	6.93
443.925	6.83
444.13	7.07
444.334	7.19
444.538	7.37
444.743	7.35
444.947	7.54
445.151	7.39
445.356	7.43
445.56	7.46
445.764	7.37
445.968	7.38
446.173	7.44
446.377	7.32
446.581	7.5
446.785	7.43
446.989	7.52
447.193	7.34
447.398	7.45
447.602	7.44
447.806	7.48
448.01	7.47
448.214	7.31
448.418	7.13
448.622	7.28
448.826	6.88
449.03	6.91
449.234	6.7
449.438	6.64
449.642	6.5
449.846	6.32
450.05	6.28
450.254	6.58
450.458	6.68
450.662	6.64
450.866	6.79
451.069	6.83
451.273	6.65
451.477	6.84
451.681	6.99
451.885	7.2
452.089	7.4
452.292	7.37
452.496	7.3
452.7	7.29
452.904	7.47
453.107	7.25
453.311	7.42
453.515	7.66
453.719	7.6
453.922	7.57
454.126	7.33
454.33	7.39
454.533	7.43
454.737	7.27
454.94	7.3
455.144	7.3
455.348	7.26
455.551	7.5
455.755	7.23
455.958	7.25
456.162	7.37
456.365	7.37
456.569	7.29
456.772	7.19
456.976	7.12
457.179	6.99
457.383	6.97
457.586	6.96
457.79	6.76
457.993	6.89
458.196	6.91
458.4	6.85
458.603	6.75
458.807	6.72
459.01	6.85
459.213	6.96
459.417	7.06
459.62	7.16
459.823	7.15
460.026	7.12
460.23	7.01
460.433	6.81
460.636	6.83
460.839	7.07
461.042	7.09
461.246	7
461.449	6.91
461.652	6.88
461.855	6.96
