Data from 2937889_Reflection_3.txt Node
Date: Wed Jul 15 14:17:56 EDT 2015
User: robert
Spectrometer: USB4E03001
Autoset integration time: false
Trigger mode: 4
Integration Time (sec): 1.000000E-1
Scans to average: 10
Electric dark correction enabled: true
Nonlinearity correction enabled: false
Boxcar width: 5
Stray light correction enabled: false
XAxis mode: Wavelengths
Stop averaging: false
Number of Pixels in Spectrum: 3648
>>>>>Begin Spectral Data<<<<<
177.566	69.01
177.785	28.79
178.005	56.98
178.225	60.23
178.445	67.3
178.665	41.7
178.885	390.4
179.105	91.2
179.324	85.49
179.544	69.71
179.764	73.11
179.984	72.15
180.204	85.86
180.423	85.02
180.643	80.67
180.863	75.4
181.083	63.45
181.302	65.15
181.522	51.31
181.742	65.22
181.961	39.52
182.181	153.19
182.401	136.32
182.621	277.73
182.84	957.4
183.06	1246.29
183.279	-63.5
183.499	173.61
183.719	-23.7
183.938	-32.42
184.158	-80.18
184.377	36.93
184.597	4.2
184.816	0.29
185.036	30.52
185.256	26.4
185.475	112.91
185.695	335.06
185.914	119.14
186.134	-1195
186.353	-107.22
186.572	799.61
186.792	-1003.74
187.011	320.16
187.231	336.48
187.45	1720.68
187.67	662.35
187.889	240.2
188.108	235
188.328	194.59
188.547	19.45
188.766	40.36
188.986	-1.79
189.205	-259.92
189.424	-165.69
189.644	-91.75
189.863	-84.82
190.082	-70.46
190.302	-29.15
190.521	2.52
190.74	7.47
190.959	10.11
191.178	29.91
191.398	53.02
191.617	143.23
191.836	-227.96
192.055	-17.03
192.274	-86.69
192.494	-30.71
192.713	38.57
192.932	55.49
193.151	-60.91
193.37	31.79
193.589	21.97
193.808	68.38
194.027	34.14
194.246	22.87
194.465	-0.17
194.685	-48.54
194.904	-46.12
195.123	-30.71
195.342	-1.5
195.561	-58
195.78	-66.96
195.999	-23.01
196.218	-108.96
196.436	-438.81
196.655	-965.65
196.874	-547.83
197.093	-569.48
197.312	267.18
197.531	-302.01
197.75	-5558.02
197.969	279.8
198.188	1536.89
198.407	379.99
198.625	1448.54
198.844	-159.73
199.063	-84
199.282	-60.23
199.501	-307.89
199.719	-1534.88
199.938	374.04
200.157	353.23
200.376	816.71
200.594	-1906.49
200.813	-1764.4
201.032	-509.39
201.251	3103.92
201.469	-4835.8
201.688	-216.64
201.907	-23.14
202.125	15.45
202.344	25.86
202.563	21.66
202.781	0.31
203	-31.18
203.218	-0.83
203.437	1.29
203.656	22.89
203.874	16.59
204.093	14.82
204.311	11.25
204.53	-65.28
204.748	-131.07
204.967	-53.01
205.185	-36.58
205.404	7.69
205.622	13.85
205.841	25.14
206.059	32.8
206.278	32.59
206.496	48.74
206.715	93.91
206.933	113.4
207.151	155.41
207.37	216.73
207.588	194.51
207.806	227.95
208.025	248.38
208.243	234.91
208.461	297.47
208.68	652.3
208.898	423.6
209.116	313.89
209.335	246.11
209.553	221.86
209.771	328.01
209.989	350.79
210.208	305.09
210.426	-342.13
210.644	8.33
210.862	-86.72
211.081	146.82
211.299	77.75
211.517	166.82
211.735	184.6
211.953	157.66
212.171	128.59
212.39	127.54
212.608	147.64
212.826	135.72
213.044	103.74
213.262	114.13
213.48	114.54
213.698	126.72
213.916	82.51
214.134	59.05
214.352	-585.34
214.57	222.03
214.788	-254.91
215.006	-64.77
215.224	-48.36
215.442	1.01
215.66	-121.85
215.878	171.44
216.096	44.71
216.314	44.26
216.532	47.63
216.75	14.79
216.968	30.26
217.185	37.19
217.403	29.15
217.621	25.6
217.839	31.9
218.057	30.21
218.275	54.93
218.492	99.64
218.71	100.1
218.928	125.6
219.146	62.4
219.363	49.07
219.581	29.23
219.799	23.83
220.017	19.58
220.234	12.19
220.452	-0.66
220.67	1.28
220.887	-71.63
221.105	-229.13
221.323	-501.55
221.54	-140.98
221.758	-226.26
221.976	-161.21
222.193	-67.45
222.411	-61.71
222.629	-89.37
222.846	-22.6
223.064	-140.3
223.281	90.04
223.499	57.14
223.716	42.02
223.934	134.14
224.151	204.22
224.369	243.08
224.586	454.99
224.804	691.22
225.021	-11877.55
225.239	-2192.66
225.456	402.74
225.674	150.16
225.891	128.04
226.108	97.87
226.326	79.23
226.543	52.76
226.76	13.15
226.978	9.01
227.195	6.17
227.413	8.46
227.63	3.27
227.847	5.27
228.064	5.67
228.282	13.37
228.499	13.98
228.716	16.22
228.934	15.73
229.151	18.72
229.368	16.27
229.585	15.47
229.802	18.38
230.02	19.54
230.237	17.08
230.454	15.75
230.671	12.3
230.888	14.88
231.105	11.49
231.323	10.9
231.54	11.59
231.757	4.64
231.974	1.26
232.191	-2.69
232.408	-1.78
232.625	3.14
232.842	4.01
233.059	5.15
233.276	-7.4
233.493	7.64
233.71	10.12
233.927	11.35
234.144	26.42
234.361	26.69
234.578	24.77
234.795	25.2
235.012	22.71
235.229	19.61
235.446	20.96
235.663	23.92
235.879	20.48
236.096	15.65
236.313	16.03
236.53	8.86
236.747	10.15
236.964	11.21
237.181	18.98
237.397	17.05
237.614	15.58
237.831	16.58
238.048	13.76
238.264	16.73
238.481	16.31
238.698	12.53
238.915	16.3
239.131	21.08
239.348	26.68
239.565	23.39
239.781	24.81
239.998	24.2
240.215	16.44
240.431	19.13
240.648	14.09
240.865	17.06
241.081	16.04
241.298	14.95
241.514	14.76
241.731	12.04
241.947	9.14
242.164	8.27
242.38	8.44
242.597	9.13
242.814	8.47
243.03	9.55
243.246	6.87
243.463	9.11
243.679	9.13
243.896	7.65
244.112	8.9
244.329	8.01
244.545	10.37
244.762	11.27
244.978	12.18
245.194	13.38
245.411	15.59
245.627	18.02
245.843	16.73
246.06	16.16
246.276	16.69
246.492	17.44
246.709	17.12
246.925	16.08
247.141	16.24
247.357	17.45
247.574	16.75
247.79	16.11
248.006	16.06
248.222	15.67
248.439	16
248.655	15.79
248.871	14.22
249.087	15.31
249.303	14.47
249.519	14.8
249.736	13.73
249.952	15.12
250.168	15.19
250.384	12.57
250.6	12.82
250.816	13.05
251.032	11.95
251.248	10.17
251.464	7.96
251.68	10.95
251.896	10.27
252.112	11.59
252.328	8.57
252.544	7.17
252.76	9.37
252.976	9.47
253.192	8.06
253.408	6.87
253.624	9.1
253.84	8.15
254.056	5.46
254.272	3.89
254.487	2.72
254.703	5.53
254.919	7.24
255.135	8.94
255.351	3.23
255.567	7.11
255.782	7.74
255.998	7.91
256.214	12.23
256.43	14.97
256.646	15.64
256.861	15.68
257.077	15.36
257.293	13.42
257.508	11.27
257.724	15.05
257.94	13.2
258.155	14.68
258.371	13.87
258.587	15.42
258.802	13.73
259.018	13.02
259.234	12.76
259.449	12.01
259.665	12.29
259.88	12.73
260.096	11.74
260.312	10.94
260.527	10.84
260.743	11.01
260.958	10.26
261.174	10.76
261.389	10.19
261.605	9.34
261.82	9.11
262.036	8.66
262.251	9.07
262.466	9.4
262.682	11.37
262.897	10.58
263.113	10.2
263.328	9.08
263.543	11.46
263.759	14.9
263.974	17.28
264.189	18.34
264.405	18.18
264.62	19.08
264.835	19.86
265.051	17.4
265.266	19.3
265.481	21.06
265.696	22.62
265.912	18.71
266.127	14.95
266.342	13.68
266.557	13.97
266.773	15.3
266.988	12.38
267.203	12.27
267.418	12.01
267.633	10.43
267.848	9.79
268.064	8.48
268.279	8.96
268.494	10.42
268.709	10.71
268.924	9.76
269.139	8.88
269.354	10.77
269.569	11.39
269.784	12.36
269.999	12.29
270.214	10.45
270.429	11.13
270.644	12.2
270.859	11.13
271.074	10.24
271.289	9.64
271.504	9.65
271.719	8.31
271.934	8.68
272.149	8.63
272.363	8.94
272.578	10.05
272.793	10.49
273.008	9.65
273.223	9.58
273.438	9.14
273.653	10.24
273.867	9.79
274.082	9.61
274.297	9.94
274.512	8.88
274.726	9.43
274.941	11.45
275.156	10.03
275.371	9.91
275.585	12.11
275.8	12.8
276.015	13.31
276.229	14.89
276.444	13.67
276.659	12.11
276.873	14.29
277.088	14.03
277.302	11.74
277.517	11.23
277.732	12.37
277.946	10.24
278.161	10.36
278.375	7.65
278.59	6.17
278.804	9.21
279.019	9.51
279.233	8.29
279.448	7.8
279.662	8.16
279.877	9.57
280.091	10.85
280.306	11.72
280.52	11.72
280.735	14.34
280.949	14.81
281.163	14.1
281.378	12.78
281.592	12.16
281.806	12.97
282.021	11.96
282.235	11.17
282.449	10.84
282.664	11.44
282.878	10.37
283.092	9.87
283.307	9.98
283.521	9.56
283.735	10.68
283.949	10.31
284.164	9.67
284.378	9.24
284.592	9.44
284.806	7.49
285.02	5.84
285.234	6.68
285.449	6.38
285.663	5.95
285.877	6.92
286.091	5.91
286.305	6.85
286.519	8.01
286.733	9.22
286.947	10.35
287.161	10.91
287.375	11.03
287.589	9.79
287.803	9.32
288.017	9.7
288.231	8.5
288.445	9.7
288.659	10.99
288.873	10.58
289.087	9.08
289.301	8.69
289.515	8.76
289.729	9.54
289.943	11.03
290.157	11.08
290.371	10.51
290.584	10.88
290.798	10.29
291.012	7.99
291.226	7.04
291.44	8.52
291.654	7.61
291.867	8.65
292.081	8.25
292.295	7.46
292.509	7.21
292.722	8.2
292.936	8.57
293.15	9.88
293.364	10.7
293.577	10.41
293.791	10.29
294.005	12.41
294.218	10.58
294.432	11.63
294.645	12.46
294.859	13.42
295.073	12.82
295.286	12.81
295.5	12.1
295.713	13.05
295.927	15.22
296.14	15.36
296.354	14.29
296.568	15.05
296.781	14.44
296.994	14.13
297.208	14.81
297.421	15.36
297.635	15.08
297.848	14.73
298.062	14.38
298.275	12.71
298.489	12.46
298.702	11.99
298.915	11.78
299.129	12.15
299.342	13.34
299.555	12.42
299.769	11.96
299.982	12.97
300.195	14.39
300.409	16.72
300.622	18.15
300.835	18.19
301.048	19.55
301.262	20
301.475	20.52
301.688	20.61
301.901	19.98
302.115	20.53
302.328	19.47
302.541	19.04
302.754	17.16
302.967	17.79
303.18	17.53
303.393	17.57
303.607	18.13
303.82	16.11
304.033	15.64
304.246	17.18
304.459	17.12
304.672	17.46
304.885	17.03
305.098	17.39
305.311	16.44
305.524	14.62
305.737	14.02
305.95	13.61
306.163	15.81
306.376	14.73
306.589	15.46
306.802	16.03
307.015	16.61
307.228	15.73
307.44	15.92
307.653	15.93
307.866	17.24
308.079	18.12
308.292	16.97
308.505	15.24
308.718	15.41
308.93	12.76
309.143	11.56
309.356	10.57
309.569	11.98
309.781	13.18
309.994	13.36
310.207	13.7
310.42	12.92
310.632	13.42
310.845	14.98
311.058	15.81
311.27	17.25
311.483	17.77
311.696	18.47
311.908	18.19
312.121	16.42
312.333	16.28
312.546	17.38
312.759	17.9
312.971	19.48
313.184	18.74
313.396	17.51
313.609	16.79
313.821	17.38
314.034	18.44
314.246	19.32
314.459	19.93
314.671	18.53
314.884	19.24
315.096	18.77
315.309	19.18
315.521	19
315.733	20.58
315.946	22.12
316.158	21.78
316.371	20.2
316.583	18.57
316.795	17.88
317.008	18.96
317.22	17.55
317.432	17.53
317.644	14.68
317.857	16.3
318.069	15.37
318.281	14.71
318.494	15.77
318.706	17.61
318.918	18.78
319.13	19.47
319.342	19.1
319.555	20.68
319.767	21.39
319.979	22.53
320.191	21.78
320.403	21.53
320.615	19.46
320.827	18.17
321.039	15.81
321.252	16.85
321.464	16.6
321.676	16.97
321.888	16.24
322.1	15.62
322.312	15.63
322.524	15.42
322.736	16.53
322.948	18.73
323.16	19.85
323.372	20.32
323.584	20.04
323.796	20.39
324.007	21.52
324.219	21.24
324.431	21.27
324.643	22.02
324.855	22.05
325.067	23.31
325.279	24.03
325.491	24.46
325.702	26.02
325.914	25.52
326.126	25.18
326.338	24.44
326.55	24.72
326.761	27.22
326.973	27.31
327.185	28.05
327.396	28.77
327.608	28.39
327.82	28.5
328.032	28.31
328.243	30.13
328.455	32.46
328.666	33.51
328.878	34.24
329.09	33.1
329.301	32.9
329.513	33.27
329.725	30.66
329.936	32.43
330.148	32.26
330.359	32.67
330.571	30.94
330.782	30.45
330.994	31.27
331.205	31.62
331.417	29.61
331.628	30.73
331.84	31.59
332.051	33.46
332.262	31.45
332.474	31.75
332.685	32.15
332.897	33.52
333.108	34.47
333.319	33.98
333.531	34.74
333.742	36.69
333.953	38.27
334.165	39.34
334.376	40.01
334.587	41.6
334.799	42.38
335.01	43.97
335.221	45.21
335.432	44.88
335.644	44.83
335.855	45.55
336.066	44.45
336.277	43.4
336.488	43.1
336.7	42.65
336.911	42.17
337.122	42.81
337.333	42.58
337.544	43.33
337.755	44.59
337.966	45.69
338.177	45.49
338.388	47.93
338.599	48.06
338.811	48.19
339.022	48.32
339.233	49.51
339.444	48.84
339.655	48.18
339.866	47
340.076	46.86
340.287	47.52
340.498	47.46
340.709	46.18
340.92	46.77
341.131	47.43
341.342	48.37
341.553	47.28
341.764	48.24
341.975	48.61
342.185	48.44
342.396	47.79
342.607	47.67
342.818	47.17
343.029	47
343.239	46.12
343.45	43.89
343.661	43.62
343.872	45.07
344.082	44.13
344.293	43.76
344.504	44.94
344.714	45.13
344.925	44.85
345.136	44.97
345.346	45.58
345.557	46.03
345.768	48.19
345.978	48.43
346.189	47.26
346.399	46.43
346.61	46.62
346.821	45.82
347.031	45.81
347.242	44.55
347.452	43.8
347.663	44.26
347.873	43.9
348.084	44.03
348.294	42.38
348.504	42.71
348.715	43.84
348.925	44.02
349.136	43.17
349.346	43.15
349.557	43.53
349.767	44.5
349.977	43.88
350.188	43.82
350.398	43.27
350.608	44.74
350.819	43.64
351.029	43.53
351.239	43.85
351.449	45.09
351.66	45.09
351.87	45.74
352.08	46.08
352.29	46.81
352.501	46.73
352.711	47.04
352.921	46.72
353.131	49.02
353.341	50.46
353.552	50.42
353.762	50.07
353.972	50.58
354.182	51.28
354.392	51.34
354.602	50.5
354.812	50.42
355.022	50.43
355.232	50.43
355.442	48.71
355.652	46.7
355.862	47.11
356.072	47.1
356.282	46.11
356.492	46.05
356.702	45.89
356.912	46.49
357.122	47.93
357.332	46.88
357.542	47.05
357.752	47.77
357.962	49.08
358.171	48.64
358.381	48.45
358.591	49.55
358.801	48.77
359.011	48.48
359.221	48.34
359.43	47.57
359.64	48
359.85	48.16
360.06	47.62
360.269	47.56
360.479	46.98
360.689	45.94
360.899	45.56
361.108	46.03
361.318	46.3
361.528	45.2
361.737	45.14
361.947	45.6
362.156	45.27
362.366	45.44
362.576	45.45
362.785	45.88
362.995	46.79
363.204	45.7
363.414	45.57
363.623	45.15
363.833	46.16
364.042	46.52
364.252	46.55
364.461	46.24
364.671	46.43
364.88	46.09
365.09	45.57
365.299	45.29
365.509	46.07
365.718	45.86
365.927	45.86
366.137	45.8
366.346	44.64
366.555	44.26
366.765	44.14
366.974	44.06
367.183	43.94
367.393	43.31
367.602	43.67
367.811	43.77
368.021	42.56
368.23	42.2
368.439	41.47
368.648	41.68
368.857	40.79
369.067	41.55
369.276	40.43
369.485	40.38
369.694	40.49
369.903	39.9
370.112	39.17
370.321	39.74
370.531	40.27
370.74	40.97
370.949	41.65
371.158	41.81
371.367	41.94
371.576	42.74
371.785	42.84
371.994	42.4
372.203	42.28
372.412	41.95
372.621	42.12
372.83	42.12
373.039	41.43
373.248	40.4
373.457	40.73
373.666	39.89
373.874	39.46
374.083	38.58
374.292	39.75
374.501	39.37
374.71	38.64
374.919	38.25
375.128	37.12
375.336	37.46
375.545	37.9
375.754	37.37
375.963	36.74
376.171	36.18
376.38	36.22
376.589	35.62
376.798	35.61
377.006	36.78
377.215	36.98
377.424	37.13
377.632	37.4
377.841	36.96
378.05	36.77
378.258	36.71
378.467	36.91
378.675	36.82
378.884	36.42
379.093	37
379.301	37.01
379.51	36.83
379.718	37.35
379.927	36.44
380.135	36.62
380.344	37.1
380.552	37.05
380.761	36.63
380.969	35.78
381.177	36.33
381.386	35.48
381.594	35.04
381.803	34.59
382.011	33.62
382.219	33.59
382.428	33.3
382.636	32.87
382.845	33.13
383.053	33.08
383.261	33.18
383.469	32.96
383.678	32.61
383.886	32.38
384.094	32.52
384.302	32.96
384.511	33.01
384.719	32.96
384.927	32.81
385.135	32.08
385.343	32.03
385.552	32.52
385.76	32.36
385.968	32.48
386.176	32.42
386.384	32.23
386.592	31.86
386.8	31.85
387.008	31.72
387.216	31.68
387.424	31.9
387.633	31.82
387.841	31.99
388.049	32.01
388.257	32.75
388.465	32.39
388.672	32.28
388.88	32.18
389.088	31.95
389.296	32.02
389.504	31.78
389.712	31.87
389.92	31.85
390.128	31.53
390.336	31.28
390.544	30.5
390.751	30.96
390.959	30.37
391.167	30.57
391.375	30.51
391.583	30.26
391.79	29.89
391.998	29.49
392.206	29.35
392.414	29.28
392.621	28.99
392.829	28.78
393.037	28.29
393.244	28.47
393.452	28.45
393.66	28.24
393.867	28.16
394.075	28.35
394.283	28.84
394.49	28.8
394.698	28.7
394.905	28.84
395.113	28.69
395.32	28.66
395.528	28.32
395.735	27.99
395.943	28.17
396.15	28.19
396.358	28.04
396.565	27.81
396.773	27.73
396.98	27.51
397.188	27.5
397.395	27.56
397.602	27.48
397.81	28.11
398.017	28.16
398.225	27.65
398.432	27.77
398.639	27.93
398.847	27.22
399.054	27.25
399.261	27.32
399.468	27.65
399.676	27.87
399.883	28.12
400.09	27.95
400.297	27.55
400.505	28.04
400.712	28.13
400.919	28.25
401.126	29.19
401.333	29.11
401.54	29.2
401.748	29.01
401.955	28.88
402.162	28.62
402.369	28.79
402.576	29.11
402.783	29.2
402.99	29
403.197	28.53
403.404	28
403.611	28.24
403.818	28.32
404.025	28.32
404.232	28.28
404.439	28.3
404.646	28.26
404.853	27.99
405.06	27.99
405.267	28.03
405.474	28.29
405.681	28.65
405.887	28.5
406.094	28.62
406.301	28.62
406.508	28.71
406.715	28.91
406.922	28.67
407.128	28.84
407.335	28.52
407.542	28.4
407.749	28.37
407.955	28.22
408.162	28.15
408.369	27.87
408.575	27.64
408.782	27.92
408.989	27.7
409.195	27.75
409.402	27.71
409.609	27.9
409.815	28.06
410.022	27.9
410.228	27.96
410.435	28.06
410.642	28.06
410.848	28.06
411.055	27.73
411.261	27.9
411.468	28.02
411.674	28.26
411.881	27.87
412.087	27.76
412.294	28.02
412.5	27.89
412.706	27.55
412.913	27.8
413.119	28.16
413.326	28.32
413.532	28.2
413.738	28.35
413.945	28.23
414.151	28.3
414.357	28.05
414.564	27.67
414.77	27.82
414.976	28.16
415.182	27.88
415.389	27.46
415.595	27.29
415.801	27.21
416.007	27.1
416.214	27.07
416.42	27.13
416.626	27.17
416.832	27.32
417.038	26.86
417.244	26.73
417.45	26.73
417.657	26.5
417.863	26.54
418.069	26.55
418.275	26.29
418.481	26.22
418.687	26.28
418.893	26.28
419.099	26.15
419.305	26.4
419.511	26.37
419.717	26.37
419.923	26.66
420.129	26.53
420.335	26.46
420.541	26.57
420.746	26.55
420.952	26.56
421.158	26.43
421.364	26.39
421.57	26.2
421.776	26.24
421.982	26.13
422.187	26.17
422.393	26.15
422.599	26.12
422.805	26.08
423.01	25.99
423.216	25.97
423.422	26.06
423.628	26.24
423.833	26.37
424.039	26.39
424.245	26.42
424.45	26.16
424.656	26.32
424.862	26.35
425.067	26.44
425.273	26.66
425.478	26.61
425.684	26.59
425.889	26.39
426.095	26.37
426.301	26.37
426.506	26.43
426.712	26.37
426.917	26.34
427.123	26.3
427.328	26.39
427.533	26.21
427.739	26.09
427.944	26.01
428.15	26.11
428.355	26.14
428.561	26.11
428.766	25.9
428.971	26.22
429.177	26.26
429.382	26.53
429.587	26.3
429.793	26.21
429.998	26.46
430.203	26.22
430.408	26.23
430.614	26.26
430.819	26.27
431.024	26.2
431.229	25.95
431.434	25.63
431.64	25.4
431.845	25.25
432.05	25.54
432.255	25.39
432.46	25.79
432.665	25.77
432.87	25.84
433.076	25.69
433.281	25.92
433.486	25.97
433.691	26.2
433.896	26.09
434.101	26.22
434.306	25.98
434.511	26.1
434.716	26.06
434.921	26.13
435.126	26.13
435.331	26.23
435.535	26.12
435.74	26.08
435.945	26.08
436.15	26.23
436.355	26.04
436.56	26.18
436.765	26.03
436.97	26.02
437.174	25.89
437.379	25.56
437.584	25.49
437.789	25.52
437.993	25.72
438.198	25.68
438.403	25.66
438.608	25.85
438.812	25.62
439.017	25.72
439.222	25.65
439.426	25.72
439.631	25.95
439.836	26.16
440.04	26.32
440.245	26.27
440.45	26.14
440.654	26.18
440.859	26.05
441.063	26.24
441.268	26.22
441.472	26.27
441.677	26.24
441.881	26.15
442.086	25.81
442.29	25.66
442.495	25.54
442.699	25.73
442.904	25.55
443.108	25.77
443.312	25.52
443.517	25.58
443.721	25.58
443.925	25.57
444.13	25.6
444.334	25.67
444.538	25.72
444.743	25.66
444.947	25.72
445.151	25.65
445.356	25.51
445.56	25.72
445.764	25.61
445.968	25.51
446.173	25.54
446.377	25.51
446.581	25.48
446.785	25.42
446.989	25.41
447.193	25.28
447.398	25.42
447.602	25.35
447.806	25.41
448.01	25.29
448.214	25.3
448.418	25.27
448.622	25.24
448.826	25.17
449.03	25.13
449.234	25.18
449.438	25.13
449.642	25.06
449.846	25.01
450.05	24.69
450.254	24.76
450.458	24.78
450.662	24.69
450.866	24.8
451.069	25.04
451.273	25.14
451.477	25.26
451.681	25.36
451.885	25.31
452.089	25.63
452.292	25.82
452.496	25.85
452.7	25.84
452.904	25.95
453.107	25.78
453.311	25.98
453.515	25.87
453.719	25.82
453.922	25.52
454.126	25.59
454.33	25.52
454.533	25.27
454.737	25.11
454.94	25.1
455.144	24.93
455.348	24.87
455.551	24.59
455.755	24.7
455.958	24.44
456.162	24.67
456.365	24.64
456.569	24.49
456.772	24.74
