Data from 2937809_Reflection_1.txt Node
Date: Wed Jul 15 17:50:49 EDT 2015
User: robert
Spectrometer: USB4E03001
Autoset integration time: false
Trigger mode: 4
Integration Time (sec): 1.000000E-1
Scans to average: 10
Electric dark correction enabled: true
Nonlinearity correction enabled: false
Boxcar width: 5
Stray light correction enabled: false
XAxis mode: Wavelengths
Stop averaging: false
Number of Pixels in Spectrum: 3648
>>>>>Begin Spectral Data<<<<<
177.566	185.68
177.785	418.67
178.005	152.81
178.225	-247.67
178.445	552.09
178.665	668.93
178.885	1270.09
179.105	174.77
179.324	167.51
179.544	119.98
179.764	108.76
179.984	129.36
180.204	133.67
180.423	84.44
180.643	35.73
180.863	12.89
181.083	43.75
181.302	45.93
181.522	138.34
181.742	139.06
181.961	-16840
182.181	-192.67
182.401	-80.84
182.621	-415.85
182.84	-107.57
183.06	-84.37
183.279	-51.52
183.499	-84.32
183.719	-90.73
183.938	-98.67
184.158	-191.65
184.377	-180.15
184.597	-617.41
184.816	1163.79
185.036	665.68
185.256	134.16
185.475	126.53
185.695	130.86
185.914	116.58
186.134	88.15
186.353	92.89
186.572	84.77
186.792	77.51
187.011	43.47
187.231	71.6
187.45	84.98
187.67	129.85
187.889	227.09
188.108	76.3
188.328	82.84
188.547	107.05
188.766	46.78
188.986	57.69
189.205	64.58
189.424	87.18
189.644	78.14
189.863	67.68
190.082	82.55
190.302	68.97
190.521	61.98
190.74	34.51
190.959	19.19
191.178	153.38
191.398	613.69
191.617	198.34
191.836	162.41
192.055	109.59
192.274	97.13
192.494	57.57
192.713	44.6
192.932	135.96
193.151	165.47
193.37	142.62
193.589	145.02
193.808	96.4
194.027	101.99
194.246	141.54
194.465	227.91
194.685	316.49
194.904	334.38
195.123	332.93
195.342	543.17
195.561	385.49
195.78	-3370.18
195.999	1223.81
196.218	-581.86
196.436	-954.89
196.655	-485.1
196.874	-253.22
197.093	-452.85
197.312	-391.88
197.531	-397.99
197.75	167.42
197.969	167.83
198.188	149.69
198.407	146.91
198.625	127.79
198.844	115.77
199.063	118.54
199.282	125.53
199.501	104.18
199.719	112
199.938	115.53
200.157	126.84
200.376	128.78
200.594	119
200.813	106.23
201.032	75.37
201.251	70.61
201.469	90.8
201.688	90.26
201.907	-47.84
202.125	-112.64
202.344	-717.18
202.563	-411.81
202.781	-320.53
203	-690.09
203.218	-835.96
203.437	6481.62
203.656	236.1
203.874	267.88
204.093	271.22
204.311	190.91
204.53	148.96
204.748	114.12
204.967	86.58
205.185	101.44
205.404	97.04
205.622	97.34
205.841	43.24
206.059	102.36
206.278	88.89
206.496	-1066.67
206.715	95.11
206.933	144.28
207.151	890.6
207.37	13.66
207.588	152.5
207.806	28.64
208.025	71.9
208.243	271.15
208.461	278.86
208.68	239.1
208.898	439.52
209.116	971.87
209.335	-284.63
209.553	-477.69
209.771	-660.8
209.989	2157.05
210.208	-293.87
210.426	-302.05
210.644	6725.45
210.862	2129.46
211.081	435.37
211.299	249.93
211.517	-1027.93
211.735	16862.5
211.953	361.03
212.171	339.33
212.39	824.46
212.608	590.11
212.826	741.87
213.044	-104
213.262	-246.1
213.48	-4322.52
213.698	-1564.32
213.916	490.6
214.134	272.11
214.352	522.84
214.57	-5174.49
214.788	-2328.37
215.006	5415.46
215.224	1706.02
215.442	323.82
215.66	358.72
215.878	467.08
216.096	-524.41
216.314	-55.36
216.532	-8.04
216.75	16.15
216.968	-99.25
217.185	-35.19
217.403	-57.47
217.621	-52.42
217.839	-4.88
218.057	-15.06
218.275	-45.26
218.492	-224.82
218.71	585.38
218.928	402.89
219.146	385
219.363	416.78
219.581	264.44
219.799	638.71
220.017	2026.89
220.234	-2693.79
220.452	-4157.92
220.67	2277.36
220.887	-543.32
221.105	-273.22
221.323	-65.44
221.54	-92.54
221.758	-134.25
221.976	-1205.18
222.193	425.87
222.411	236.43
222.629	274.37
222.846	258.44
223.064	212.82
223.281	225.93
223.499	232.99
223.716	170.31
223.934	164.19
224.151	152.61
224.369	136.72
224.586	117.94
224.804	169.88
225.021	162.98
225.239	89.88
225.456	117.63
225.674	137.9
225.891	156.18
226.108	221.47
226.326	189.84
226.543	3232.24
226.76	-185.12
226.978	-46.7
227.195	-78.19
227.413	-67.38
227.63	-40.23
227.847	-30.68
228.064	-20.83
228.282	-3.28
228.499	1.48
228.716	-4.88
228.934	-0.19
229.151	-4.86
229.368	-10.94
229.585	-10.47
229.802	-9.19
230.02	-13.71
230.237	-12.15
230.454	-15
230.671	-26.31
230.888	-49.6
231.105	-38.08
231.323	-57.47
231.54	-46.06
231.757	-41.59
231.974	-47.67
232.191	-63.11
232.408	-51.71
232.625	-49.98
232.842	-49.74
233.059	-61.5
233.276	-33.72
233.493	-65.2
233.71	-38.87
233.927	-36.96
234.144	-7.84
234.361	-15.78
234.578	1.2
234.795	-10.27
235.012	-3.72
235.229	-17.68
235.446	-10.04
235.663	-10.21
235.879	4.33
236.096	-3.42
236.313	-18.84
236.53	-38.26
236.747	-24.81
236.964	-34.43
237.181	-33.49
237.397	-46.84
237.614	-36.08
237.831	-18.28
238.048	-32.74
238.264	-52.12
238.481	-50.97
238.698	-31.65
238.915	-24.5
239.131	-23.78
239.348	-14.51
239.565	-4.76
239.781	-2.8
239.998	-1.68
240.215	-4.42
240.431	6.9
240.648	7.69
240.865	12.23
241.081	14.32
241.298	13.2
241.514	13.29
241.731	8.78
241.947	7.3
242.164	6.89
242.38	8.97
242.597	8.52
242.814	6.63
243.03	6.73
243.246	8.63
243.463	10.48
243.679	12.56
243.896	12.15
244.112	13.81
244.329	13.14
244.545	14.57
244.762	14.13
244.978	10.74
245.194	13.44
245.411	14.03
245.627	11.13
245.843	10.72
246.06	11.68
246.276	13.6
246.492	12.69
246.709	12.35
246.925	12.59
247.141	13.25
247.357	13.59
247.574	14.69
247.79	15.32
248.006	16.73
248.222	17.12
248.439	16.86
248.655	14.16
248.871	14.98
249.087	14.93
249.303	16.46
249.519	16.47
249.736	15.7
249.952	13.29
250.168	10.99
250.384	8.28
250.6	5.41
250.816	4.86
251.032	10.15
251.248	9.41
251.464	10.31
251.68	4.92
251.896	6.08
252.112	11.11
252.328	7.07
252.544	7.41
252.76	9.05
252.976	11.68
253.192	8.42
253.408	5.68
253.624	7.04
253.84	8.41
254.056	12.83
254.272	10.82
254.487	10.68
254.703	15.36
254.919	12.73
255.135	9.34
255.351	6.22
255.567	9.71
255.782	14.41
255.998	11.36
256.214	9.43
256.43	6.02
256.646	4.31
256.861	-2.57
257.077	-5.28
257.293	-4.11
257.508	-3.44
257.724	-6.75
257.94	-8.26
258.155	-6.54
258.371	-7.06
258.587	-4.7
258.802	-3.88
259.018	-0.17
259.234	2.74
259.449	3.3
259.665	7.14
259.88	8.85
260.096	10.63
260.312	12.1
260.527	11.55
260.743	12.64
260.958	12.28
261.174	12.53
261.389	10.46
261.605	10.97
261.82	12.34
262.036	11.65
262.251	9.26
262.466	8.35
262.682	6.47
262.897	5.86
263.113	4.69
263.328	5.85
263.543	6.26
263.759	9.82
263.974	11.96
264.189	14.38
264.405	11.55
264.62	12.72
264.835	13.05
265.051	13.49
265.266	13.83
265.481	14.8
265.696	11.97
265.912	12.82
266.127	11.93
266.342	8.82
266.557	4.88
266.773	5.38
266.988	5.74
267.203	4.87
267.418	4.96
267.633	4.27
267.848	3.88
268.064	4.78
268.279	6.41
268.494	5.41
268.709	4.41
268.924	5.54
269.139	7.16
269.354	7.7
269.569	6.59
269.784	4.79
269.999	4.08
270.214	4.97
270.429	4.5
270.644	1.45
270.859	4.45
271.074	7.76
271.289	6.77
271.504	4.67
271.719	6.75
271.934	8.68
272.149	9.87
272.363	10.42
272.578	9.72
272.793	9.92
273.008	10.05
273.223	8.28
273.438	6.52
273.653	11.37
273.867	13.06
274.082	9.49
274.297	9.91
274.512	6.89
274.726	8.23
274.941	8.44
275.156	9.57
275.371	12.2
275.585	15.55
275.8	15.99
276.015	10.91
276.229	7.07
276.444	8.67
276.659	7.88
276.873	11.51
277.088	11.05
277.302	11.36
277.517	10.45
277.732	5.61
277.946	0.68
278.161	-1.24
278.375	-1.28
278.59	-0.54
278.804	-1.89
279.019	-4.14
279.233	-5.2
279.448	-5.26
279.662	0.2
279.877	2.08
280.091	5.85
280.306	7.72
280.52	10.59
280.735	9.57
280.949	9.6
281.163	10.81
281.378	10.78
281.592	9.63
281.806	10.05
282.021	6.46
282.235	4.33
282.449	4.23
282.664	2.68
282.878	4.76
283.092	7.28
283.307	8.35
283.521	8.21
283.735	10.69
283.949	11.29
284.164	10.96
284.378	10.66
284.592	12.54
284.806	13.61
285.02	13.4
285.234	10.63
285.449	10.08
285.663	8.93
285.877	9.14
286.091	7.63
286.305	8.75
286.519	8.28
286.733	8.91
286.947	5.76
287.161	4.69
287.375	7.18
287.589	7.11
287.803	5.66
288.017	6.81
288.231	6.12
288.445	7.02
288.659	5.62
288.873	4.2
289.087	2.25
289.301	6.72
289.515	8.25
289.729	8.96
289.943	9.72
290.157	10.83
290.371	11.21
290.584	11.4
290.798	13.69
291.012	15.89
291.226	18.36
291.44	19.24
291.654	16.87
291.867	15.62
292.081	14.24
292.295	16.57
292.509	17.17
292.722	16.43
292.936	14.74
293.15	13.93
293.364	11.82
293.577	8.75
293.791	10.29
294.005	11.06
294.218	13.39
294.432	13.85
294.645	11.25
294.859	12.54
295.073	14.04
295.286	16.31
295.5	13.81
295.713	15.36
295.927	15.99
296.14	17.07
296.354	17.25
296.568	16.16
296.781	16.35
296.994	17.01
297.208	15.26
297.421	15.17
297.635	12.97
297.848	12.64
298.062	12.86
298.275	14.32
298.489	13.35
298.702	13.92
298.915	15.12
299.129	12.77
299.342	10.73
299.555	10.96
299.769	10.11
299.982	12.61
300.195	12.36
300.409	11.14
300.622	9
300.835	7.73
301.048	4.77
301.262	2.15
301.475	4.44
301.688	4.51
301.901	4.41
302.115	4.07
302.328	2.05
302.541	4.17
302.754	0.21
302.967	3.74
303.18	4.1
303.393	7.15
303.607	7.78
303.82	9
304.033	9.25
304.246	11
304.459	10.19
304.672	12.73
304.885	13.4
305.098	17.38
305.311	13.33
305.524	11.82
305.737	10.34
305.95	10.83
306.163	9.7
306.376	10.54
306.589	8.93
306.802	11.02
307.015	10.39
307.228	7.44
307.44	9.49
307.653	11.31
307.866	13.67
308.079	13.6
308.292	13.76
308.505	12.28
308.718	10.07
308.93	9.97
309.143	8.65
309.356	9.6
309.569	10.13
309.781	8.92
309.994	7.43
310.207	7.64
310.42	9.07
310.632	9.49
310.845	10.67
311.058	11.58
311.27	9.83
311.483	9.1
311.696	8.11
311.908	8.02
312.121	6.57
312.333	6.92
312.546	7.09
312.759	4.22
312.971	1.31
313.184	-1.1
313.396	-2.94
313.609	-3.83
313.821	-1.29
314.034	-3.73
314.246	-3.8
314.459	-5.02
314.671	-5.94
314.884	-10.56
315.096	-6.35
315.309	-5.36
315.521	-1.74
315.733	0.16
315.946	4.02
316.158	0.81
316.371	0.65
316.583	-0
316.795	1.05
317.008	3.4
317.22	5.87
317.432	2.9
317.644	4.08
317.857	0.44
318.069	-3.36
318.281	-1.87
318.494	-0.5
318.706	1.83
318.918	2.1
319.13	4.94
319.342	4.01
319.555	5.56
319.767	8.73
319.979	9.63
320.191	11.03
320.403	14
320.615	13.99
320.827	13.32
321.039	10.19
321.252	12.3
321.464	8.32
321.676	8.86
321.888	6.38
322.1	4.26
322.312	3.31
322.524	3.3
322.736	2.54
322.948	1.72
323.16	2.17
323.372	4.34
323.584	2.65
323.796	4.36
324.007	4.59
324.219	5.71
324.431	6.64
324.643	6.73
324.855	7.15
325.067	8.25
325.279	7.6
325.491	8.39
325.702	7.36
325.914	7.76
326.126	6.51
326.338	8.38
326.55	8.03
326.761	6.91
326.973	6.68
327.185	4.49
327.396	2.3
327.608	1.45
327.82	0.1
328.032	0.4
328.243	0.87
328.455	-0.77
328.666	-3.72
328.878	-0.3
329.09	0.1
329.301	0.47
329.513	0.88
329.725	3.08
329.936	3.73
330.148	2.22
330.359	3.78
330.571	3.83
330.782	6.73
330.994	8.43
331.205	7.86
331.417	7.34
331.628	5.79
331.84	7.08
332.051	7.95
332.262	7.56
332.474	11.65
332.685	8.7
332.897	8.08
333.108	7.22
333.319	4.68
333.531	3.22
333.742	4.24
333.953	4.48
334.165	6.31
334.376	7.86
334.587	5.92
334.799	6.42
335.01	9.96
335.221	10.43
335.432	10.36
335.644	10.96
335.855	9.98
336.066	6.54
336.277	6.23
336.488	4.85
336.7	2.91
336.911	3.44
337.122	1.62
337.333	0.23
337.544	-0.36
337.755	0.78
337.966	1.37
338.177	2.64
338.388	4.58
338.599	6.02
338.811	7.75
339.022	8.26
339.233	8.68
339.444	9.33
339.655	10.08
339.866	10.79
340.076	9.12
340.287	8.48
340.498	7.35
340.709	8.39
340.92	9.57
341.131	7.6
341.342	5.74
341.553	6.71
341.764	6.31
341.975	5.76
342.185	4.54
342.396	5.5
342.607	7.05
342.818	7.22
343.029	7.76
343.239	8.61
343.45	7.79
343.661	10.3
343.872	10.36
344.082	10.5
344.293	11.44
344.504	12.35
344.714	12.81
344.925	12.64
345.136	13.88
345.346	14.46
345.557	13.68
345.768	14.52
345.978	14.32
346.189	13.58
346.399	13.98
346.61	13.03
346.821	13.92
347.031	13.85
347.242	12.38
347.452	10.21
347.663	8.11
347.873	4.93
348.084	3.45
348.294	2.13
348.504	3.17
348.715	3.33
348.925	3.7
349.136	3.47
349.346	4
349.557	3.83
349.767	4.61
349.977	5.83
350.188	7.36
350.398	9.26
350.608	8.54
350.819	10.68
351.029	8.33
351.239	9.83
351.449	7.6
351.66	4.62
351.87	4.47
352.08	4.9
352.29	3.73
352.501	3.11
352.711	4.31
352.921	7.78
353.131	6.06
353.341	7.42
353.552	6.98
353.762	7.29
353.972	8.86
354.182	9.36
354.392	9.41
354.602	11.68
354.812	14.85
355.022	12.13
355.232	8.23
355.442	8.47
355.652	8.61
355.862	8.58
356.072	9.56
356.282	10.27
356.492	11.14
356.702	10.92
356.912	9.48
357.122	8.28
357.332	9.98
357.542	11.1
357.752	11.11
357.962	12.41
358.171	11.38
358.381	10.58
358.591	10.11
358.801	9.05
359.011	9.17
359.221	10.1
359.43	8.65
359.64	7.86
359.85	7.64
360.06	7.15
360.269	6.32
360.479	6.53
360.689	6.6
360.899	6.81
361.108	7.05
361.318	7
361.528	5.92
361.737	6.8
361.947	6.86
362.156	6.72
362.366	6.79
362.576	6.69
362.785	7.27
362.995	7.57
363.204	7.34
363.414	7.13
363.623	7.21
363.833	7.67
364.042	7.28
364.252	7.98
364.461	8.08
364.671	7.93
364.88	7.46
365.09	6.46
365.299	6.15
365.509	6.6
365.718	6.01
365.927	6.35
366.137	6.37
366.346	7.24
366.555	6.14
366.765	4.38
366.974	4.23
367.183	3.18
367.393	3.93
367.602	4.05
367.811	4.3
368.021	5.52
368.23	4.13
368.439	4.11
368.648	3.23
368.857	3.5
369.067	5.59
369.276	5.02
369.485	6.05
369.694	5.86
369.903	5.19
370.112	3.46
370.321	2.12
370.531	3.56
370.74	3.27
370.949	2.77
371.158	2.59
371.367	2.73
371.576	3.19
371.785	4.03
371.994	3.41
372.203	3.68
372.412	3.51
372.621	5.17
372.83	4.95
373.039	4.94
373.248	5.98
373.457	6.2
373.666	5.64
373.874	5.86
374.083	5.11
374.292	5.42
374.501	5.49
374.71	6.66
374.919	6.25
375.128	5.85
375.336	5.72
375.545	4.42
375.754	4.26
375.963	4.45
376.171	4.87
376.38	5.41
376.589	6.5
376.798	7.01
377.006	6.37
377.215	6.52
377.424	7.31
377.632	6.81
377.841	6.82
378.05	6.22
378.258	6.38
378.467	5.96
378.675	5.08
378.884	4.46
379.093	3.92
379.301	4.43
379.51	4.11
379.718	3.39
379.927	4.62
380.135	5.3
380.344	5.54
380.552	4.98
380.761	3.99
380.969	4.23
381.177	4.09
381.386	4.71
381.594	4.74
381.803	4.28
382.011	4.49
382.219	3.28
382.428	2.91
382.636	3.66
382.845	3.62
383.053	3.61
383.261	2.95
383.469	2.36
383.678	2.38
383.886	2.73
384.094	2.92
384.302	2.65
384.511	3.04
384.719	3.47
384.927	3.01
385.135	3.11
385.343	3.79
385.552	4.82
385.76	4.99
385.968	4.57
386.176	4.04
386.384	4.78
386.592	5.04
386.8	5.38
387.008	5.26
387.216	5.61
387.424	5.54
387.633	5.46
387.841	4.79
388.049	4.88
388.257	4.79
388.465	4.75
388.672	4.03
388.88	4.02
389.088	3.63
389.296	3.65
389.504	3.52
389.712	3.5
389.92	3.58
390.128	4.19
390.336	3.9
390.544	3.91
390.751	3.89
390.959	3.75
391.167	3.74
391.375	3.55
391.583	3.95
391.79	3.67
391.998	3.55
392.206	3.6
392.414	3.29
392.621	3.54
392.829	3.7
393.037	3.62
393.244	3.54
393.452	3.26
393.66	3.58
393.867	3.32
394.075	3.5
394.283	3.56
394.49	3.22
394.698	3.36
394.905	3.29
395.113	3.75
395.32	3.66
395.528	3.52
395.735	3.92
395.943	3.57
396.15	3.2
396.358	2.62
396.565	3.08
396.773	3.32
396.98	3.02
397.188	3.04
397.395	2.29
397.602	2.44
397.81	2.93
398.017	2.8
398.225	3.08
398.432	3.18
398.639	3.84
398.847	3.33
399.054	3.23
399.261	3.49
399.468	3.34
399.676	3.32
399.883	3.61
400.09	3.64
400.297	3.65
400.505	3.46
400.712	3.43
400.919	3.59
401.126	3.62
401.333	3.7
401.54	3.61
401.748	3.54
401.955	3.49
402.162	3.54
402.369	3.4
402.576	3.29
402.783	3.35
402.99	3.26
403.197	3.07
403.404	3.52
403.611	3.65
403.818	3.38
404.025	3.54
404.232	3.55
404.439	3.35
404.646	3.18
404.853	3.47
405.06	4.07
405.267	4.25
405.474	4.21
405.681	3.98
405.887	3.97
406.094	4.1
406.301	3.89
406.508	4.22
406.715	4.24
406.922	4.31
407.128	4.01
407.335	3.45
407.542	3.1
407.749	3.13
407.955	3.12
408.162	3.28
408.369	3.73
408.575	3.82
408.782	3.79
408.989	3.53
409.195	3.59
409.402	3.58
409.609	3.41
409.815	3.89
410.022	3.99
410.228	4.21
410.435	3.65
410.642	3.59
410.848	3.79
411.055	3.88
411.261	4.16
411.468	4.27
411.674	4.34
411.881	4.35
412.087	4.49
412.294	4.04
412.5	3.79
412.706	3.98
412.913	3.48
413.119	3.33
413.326	2.86
413.532	3
413.738	3.05
413.945	2.88
414.151	2.75
414.357	2.2
414.564	2.26
414.77	2.36
414.976	2.48
415.182	2.95
415.389	2.96
415.595	3.32
415.801	3.14
416.007	2.94
416.214	2.86
416.42	3.28
416.626	3.21
416.832	3.33
417.038	3.3
417.244	3.41
417.45	3.35
417.657	3.35
417.863	3.54
418.069	3.7
418.275	3.99
418.481	4.39
418.687	4.14
418.893	4.32
419.099	4.45
419.305	4.35
419.511	4.18
419.717	4.11
419.923	4.13
420.129	3.97
420.335	3.78
420.541	3.76
420.746	3.48
420.952	3.62
421.158	3.65
421.364	3.63
421.57	3.64
421.776	3.68
421.982	3.74
422.187	3.93
422.393	3.77
422.599	3.97
422.805	3.81
423.01	3.88
423.216	3.83
423.422	3.8
423.628	3.68
423.833	3.73
424.039	3.74
424.245	3.8
424.45	3.7
424.656	3.73
424.862	3.6
425.067	3.76
425.273	3.64
425.478	3.79
425.684	4.02
425.889	4.1
426.095	4.11
426.301	3.95
426.506	3.99
426.712	3.89
426.917	4.04
427.123	3.74
427.328	3.59
427.533	3.61
427.739	3.37
427.944	3.16
428.15	3.35
428.355	3.43
428.561	3.49
428.766	3.02
428.971	3.13
429.177	3.11
429.382	3.49
429.587	3.64
429.793	3.63
429.998	3.51
430.203	3.57
430.408	3.48
430.614	3.66
430.819	3.7
431.024	4.13
431.229	3.94
431.434	3.69
431.64	3.77
431.845	3.54
432.05	3.95
432.255	3.98
432.46	3.87
432.665	3.86
432.87	3.76
433.076	3.74
433.281	3.59
433.486	3.73
433.691	4.01
433.896	3.84
434.101	3.9
434.306	3.66
434.511	3.61
434.716	3.65
434.921	3.38
435.126	3.27
435.331	3.43
435.535	3.66
435.74	3.55
435.945	3.5
436.15	3.58
436.355	3.62
436.56	3.43
436.765	3.68
436.97	3.71
437.174	3.9
437.379	3.96
437.584	3.89
437.789	3.59
437.993	3.64
438.198	3.54
438.403	3.55
438.608	3.4
438.812	3.56
439.017	3.48
439.222	3.5
439.426	3.46
439.631	3.52
439.836	3.71
440.04	3.7
440.245	3.89
440.45	3.95
440.654	4.02
440.859	4.1
441.063	4.15
441.268	4.23
441.472	4.09
441.677	4.39
441.881	4.27
442.086	4.2
442.29	4.24
442.495	4.11
442.699	3.9
442.904	3.94
443.108	4.1
443.312	4.01
443.517	3.85
443.721	3.99
443.925	3.81
444.13	3.85
444.334	3.86
444.538	3.76
444.743	3.8
444.947	4.05
445.151	3.84
445.356	3.77
445.56	3.76
445.764	3.68
445.968	3.53
446.173	3.64
446.377	3.8
446.581	3.72
446.785	3.86
446.989	3.87
447.193	3.78
447.398	3.85
447.602	3.83
447.806	3.86
448.01	3.95
448.214	4.06
448.418	3.88
448.622	3.64
448.826	3.61
449.03	3.63
449.234	3.35
449.438	3.35
449.642	3.32
449.846	3.24
450.05	3.14
450.254	3.28
450.458	3.09
450.662	2.98
450.866	2.86
451.069	3.04
451.273	2.87
451.477	3.05
451.681	3.21
451.885	3.12
452.089	3.21
452.292	3.25
452.496	3.31
452.7	3.5
452.904	3.76
453.107	3.83
453.311	3.56
453.515	3.77
453.719	3.8
453.922	3.53
454.126	3.6
454.33	3.46
454.533	3.51
454.737	3.53
454.94	3.5
455.144	3.32
455.348	3.33
455.551	3.45
455.755	3.39
455.958	3.58
456.162	3.69
456.365	3.68
456.569	3.67
456.772	3.52
456.976	3.2
457.179	3.13
457.383	3.03
457.586	3.24
457.79	3.36
457.993	3.26
458.196	2.97
458.4	2.88
458.603	2.89
458.807	2.98
459.01	3.18
459.213	3.18
459.417	3.21
459.62	3.38
459.823	3.3
460.026	3.15
460.23	3.25
460.433	3.32
460.636	3.47
460.839	3.44
461.042	3.38
461.246	3.34
461.449	3.37
461.652	3.4
461.855	3.08
462.058	3.08
462.261	3.2
462.464	3.04
462.668	3.21
462.871	3.17
463.074	3.31
463.277	3.28
463.48	3.2
463.683	3.15
463.886	3.23
464.089	3.41
464.292	3.35
464.495	3.31
464.698	3.45
464.901	3.07
