Data from 2937865_Reflection_2.txt Node
Date: Wed Jul 15 15:13:03 EDT 2015
User: robert
Spectrometer: USB4E03001
Autoset integration time: false
Trigger mode: 4
Integration Time (sec): 1.000000E-1
Scans to average: 10
Electric dark correction enabled: true
Nonlinearity correction enabled: false
Boxcar width: 5
Stray light correction enabled: false
XAxis mode: Wavelengths
Stop averaging: false
Number of Pixels in Spectrum: 3648
>>>>>Begin Spectral Data<<<<<
177.566	294.41
177.785	155.23
178.005	-290.29
178.225	-256.79
178.445	344.96
178.665	18.77
178.885	165.38
179.105	264.21
179.324	104.74
179.544	80.51
179.764	72.43
179.984	75.61
180.204	49.76
180.423	9.15
180.643	-677.81
180.863	-1178.84
181.083	-255.09
181.302	-171.15
181.522	-8.84
181.742	-22.46
181.961	-34.32
182.181	-77.38
182.401	7.39
182.621	21.2
182.84	-11.48
183.06	32.31
183.279	38.28
183.499	20.83
183.719	-16.59
183.938	-112.16
184.158	-96.6
184.377	-51
184.597	-24.77
184.816	-53.25
185.036	-88.49
185.256	-121.22
185.475	-84.94
185.695	-44.46
185.914	-46.4
186.134	-43.89
186.353	-81.68
186.572	-30.77
186.792	-136.58
187.011	261.84
187.231	382.88
187.45	2.16
187.67	34.42
187.889	48.22
188.108	64.74
188.328	67.71
188.547	76.98
188.766	96.63
188.986	77.24
189.205	60.9
189.424	56.33
189.644	44.01
189.863	46.86
190.082	46.26
190.302	54.21
190.521	40.91
190.74	38.75
190.959	34.25
191.178	-3.54
191.398	21.51
191.617	-17.67
191.836	-23.65
192.055	-109.11
192.274	-80.54
192.494	-2104.19
192.713	-162.94
192.932	-252.69
193.151	-212.41
193.37	360.85
193.589	462.48
193.808	315.15
194.027	-213.99
194.246	-375.87
194.465	-84.69
194.685	-13.97
194.904	-46.96
195.123	-240.33
195.342	-132.67
195.561	-697.4
195.78	-136.88
195.999	-65.86
196.218	-92.36
196.436	250.88
196.655	12.44
196.874	-8.93
197.093	-71.34
197.312	50.14
197.531	96.66
197.75	23.72
197.969	111.46
198.188	56.07
198.407	64.4
198.625	48.75
198.844	17.08
199.063	70.65
199.282	6370
199.501	27.9
199.719	62.71
199.938	-132.92
200.157	-207.82
200.376	-191.13
200.594	-27.36
200.813	-14.44
201.032	-8.75
201.251	14.4
201.469	7.13
201.688	1.2
201.907	6.43
202.125	-37.26
202.344	3.23
202.563	32.55
202.781	58.96
203	35.42
203.218	18.44
203.437	19.22
203.656	14.27
203.874	30.64
204.093	77.83
204.311	62.79
204.53	70.83
204.748	98.09
204.967	82.12
205.185	53
205.404	-39.99
205.622	-92.93
205.841	35.25
206.059	-2.91
206.278	-108.75
206.496	194.32
206.715	396.63
206.933	159.52
207.151	257.75
207.37	640.34
207.588	350.3
207.806	-676.71
208.025	15668.42
208.243	552.9
208.461	-85.69
208.68	85.69
208.898	64.56
209.116	113.72
209.335	107.73
209.553	96.31
209.771	117.72
209.989	113.77
210.208	161.74
210.426	106.95
210.644	134.82
210.862	139.34
211.081	75.4
211.299	72.34
211.517	78.6
211.735	41.67
211.953	48.98
212.171	60.54
212.39	35.43
212.608	25.98
212.826	17.11
213.044	13.44
213.262	-68.85
213.48	-19.04
213.698	-63.51
213.916	-130.39
214.134	34.98
214.352	40.94
214.57	99.36
214.788	96.44
215.006	84.74
215.224	79.93
215.442	98.7
215.66	55.52
215.878	51.64
216.096	8.65
216.314	-12.08
216.532	-0
216.75	4
216.968	-69.62
217.185	-59.35
217.403	-67.37
217.621	-19.2
217.839	-24.55
218.057	-20.46
218.275	-7.04
218.492	-0.46
218.71	-7.75
218.928	-6.3
219.146	3.75
219.363	15.34
219.581	0.75
219.799	1.37
220.017	18.01
220.234	14.14
220.452	4.84
220.67	-10.43
220.887	18.53
221.105	37.16
221.323	33.58
221.54	7.39
221.758	1.76
221.976	-13.45
222.193	0.74
222.411	5.2
222.629	13.67
222.846	18.46
223.064	29.07
223.281	18.67
223.499	8.02
223.716	-4.06
223.934	15.42
224.151	-24.97
224.369	-23.73
224.586	17.01
224.804	-28.92
225.021	-32.42
225.239	-43.29
225.456	-14.11
225.674	10.26
225.891	51.98
226.108	46.65
226.326	43.26
226.543	55.96
226.76	50.77
226.978	30.83
227.195	22.88
227.413	20.05
227.63	21.53
227.847	20.54
228.064	14.81
228.282	5.21
228.499	6.73
228.716	10.06
228.934	11.48
229.151	14.7
229.368	17.4
229.585	20.45
229.802	19.07
230.02	19.07
230.237	19.63
230.454	20.89
230.671	24.61
230.888	28.89
231.105	28.48
231.323	28.67
231.54	28.21
231.757	28.77
231.974	27.73
232.191	31.3
232.408	28.43
232.625	21.3
232.842	24.38
233.059	24.47
233.276	15.76
233.493	11.21
233.71	13.95
233.927	14.62
234.144	11.77
234.361	17.23
234.578	15.87
234.795	15.94
235.012	29.95
235.229	26.83
235.446	24.25
235.663	25.76
235.879	32.36
236.096	28.35
236.313	22.85
236.53	22.06
236.747	16.14
236.964	17.76
237.181	20.5
237.397	8.51
237.614	8.16
237.831	15.16
238.048	25.59
238.264	24.49
238.481	28.49
238.698	33.09
238.915	30.23
239.131	24.54
239.348	18.48
239.565	22.11
239.781	23.72
239.998	19.28
240.215	16.48
240.431	10.32
240.648	12.48
240.865	11.29
241.081	14.31
241.298	18.38
241.514	22.2
241.731	23.39
241.947	22.44
242.164	23.96
242.38	25.64
242.597	25.6
242.814	24.84
243.03	24.94
243.246	25.42
243.463	24.21
243.679	22.52
243.896	22.38
244.112	22.48
244.329	21.62
244.545	19.11
244.762	16.85
244.978	13.98
245.194	15.1
245.411	15.16
245.627	15.56
245.843	15.61
246.06	16.09
246.276	16.38
246.492	17.48
246.709	17.39
246.925	16.8
247.141	16.96
247.357	17.24
247.574	16.61
247.79	16.35
248.006	16.61
248.222	15.3
248.439	15.55
248.655	15.71
248.871	15.36
249.087	15.18
249.303	14.94
249.519	15.67
249.736	16.7
249.952	17.07
250.168	15.22
250.384	13.69
250.6	15.19
250.816	15.92
251.032	10.39
251.248	11.81
251.464	12.56
251.68	14.14
251.896	13.21
252.112	12.98
252.328	13.69
252.544	15.5
252.76	14.82
252.976	14.4
253.192	12.33
253.408	14.82
253.624	13.14
253.84	12.33
254.056	11.84
254.272	11.02
254.487	9.14
254.703	9
254.919	6.09
255.135	9.01
255.351	8.64
255.567	9.76
255.782	10.26
255.998	10.35
256.214	10.1
256.43	8.76
256.646	11.56
256.861	11.59
257.077	10.57
257.293	12.93
257.508	11
257.724	11.63
257.94	9.74
258.155	10.42
258.371	10.76
258.587	11
258.802	10.79
259.018	10.42
259.234	10.45
259.449	10.19
259.665	9.52
259.88	9.69
260.096	10.41
260.312	11.33
260.527	11.63
260.743	11.71
260.958	12.08
261.174	12.62
261.389	12.03
261.605	11.12
261.82	11.29
262.036	12.06
262.251	10.49
262.466	9.93
262.682	9.07
262.897	8.45
263.113	8.52
263.328	8.24
263.543	7.82
263.759	7.95
263.974	10.22
264.189	12.21
264.405	12.88
264.62	16.4
264.835	15.35
265.051	16.08
265.266	15.21
265.481	12.15
265.696	9.9
265.912	10.3
266.127	9.62
266.342	11.73
266.557	10.93
266.773	10.19
266.988	9
267.203	10.86
267.418	11.17
267.633	10.34
267.848	10.72
268.064	12.23
268.279	12.57
268.494	13.4
268.709	12.25
268.924	11.66
269.139	10.88
269.354	11.19
269.569	9.61
269.784	9.09
269.999	8.74
270.214	9.24
270.429	8.95
270.644	8.86
270.859	8.29
271.074	8.11
271.289	7.37
271.504	7.5
271.719	7.78
271.934	8.19
272.149	7.87
272.363	8.32
272.578	7.66
272.793	7.49
273.008	8.51
273.223	8.3
273.438	9.01
273.653	9.16
273.867	8.14
274.082	7.78
274.297	7.41
274.512	6.65
274.726	7.46
274.941	9.3
275.156	7.99
275.371	6.28
275.585	7.56
275.8	5.57
276.015	5.28
276.229	8.53
276.444	10.47
276.659	10.62
276.873	11.38
277.088	13.03
277.302	13.51
277.517	14.62
277.732	15.07
277.946	14.73
278.161	15.64
278.375	18.3
278.59	17.21
278.804	16.18
279.019	16.63
279.233	17.36
279.448	16.49
279.662	14.03
279.877	15.22
280.091	14.64
280.306	14.31
280.52	15.29
280.735	13.67
280.949	12.27
281.163	13.85
281.378	14
281.592	14.51
281.806	13.81
282.021	15.24
282.235	15.1
282.449	15.07
282.664	16.39
282.878	16.96
283.092	17.22
283.307	18.07
283.521	15.3
283.735	14.68
283.949	13.95
284.164	15.41
284.378	14.87
284.592	14.6
284.806	13.84
285.02	11.54
285.234	10.63
285.449	10.2
285.663	11.13
285.877	12.54
286.091	12.5
286.305	12.36
286.519	11.49
286.733	11.73
286.947	10.99
287.161	11.42
287.375	13.14
287.589	12.68
287.803	12.69
288.017	12.28
288.231	11
288.445	10.97
288.659	11.36
288.873	10.32
289.087	10.33
289.301	10.72
289.515	11.03
289.729	10.74
289.943	11.7
290.157	11.5
290.371	11.17
290.584	12.72
290.798	12.47
291.012	11.52
291.226	12.75
291.44	11.81
291.654	11.97
291.867	13.46
292.081	14.65
292.295	13.15
292.509	14.76
292.722	14.78
292.936	13.49
293.15	13.53
293.364	13.03
293.577	11.92
293.791	13.02
294.005	14.17
294.218	13.34
294.432	11.58
294.645	11.54
294.859	9.81
295.073	9.76
295.286	9.35
295.5	10.09
295.713	10.68
295.927	10.68
296.14	10.68
296.354	10.2
296.568	10.78
296.781	11.04
296.994	11.94
297.208	12.26
297.421	11.92
297.635	13.07
297.848	13.04
298.062	13.3
298.275	13.35
298.489	13.36
298.702	12.67
298.915	12.54
299.129	11.85
299.342	11.5
299.555	12.3
299.769	13.54
299.982	14.34
300.195	14.63
300.409	15.97
300.622	17.73
300.835	17.53
301.048	18.89
301.262	19.14
301.475	19.11
301.688	19.2
301.901	19.63
302.115	18.95
302.328	17.26
302.541	17.7
302.754	17.03
302.967	17.92
303.18	17.34
303.393	15.64
303.607	14.37
303.82	15.51
304.033	15.87
304.246	14.57
304.459	13.22
304.672	13.43
304.885	12.25
305.098	11.79
305.311	9.77
305.524	10.16
305.737	12.21
305.95	12.61
306.163	12.06
306.376	11.72
306.589	11.69
306.802	12.61
307.015	13.79
307.228	14.4
307.44	13.74
307.653	14.7
307.866	14.41
308.079	13.23
308.292	12.49
308.505	14.64
308.718	15.13
308.93	15.59
309.143	16.7
309.356	15.12
309.569	14.37
309.781	14.42
309.994	13.85
310.207	15.05
310.42	14.6
310.632	14.85
310.845	13.45
311.058	12.89
311.27	13.84
311.483	13.39
311.696	13.77
311.908	13.98
312.121	13.84
312.333	12.59
312.546	11.1
312.759	11.57
312.971	11.3
313.184	12.78
313.396	12.36
313.609	11.26
313.821	12.6
314.034	12.88
314.246	14.67
314.459	14.97
314.671	14.64
314.884	16.21
315.096	16.38
315.309	17.25
315.521	16.91
315.733	18.35
315.946	16.87
316.158	15.96
316.371	16.64
316.583	15.14
316.795	14.58
317.008	15.9
317.22	14.56
317.432	14.55
317.644	14.26
317.857	12.04
318.069	12.23
318.281	13.22
318.494	12.09
318.706	11.54
318.918	11.41
319.13	12.4
319.342	11.34
319.555	11.04
319.767	11.22
319.979	10.77
320.191	12.06
320.403	9.91
320.615	9.9
320.827	10.1
321.039	11.09
321.252	10.92
321.464	10.29
321.676	10.9
321.888	12.65
322.1	12.12
322.312	11.32
322.524	10.41
322.736	10.64
322.948	10.26
323.16	9.97
323.372	8.5
323.584	8.45
323.796	9.55
324.007	10.08
324.219	9.82
324.431	11.01
324.643	11.7
324.855	12.23
325.067	11.76
325.279	12.71
325.491	13.11
325.702	13.74
325.914	13.38
326.126	12.97
326.338	11.69
326.55	9.27
326.761	8.27
326.973	9.15
327.185	9.84
327.396	11.36
327.608	11.36
327.82	10.68
328.032	10.94
328.243	11.35
328.455	12.42
328.666	13.67
328.878	16.23
329.09	16.04
329.301	16.45
329.513	15.75
329.725	14.92
329.936	13.38
330.148	13.29
330.359	13.86
330.571	14.12
330.782	12.47
330.994	11.9
331.205	9.44
331.417	10.15
331.628	9.58
331.84	9.76
332.051	8.66
332.262	10.37
332.474	10.81
332.685	7.84
332.897	8.92
333.108	9.25
333.319	7.16
333.531	7.9
333.742	7.55
333.953	7.64
334.165	6.95
334.376	8.64
334.587	8.24
334.799	7.18
335.01	9.1
335.221	6.81
335.432	5.78
335.644	8.16
335.855	9.86
336.066	11.04
336.277	9.84
336.488	10.4
336.7	9.38
336.911	9.33
337.122	10.94
337.333	10.54
337.544	11.33
337.755	11.71
337.966	10.91
338.177	10.27
338.388	9.3
338.599	9.37
338.811	7.66
339.022	7.95
339.233	8.05
339.444	7.03
339.655	6.72
339.866	7.23
340.076	7.33
340.287	8.57
340.498	8.98
340.709	9.16
340.92	10.1
341.131	11.78
341.342	12.67
341.553	11.73
341.764	11.5
341.975	10.67
342.185	10.12
342.396	9.75
342.607	10.25
342.818	9.09
343.029	8.84
343.239	7.5
343.45	7.36
343.661	7.07
343.872	7.86
344.082	8.35
344.293	8.97
344.504	9.05
344.714	8.6
344.925	7.98
345.136	7.78
345.346	7.73
345.557	8.52
345.768	8.13
345.978	8.87
346.189	9.21
346.399	8.79
346.61	9.03
346.821	9.46
347.031	11.55
347.242	10.05
347.452	9.93
347.663	10.75
347.873	9.94
348.084	9.58
348.294	8.21
348.504	8.05
348.715	7.74
348.925	8.21
349.136	7.57
349.346	6.71
349.557	8.12
349.767	9.87
349.977	8.62
350.188	8.57
350.398	8.08
350.608	7.77
350.819	7.45
351.029	6.9
351.239	5.97
351.449	7.22
351.66	6.96
351.87	6.97
352.08	5.69
352.29	5.72
352.501	6.44
352.711	7.82
352.921	6.43
353.131	6.09
353.341	7.91
353.552	9.38
353.762	9.58
353.972	9.56
354.182	9.05
354.392	8.95
354.602	9.49
354.812	10.35
355.022	10.4
355.232	11.93
355.442	13.02
355.652	12.63
355.862	11.88
356.072	11.91
356.282	12.37
356.492	11.94
356.702	11.94
356.912	11.38
357.122	10.25
357.332	10.21
357.542	10.72
357.752	10.04
357.962	10.24
358.171	10.51
358.381	10.1
358.591	9.73
358.801	10.27
359.011	9.46
359.221	9.55
359.43	10.59
359.64	10.8
359.85	10.16
360.06	10.09
360.269	9.62
360.479	9.53
360.689	9.24
360.899	9.91
361.108	9.93
361.318	10.14
361.528	10.18
361.737	9.76
361.947	9.18
362.156	9.99
362.366	9.76
362.576	9.38
362.785	9.49
362.995	9.79
363.204	9.46
363.414	9.29
363.623	9.7
363.833	10.21
364.042	10.15
364.252	10.05
364.461	8.98
364.671	9.71
364.88	10.43
365.09	10.14
365.299	9.95
365.509	10.18
365.718	10.7
365.927	10.63
366.137	9.89
366.346	10.27
366.555	10.42
366.765	10.62
366.974	10.32
367.183	10.05
367.393	9.88
367.602	9.64
367.811	9.01
368.021	8.53
368.23	8.11
368.439	8.77
368.648	8.1
368.857	8.24
369.067	7.73
369.276	7.42
369.485	8.03
369.694	7.86
369.903	8.03
370.112	8.06
370.321	7.81
370.531	8.13
370.74	7.19
370.949	6.62
371.158	6.29
371.367	6.91
371.576	7.43
371.785	7.13
371.994	7.48
372.203	6.76
372.412	7.21
372.621	6.76
372.83	6.7
373.039	7.4
373.248	8.34
373.457	8.67
373.666	8.44
373.874	8.62
374.083	8.63
374.292	9.16
374.501	9.82
374.71	9.16
374.919	10.04
375.128	9.4
375.336	9.46
375.545	9.65
375.754	9.67
375.963	10.43
376.171	9.89
376.38	9.93
376.589	9.63
376.798	9.41
377.006	8.91
377.215	8.78
377.424	9.52
377.632	9.75
377.841	9.48
378.05	9.33
378.258	9.12
378.467	9.39
378.675	8.99
378.884	8.74
379.093	8.23
379.301	8.93
379.51	8.55
379.718	7.92
379.927	7.33
380.135	6.98
380.344	6.62
380.552	6.05
380.761	5.16
380.969	5.08
381.177	5.43
381.386	5.73
381.594	6.08
381.803	5.86
382.011	6.28
382.219	5.9
382.428	6.21
382.636	6.32
382.845	6.56
383.053	7.05
383.261	7.08
383.469	6.53
383.678	6.62
383.886	6.01
384.094	6.01
384.302	6.05
384.511	6.45
384.719	6.27
384.927	6.69
385.135	6.37
385.343	6.82
385.552	7.68
385.76	7.73
385.968	8.1
386.176	8.38
386.384	8.45
386.592	8.21
386.8	8.22
387.008	8.39
387.216	8.37
387.424	8.05
387.633	7.68
387.841	6.86
388.049	6.6
388.257	6.17
388.465	6.03
388.672	5.94
388.88	6.04
389.088	5.88
389.296	5.77
389.504	5.71
389.712	6.11
389.92	5.76
390.128	5.68
390.336	5.86
390.544	5.77
390.751	5.92
390.959	5.67
391.167	5.34
391.375	5
391.583	4.6
391.79	4.02
391.998	3.98
392.206	4.26
392.414	4.08
392.621	4.25
392.829	4.32
393.037	4.06
393.244	4.19
393.452	4.37
393.66	4.45
393.867	4.74
394.075	5.05
394.283	4.83
394.49	4.47
394.698	4.54
394.905	4.42
395.113	4.42
395.32	4.66
395.528	5.04
395.735	5.03
395.943	5.07
396.15	5.2
396.358	5.4
396.565	6.2
396.773	6.46
396.98	6.86
397.188	6.67
397.395	6.78
397.602	6.75
397.81	6.6
398.017	6.73
398.225	6.76
398.432	6.05
398.639	5.94
398.847	5.65
399.054	5.43
399.261	4.99
399.468	5.12
399.676	4.71
399.883	4.2
400.09	4.16
400.297	3.98
400.505	4.15
400.712	4.7
400.919	4.64
401.126	4.31
401.333	4.59
401.54	4.58
401.748	4.85
401.955	4.96
402.162	4.86
402.369	5.12
402.576	4.94
402.783	4.74
402.99	4.49
403.197	4.36
403.404	4.28
403.611	4.13
403.818	4.4
404.025	4.37
404.232	4.52
404.439	4.95
404.646	4.62
404.853	4.78
405.06	4.85
405.267	4.81
405.474	4.82
405.681	5
405.887	4.91
406.094	4.88
406.301	4.79
406.508	4.52
406.715	4.53
406.922	4.75
407.128	4.86
407.335	4.96
407.542	5.26
407.749	5.15
407.955	4.93
408.162	4.9
408.369	4.92
408.575	4.48
408.782	5.04
408.989	4.92
409.195	5.01
409.402	4.99
409.609	4.78
409.815	4.89
410.022	4.78
410.228	4.84
410.435	5.1
410.642	5.1
410.848	5.4
411.055	5.06
411.261	5.05
411.468	5.02
411.674	5
411.881	5.09
412.087	5.04
412.294	5.29
412.5	5.33
412.706	5.38
412.913	5.36
413.119	5.62
413.326	5.55
413.532	5.42
413.738	5.18
413.945	5.05
414.151	5.16
414.357	5.13
414.564	4.89
414.77	4.89
414.976	4.59
415.182	4.22
415.389	3.86
415.595	3.96
415.801	4.15
416.007	4.31
416.214	4.45
416.42	4.44
416.626	4.53
416.832	4.71
417.038	4.74
417.244	4.84
417.45	5.09
417.657	5.23
417.863	4.93
418.069	4.76
418.275	4.61
418.481	4.54
418.687	4.45
418.893	4.32
419.099	4.36
419.305	4.3
419.511	4.13
419.717	4.41
419.923	4.4
420.129	4.59
420.335	4.55
420.541	4.5
420.746	4.63
420.952	4.7
421.158	4.63
421.364	4.52
421.57	4.43
421.776	4.54
421.982	4.3
422.187	4.19
422.393	4.2
422.599	4.31
422.805	4.37
423.01	4.31
423.216	4.1
423.422	4.1
423.628	4.13
423.833	4.28
424.039	4.11
424.245	4.01
424.45	4.1
424.656	4.16
424.862	4.25
425.067	4.32
425.273	4.26
425.478	4.33
425.684	4.32
425.889	4.4
426.095	4.33
426.301	4.47
426.506	4.58
426.712	4.52
426.917	4.51
427.123	4.29
427.328	4.22
427.533	4.05
427.739	4.15
427.944	4.39
428.15	4.3
428.355	4.1
428.561	4.17
428.766	4.3
428.971	4.35
429.177	4.24
429.382	4.31
429.587	4.25
429.793	4.63
429.998	4.46
430.203	4.29
430.408	4.29
430.614	4.43
430.819	4.36
431.024	4.41
431.229	4.21
431.434	4.34
431.64	4.18
431.845	4.06
432.05	3.47
432.255	3.68
432.46	3.57
432.665	3.61
432.87	3.81
433.076	4.02
433.281	3.86
433.486	4.03
433.691	3.75
433.896	3.93
434.101	4.18
434.306	4.55
434.511	4.66
434.716	4.74
434.921	4.64
435.126	4.57
435.331	4.42
435.535	4.24
435.74	3.97
435.945	4.01
436.15	3.92
436.355	3.84
436.56	3.9
436.765	3.7
436.97	3.67
437.174	3.94
437.379	3.96
437.584	4.05
437.789	4.27
437.993	4.64
438.198	4.65
438.403	4.8
438.608	4.7
438.812	4.53
439.017	4.46
439.222	4.38
439.426	4.22
439.631	4.23
439.836	4.25
440.04	4.22
440.245	4.12
440.45	4.17
440.654	4
440.859	4
441.063	4.17
441.268	4.1
441.472	4.06
441.677	4.1
441.881	3.97
442.086	3.9
442.29	3.76
442.495	3.71
442.699	3.58
442.904	3.6
443.108	3.68
443.312	3.46
443.517	3.5
443.721	3.68
443.925	3.83
444.13	3.88
444.334	3.8
444.538	3.9
444.743	3.97
444.947	4.1
445.151	4.12
445.356	4.05
445.56	4.08
445.764	4.11
445.968	4.07
446.173	3.94
446.377	3.88
446.581	3.95
446.785	3.98
446.989	3.98
447.193	3.88
447.398	3.79
447.602	3.78
447.806	3.75
448.01	3.77
448.214	3.89
448.418	3.79
448.622	3.85
448.826	3.83
449.03	3.67
449.234	3.56
449.438	3.63
449.642	3.55
449.846	3.58
450.05	3.79
450.254	3.86
450.458	3.74
450.662	3.92
450.866	3.84
451.069	3.86
451.273	4.1
451.477	4.2
451.681	4.2
451.885	4.43
452.089	4.63
452.292	4.36
452.496	4.44
452.7	4.33
452.904	4.26
453.107	4.31
453.311	4.36
453.515	4.28
453.719	4.18
453.922	4.27
454.126	4.23
454.33	4
454.533	3.98
454.737	3.81
454.94	3.92
455.144	3.89
455.348	3.92
455.551	4.01
455.755	4.03
455.958	4.34
456.162	4.36
456.365	4.3
456.569	4.14
456.772	4.13
456.976	4.08
457.179	3.96
457.383	3.99
457.586	3.9
457.79	3.71
457.993	3.75
458.196	3.51
458.4	3.46
458.603	3.44
458.807	3.4
459.01	3.66
459.213	3.68
459.417	3.83
459.62	3.8
459.823	3.95
460.026	3.97
460.23	3.94
460.433	3.94
460.636	3.96
460.839	4.13
461.042	4.42
461.246	4.31
461.449	4.32
461.652	4.24
461.855	4.28
462.058	4.14
462.261	4.11
462.464	4.17
462.668	4.26
462.871	4.2
463.074	4.21
463.277	4.17
463.48	3.86
463.683	3.96
463.886	3.87
464.089	3.78
464.292	3.77
464.495	3.65
464.698	3.62
464.901	3.54
465.104	3.64
465.306	3.51
