Data from 2937886_Reflection_2.txt Node
Date: Wed Jul 15 14:32:16 EDT 2015
User: robert
Spectrometer: USB4E03001
Autoset integration time: false
Trigger mode: 4
Integration Time (sec): 1.000000E-1
Scans to average: 10
Electric dark correction enabled: true
Nonlinearity correction enabled: false
Boxcar width: 5
Stray light correction enabled: false
XAxis mode: Wavelengths
Stop averaging: false
Number of Pixels in Spectrum: 3648
>>>>>Begin Spectral Data<<<<<
177.566	73.42
177.785	87.88
178.005	66.51
178.225	8.72
178.445	35.08
178.665	0.46
178.885	30.14
179.105	55.52
179.324	63.55
179.544	11.3
179.764	-117.16
179.984	-0.46
180.204	-5.74
180.423	2.29
180.643	-36.45
180.863	-51.43
181.083	-50.48
181.302	-32.54
181.522	22.34
181.742	30.84
181.961	30.26
182.181	74.73
182.401	100.11
182.621	338.98
182.84	225.87
183.06	209.54
183.279	162.25
183.499	189.61
183.719	876.73
183.938	189.93
184.158	177.44
184.377	80.66
184.597	115.45
184.816	106.98
185.036	72.5
185.256	46.54
185.475	79.77
185.695	68
185.914	30.08
186.134	17.31
186.353	10.19
186.572	34.83
186.792	51.96
187.011	-356.2
187.231	796.23
187.45	97.65
187.67	88.01
187.889	-187.19
188.108	30.74
188.328	194.97
188.547	100.46
188.766	31.16
188.986	-260.69
189.205	-13.14
189.424	-16.81
189.644	-25.89
189.863	-0.34
190.082	-13.49
190.302	-23.81
190.521	-15.41
190.74	10.49
190.959	24.09
191.178	35.68
191.398	72.23
191.617	71.21
191.836	64.54
192.055	91.86
192.274	94.4
192.494	125.52
192.713	158.2
192.932	109.42
193.151	124.62
193.37	113.49
193.589	159.77
193.808	25.67
194.027	78.57
194.246	20.25
194.465	55.73
194.685	57.44
194.904	66.03
195.123	44.45
195.342	22.09
195.561	33.61
195.78	24.07
195.999	22.49
196.218	28.39
196.436	42.16
196.655	11.38
196.874	-1910.96
197.093	265.21
197.312	120.97
197.531	254.2
197.75	253.05
197.969	124.55
198.188	74.26
198.407	52.31
198.625	142.57
198.844	-3.89
199.063	296.07
199.282	-93.94
199.501	43.92
199.719	-80.31
199.938	-235.67
200.157	-171.41
200.376	-173.57
200.594	-302.3
200.813	2161.1
201.032	-851.8
201.251	2690.78
201.469	-906.37
201.688	1561.93
201.907	434.73
202.125	508.9
202.344	510.94
202.563	446.36
202.781	498.11
203	-6074.11
203.218	-256.42
203.437	-275.14
203.656	-75.73
203.874	-52.65
204.093	1.7
204.311	-8.75
204.53	5.91
204.748	29.69
204.967	21
205.185	40.61
205.404	30
205.622	7.6
205.841	-8.26
206.059	26.44
206.278	46.97
206.496	42.16
206.715	53.02
206.933	53.68
207.151	50.82
207.37	55.41
207.588	39.3
207.806	41.03
208.025	40.39
208.243	76.58
208.461	31.36
208.68	-175.38
208.898	-36.69
209.116	32.4
209.335	-208.22
209.553	-28.77
209.771	-12.17
209.989	33.63
210.208	35.44
210.426	59.01
210.644	34.1
210.862	33.37
211.081	47.41
211.299	12.65
211.517	-14.2
211.735	-34.29
211.953	-69.64
212.171	-122.31
212.39	-597.65
212.608	-172.62
212.826	-152.24
213.044	-211.4
213.262	-113.25
213.48	-159.3
213.698	-104.93
213.916	-73.46
214.134	-44.86
214.352	1.19
214.57	-3.36
214.788	38.95
215.006	32.46
215.224	36.27
215.442	55.52
215.66	74.65
215.878	73.83
216.096	91.24
216.314	45.26
216.532	78.09
216.75	95.86
216.968	122.05
217.185	126.64
217.403	76.31
217.621	98.71
217.839	114.35
218.057	104.06
218.275	105.34
218.492	97.77
218.71	119.14
218.928	75.77
219.146	55.14
219.363	68.45
219.581	65.05
219.799	77.93
220.017	77.75
220.234	71.45
220.452	58.91
220.67	81.91
220.887	-2.66
221.105	8.24
221.323	51.32
221.54	114.43
221.758	16.64
221.976	-9.62
222.193	72.28
222.411	65.36
222.629	66.49
222.846	67.99
223.064	41.64
223.281	52.33
223.499	57.11
223.716	38.37
223.934	34.22
224.151	37.15
224.369	43.02
224.586	20.79
224.804	9.07
225.021	14
225.239	-0.83
225.456	4.09
225.674	4.6
225.891	-10.9
226.108	-10.01
226.326	-20.85
226.543	-13.33
226.76	-15.37
226.978	3.24
227.195	6.65
227.413	-5.44
227.63	5.94
227.847	8.99
228.064	12.2
228.282	19.62
228.499	21.83
228.716	24.42
228.934	25.22
229.151	21.59
229.368	20.12
229.585	21.42
229.802	21.32
230.02	20.07
230.237	19.2
230.454	16.59
230.671	13.88
230.888	15
231.105	10.76
231.323	10.08
231.54	7.12
231.757	8.88
231.974	7.15
232.191	10.18
232.408	14.62
232.625	17.02
232.842	24.47
233.059	22.22
233.276	16.47
233.493	27.75
233.71	20.91
233.927	22.83
234.144	17.48
234.361	21.67
234.578	20.81
234.795	19.64
235.012	18.33
235.229	14.1
235.446	17.15
235.663	20.17
235.879	13.44
236.096	15.76
236.313	18.6
236.53	16.3
236.747	16.31
236.964	17.96
237.181	22.73
237.397	26.29
237.614	27.17
237.831	23
238.048	21.6
238.264	19.31
238.481	30.68
238.698	26.6
238.915	39.07
239.131	30.17
239.348	24.08
239.565	21.92
239.781	22.5
239.998	21.32
240.215	23.03
240.431	24.98
240.648	23.23
240.865	17.81
241.081	20.06
241.298	15.27
241.514	17.44
241.731	18.31
241.947	15.77
242.164	14.2
242.38	16.76
242.597	15.59
242.814	14.35
243.03	16.48
243.246	15.34
243.463	15.03
243.679	15.42
243.896	15.02
244.112	15.9
244.329	15.88
244.545	16.23
244.762	13.06
244.978	14.9
245.194	15.87
245.411	13.23
245.627	15.04
245.843	13.5
246.06	14.52
246.276	15.27
246.492	13.3
246.709	14.99
246.925	14.39
247.141	15.03
247.357	14.78
247.574	14.37
247.79	14.03
248.006	14.08
248.222	15.54
248.439	14.58
248.655	13.87
248.871	14.19
249.087	13.58
249.303	14.38
249.519	14.36
249.736	15
249.952	15.42
250.168	18.03
250.384	17.66
250.6	15.27
250.816	15.62
251.032	18.44
251.248	20.52
251.464	18.76
251.68	18.8
251.896	18.35
252.112	14.53
252.328	13.14
252.544	14.39
252.76	12.82
252.976	13.21
253.192	13.34
253.408	11.72
253.624	8.56
253.84	7.59
254.056	5.51
254.272	5.51
254.487	9.61
254.703	9.58
254.919	4.81
255.135	7.86
255.351	8.49
255.567	7.75
255.782	9.74
255.998	12.73
256.214	11.89
256.43	13.8
256.646	10.67
256.861	9.21
257.077	11.98
257.293	12.91
257.508	13.53
257.724	10.3
257.94	10.95
258.155	11.1
258.371	11.72
258.587	11.85
258.802	11.45
259.018	12.12
259.234	12.2
259.449	10.76
259.665	10.09
259.88	8.95
260.096	10.57
260.312	10.82
260.527	10.34
260.743	10.18
260.958	10.78
261.174	10.73
261.389	10.68
261.605	9.31
261.82	9.14
262.036	9.69
262.251	10.86
262.466	8.56
262.682	7.09
262.897	6.57
263.113	5.87
263.328	7.5
263.543	7.99
263.759	7.73
263.974	8.03
264.189	9.73
264.405	9.54
264.62	10.21
264.835	12.11
265.051	12.61
265.266	13.36
265.481	13.63
265.696	11.26
265.912	9.36
266.127	7.37
266.342	7.74
266.557	8.45
266.773	7.74
266.988	7.53
267.203	7.39
267.418	8.07
267.633	7.5
267.848	7.58
268.064	7.56
268.279	8.53
268.494	10.08
268.709	10.97
268.924	8.99
269.139	11.29
269.354	10.52
269.569	9.23
269.784	8.2
269.999	9.42
270.214	8.97
270.429	8.22
270.644	8.03
270.859	6.75
271.074	7.15
271.289	7.69
271.504	6.86
271.719	6.8
271.934	6.63
272.149	6.87
272.363	6.99
272.578	6.1
272.793	5.88
273.008	6.17
273.223	8.74
273.438	8.49
273.653	9.2
273.867	10.62
274.082	10.24
274.297	9.96
274.512	10.16
274.726	8.99
274.941	9.89
275.156	12.23
275.371	10.2
275.585	6.94
275.8	5.93
276.015	5.09
276.229	1.76
276.444	1.24
276.659	1.66
276.873	0.95
277.088	2.88
277.302	2.78
277.517	2.39
277.732	3.44
277.946	3.85
278.161	4.21
278.375	3.61
278.59	3.29
278.804	3.03
279.019	4.78
279.233	4.78
279.448	2
279.662	2.33
279.877	-0.17
280.091	0.88
280.306	1.32
280.52	1.34
280.735	1.39
280.949	3.01
281.163	4.71
281.378	4.54
281.592	3.94
281.806	4.24
282.021	6.14
282.235	7.15
282.449	6.96
282.664	8.15
282.878	10.59
283.092	11.5
283.307	11.5
283.521	12.63
283.735	14.03
283.949	14.51
284.164	16.09
284.378	14.9
284.592	16.02
284.806	16.13
285.02	15.19
285.234	13.47
285.449	12.86
285.663	11.46
285.877	10.02
286.091	10.02
286.305	11.48
286.519	10.39
286.733	10.26
286.947	9.31
287.161	9.17
287.375	10.45
287.589	10.99
287.803	11.51
288.017	12.22
288.231	12.86
288.445	12.04
288.659	10.62
288.873	10.39
289.087	10.42
289.301	9.14
289.515	8.55
289.729	6.37
289.943	6.03
290.157	6.3
290.371	7.14
290.584	4.9
290.798	3.9
291.012	3.09
291.226	2.36
291.44	1.05
291.654	2.78
291.867	3.25
292.081	4.09
292.295	3.51
292.509	3.83
292.722	5
292.936	8.02
293.15	10.53
293.364	13.36
293.577	14.16
293.791	14.71
294.005	14.59
294.218	15.22
294.432	14.28
294.645	14.3
294.859	12.74
295.073	11.84
295.286	11.52
295.5	10.13
295.713	9
295.927	8.68
296.14	9.65
296.354	10.41
296.568	10.34
296.781	11.13
296.994	11.1
297.208	11.75
297.421	12.14
297.635	11.08
297.848	11.64
298.062	11.4
298.275	11.77
298.489	12
298.702	11.21
298.915	9.87
299.129	10.85
299.342	10.83
299.555	11
299.769	10.41
299.982	11.48
300.195	9.21
300.409	10.25
300.622	11.83
300.835	10.11
301.048	9.88
301.262	11.96
301.475	11.63
301.688	12.8
301.901	13.54
302.115	13.86
302.328	13.08
302.541	14.73
302.754	13.22
302.967	12.31
303.18	12.04
303.393	13.58
303.607	12.86
303.82	10.69
304.033	9.99
304.246	7.75
304.459	7.04
304.672	8.47
304.885	9.48
305.098	9.85
305.311	11.98
305.524	15.02
305.737	12.96
305.95	13.43
306.163	16.2
306.376	18.16
306.589	20.54
306.802	20.48
307.015	20.2
307.228	18.54
307.44	18.91
307.653	16.95
307.866	15.32
308.079	15.18
308.292	13.3
308.505	12.06
308.718	8.81
308.93	7.03
309.143	6.7
309.356	5.72
309.569	5.15
309.781	6.72
309.994	5.31
310.207	5.91
310.42	7.2
310.632	9.43
310.845	9.16
311.058	11.19
311.27	11.78
311.483	11.85
311.696	12.65
311.908	12.87
312.121	10.79
312.333	11.2
312.546	11.08
312.759	11.49
312.971	10.62
313.184	9.46
313.396	8.71
313.609	8.85
313.821	11.07
314.034	10.94
314.246	12.45
314.459	14.79
314.671	14.43
314.884	14.25
315.096	13.07
315.309	11.72
315.521	15.05
315.733	14.72
315.946	14.74
316.158	14.37
316.371	13.65
316.583	12.99
316.795	12.88
317.008	13.32
317.22	13.99
317.432	14.32
317.644	16.05
317.857	14.15
318.069	14.13
318.281	13.78
318.494	12.2
318.706	12.55
318.918	12.16
319.13	9.51
319.342	10.88
319.555	9.65
319.767	8.88
319.979	8.92
320.191	10.14
320.403	9.74
320.615	9.38
320.827	8.91
321.039	10.33
321.252	12.11
321.464	13.42
321.676	14.36
321.888	14.1
322.1	14.93
322.312	14.64
322.524	15.16
322.736	15.89
322.948	16.3
323.16	17.6
323.372	15.96
323.584	15.6
323.796	15.54
324.007	13.42
324.219	13.72
324.431	14.15
324.643	13.85
324.855	12.98
325.067	12.57
325.279	11.43
325.491	9.78
325.702	11.41
325.914	11.01
326.126	11.8
326.338	10.76
326.55	10.7
326.761	11.09
326.973	10.35
327.185	10.22
327.396	10.54
327.608	10.93
327.82	11.1
328.032	9.26
328.243	7.04
328.455	6.33
328.666	9.27
328.878	10.22
329.09	7.93
329.301	8.91
329.513	8.21
329.725	7.14
329.936	8.51
330.148	8.81
330.359	8.88
330.571	9.6
330.782	9.84
330.994	7.63
331.205	7.43
331.417	8.35
331.628	7.19
331.84	8.07
332.051	10.01
332.262	9.28
332.474	8.72
332.685	8.54
332.897	9.55
333.108	8.89
333.319	9.65
333.531	8.58
333.742	7.86
333.953	8.68
334.165	8.62
334.376	7.96
334.587	7.35
334.799	8.69
335.01	9.78
335.221	9.56
335.432	11.02
335.644	11.11
335.855	12.09
336.066	13.02
336.277	13.61
336.488	13.33
336.7	12.67
336.911	11.7
337.122	12.16
337.333	11.29
337.544	11.98
337.755	10.64
337.966	10.12
338.177	9.31
338.388	9.09
338.599	9.07
338.811	9.82
339.022	10.57
339.233	13.39
339.444	12.2
339.655	13.03
339.866	13.4
340.076	14.93
340.287	15.72
340.498	16.78
340.709	17.19
340.92	16.53
341.131	16.6
341.342	15.97
341.553	14.99
341.764	15.43
341.975	15.69
342.185	15.42
342.396	14.8
342.607	13.85
342.818	12.12
343.029	12.89
343.239	13.75
343.45	13.87
343.661	12.65
343.872	13.48
344.082	14.95
344.293	14.77
344.504	13.98
344.714	12.24
344.925	13.28
345.136	14.09
345.346	13.17
345.557	13.01
345.768	14.47
345.978	16.71
346.189	16.15
346.399	14.5
346.61	14.07
346.821	14.63
347.031	15.71
347.242	16.03
347.452	16.5
347.663	16.17
347.873	15.4
348.084	12.89
348.294	12.8
348.504	11.74
348.715	12.59
348.925	12.73
349.136	12.14
349.346	11.21
349.557	10.29
349.767	9.97
349.977	10.53
350.188	11.24
350.398	10.95
350.608	10.78
350.819	11.76
351.029	10.42
351.239	10.83
351.449	11.33
351.66	11.94
351.87	13.03
352.08	13.1
352.29	12.82
352.501	13.91
352.711	15.19
352.921	14.39
353.131	14.49
353.341	15.35
353.552	14.97
353.762	14.56
353.972	15.72
354.182	16.05
354.392	16.2
354.602	17.75
354.812	16.42
355.022	15.96
355.232	16.46
355.442	16.67
355.652	16.54
355.862	17.45
356.072	18.28
356.282	17.89
356.492	17.36
356.702	16.71
356.912	14.82
357.122	14.86
357.332	15.32
357.542	14.74
357.752	14.37
357.962	14.08
358.171	13.93
358.381	12.93
358.591	12.8
358.801	12.32
359.011	12.03
359.221	12.72
359.43	12.78
359.64	11.52
359.85	12.67
360.06	13.78
360.269	13.83
360.479	12.96
360.689	13.21
360.899	13.34
361.108	13.5
361.318	12.95
361.528	12.98
361.737	11.84
361.947	12.33
362.156	11.22
362.366	10.19
362.576	9.16
362.785	8.74
362.995	8.38
363.204	7.45
363.414	6.43
363.623	7.61
363.833	7.43
364.042	8.66
364.252	8.98
364.461	8.86
364.671	8.26
364.88	9.08
365.09	9.54
365.299	11.04
365.509	10.95
365.718	11.38
365.927	11.27
366.137	10.41
366.346	10.78
366.555	10.34
366.765	11.29
366.974	11.95
367.183	11.7
367.393	10.54
367.602	9.16
367.811	9.37
368.021	9.02
368.23	9.16
368.439	8.95
368.648	8.36
368.857	8.66
369.067	8.43
369.276	7.79
369.485	7.32
369.694	8.74
369.903	8.49
370.112	9.45
370.321	10.39
370.531	10.67
370.74	11.88
370.949	11.22
371.158	10.55
371.367	10.17
371.576	9.88
371.785	10.41
371.994	10.45
372.203	10.15
372.412	9.62
372.621	9.56
372.83	8.85
373.039	8.38
373.248	9.22
373.457	8.95
373.666	9.44
373.874	9.64
374.083	9.81
374.292	9.82
374.501	10.19
374.71	10.21
374.919	9.69
375.128	10.48
375.336	10.22
375.545	9.45
375.754	10.06
375.963	9.54
376.171	9.94
376.38	10.68
376.589	10.89
376.798	11
377.006	11.21
377.215	11.35
377.424	11.2
377.632	11.03
377.841	11.72
378.05	11.19
378.258	11.38
378.467	11.35
378.675	10.98
378.884	10.66
379.093	10.85
379.301	10.59
379.51	10.69
379.718	10.1
379.927	10.55
380.135	10.33
380.344	10.4
380.552	9.89
380.761	10.17
380.969	10.23
381.177	10.36
381.386	10.23
381.594	10.57
381.803	10.84
382.011	10.51
382.219	10.43
382.428	10.23
382.636	10.55
382.845	10.71
383.053	10.83
383.261	10.63
383.469	10.23
383.678	10.58
383.886	10.18
384.094	9.6
384.302	9.85
384.511	9.64
384.719	9.51
384.927	9.06
385.135	8.73
385.343	8.58
385.552	9.02
385.76	9.07
385.968	8.31
386.176	8.46
386.384	8.78
386.592	8.4
386.8	8.44
387.008	8.51
387.216	8.39
387.424	8.51
387.633	7.96
387.841	7.5
388.049	7.56
388.257	7.81
388.465	7.63
388.672	6.83
388.88	6.71
389.088	6.35
389.296	6.65
389.504	7.04
389.712	7.05
389.92	6.95
390.128	7
390.336	6.82
390.544	6.6
390.751	6.48
390.959	6.54
391.167	6.95
391.375	7.44
391.583	7.21
391.79	7.08
391.998	7.34
392.206	7.62
392.414	7.26
392.621	7.32
392.829	7.16
393.037	6.84
393.244	7.4
393.452	7.32
393.66	7.23
393.867	6.97
394.075	6.74
394.283	6.72
394.49	6.65
394.698	6.96
394.905	6.74
395.113	6.85
395.32	6.9
395.528	6.52
395.735	6.51
395.943	6.42
396.15	6.86
396.358	6.95
396.565	6.79
396.773	6.85
396.98	6.24
397.188	6.46
397.395	6.49
397.602	6.85
397.81	6.81
398.017	6.64
398.225	6.04
398.432	5.54
398.639	5.45
398.847	5.38
399.054	5.25
399.261	5.43
399.468	5.43
399.676	5.6
399.883	5.76
400.09	6.17
400.297	6.34
400.505	6.7
400.712	6.35
400.919	6.32
401.126	6.45
401.333	6.58
401.54	6.53
401.748	6.36
401.955	5.88
402.162	6.01
402.369	5.56
402.576	5.19
402.783	5.1
402.99	5.44
403.197	5.41
403.404	5.11
403.611	5.14
403.818	5.17
404.025	5.12
404.232	5.36
404.439	5.09
404.646	5.06
404.853	5
405.06	4.94
405.267	5.17
405.474	5.24
405.681	5.37
405.887	5.21
406.094	5.6
406.301	5.77
406.508	6.1
406.715	6.17
406.922	6.42
407.128	6.71
407.335	6.83
407.542	6.63
407.749	6.82
407.955	6.8
408.162	6.61
408.369	6.32
408.575	6.51
408.782	6.2
408.989	6.14
409.195	6.33
409.402	6.06
409.609	6.33
409.815	6.19
410.022	5.85
410.228	5.91
410.435	6.39
410.642	6.3
410.848	6.09
411.055	5.9
411.261	5.88
411.468	5.37
411.674	5.83
411.881	5.76
412.087	6.05
412.294	6.29
412.5	6.47
412.706	6.01
412.913	6.22
413.119	6.53
413.326	6.98
413.532	7.02
413.738	7.32
413.945	7.07
414.151	6.92
414.357	6.76
414.564	6.76
414.77	6.66
414.976	6.61
415.182	6.29
415.389	5.96
415.595	5.8
415.801	5.81
416.007	5.69
416.214	5.7
416.42	5.61
416.626	5.74
416.832	5.64
417.038	5.69
417.244	5.74
417.45	5.87
417.657	5.78
417.863	5.78
418.069	5.74
418.275	5.62
418.481	5.57
418.687	5.7
418.893	5.83
419.099	6.04
419.305	5.88
419.511	5.92
419.717	6.12
419.923	6.09
420.129	6.06
420.335	5.98
420.541	6.06
420.746	6.05
420.952	6.08
421.158	5.82
421.364	5.5
421.57	5.5
421.776	5.63
421.982	5.46
422.187	5.41
422.393	5.38
422.599	5.27
422.805	5.25
423.01	5.21
423.216	5.11
423.422	5.29
423.628	5.38
423.833	5.42
424.039	5.28
424.245	5.36
424.45	5.42
424.656	5.41
424.862	5.6
425.067	5.62
425.273	5.65
425.478	5.58
425.684	5.15
425.889	5.27
426.095	5.27
426.301	5.59
426.506	5.49
426.712	5.58
426.917	5.64
427.123	5.49
427.328	5.54
427.533	5.62
427.739	5.58
427.944	6.02
428.15	6.01
428.355	5.85
428.561	5.34
428.766	5.11
428.971	5.08
429.177	5.01
429.382	4.73
429.587	4.54
429.793	4.49
429.998	4.47
430.203	4.56
430.408	4.74
430.614	5.03
430.819	4.98
431.024	4.94
431.229	4.94
431.434	5.13
431.64	5.28
431.845	5.51
432.05	5.47
432.255	5.72
432.46	5.77
432.665	5.51
432.87	5.32
433.076	5.29
433.281	5.6
433.486	5.63
433.691	5.61
433.896	5.93
434.101	5.8
434.306	6.09
434.511	5.9
434.716	5.7
434.921	5.87
435.126	5.9
435.331	6
435.535	5.87
435.74	5.91
435.945	5.69
436.15	5.51
436.355	5.39
436.56	4.93
436.765	4.94
436.97	4.88
437.174	4.7
437.379	4.85
437.584	4.98
437.789	5.04
437.993	4.81
438.198	4.72
438.403	4.82
438.608	4.82
438.812	5.04
439.017	5.02
439.222	5.21
439.426	5.28
439.631	5.16
439.836	5.05
440.04	5.17
440.245	5.12
440.45	5.26
440.654	5.22
440.859	5.24
441.063	5.02
441.268	5.1
441.472	4.97
441.677	4.87
441.881	4.85
442.086	4.85
442.29	4.78
442.495	4.84
442.699	4.93
442.904	4.79
443.108	4.9
443.312	4.88
443.517	4.9
443.721	4.87
443.925	4.94
444.13	4.93
444.334	5.07
444.538	4.97
444.743	5.08
444.947	4.96
445.151	5.16
445.356	5.08
445.56	5.33
445.764	5.29
445.968	5.3
446.173	5.34
446.377	5.51
446.581	5.36
446.785	5.54
446.989	5.6
447.193	5.62
447.398	5.64
447.602	5.67
447.806	5.64
448.01	5.61
448.214	5.61
448.418	5.57
448.622	5.56
448.826	5.7
449.03	5.56
449.234	5.38
449.438	5.29
449.642	5.07
449.846	5.19
450.05	5.03
450.254	5.13
450.458	5.04
450.662	5.3
450.866	5.26
451.069	5.17
451.273	5.18
451.477	5.16
451.681	5.34
451.885	5.56
452.089	5.59
452.292	5.73
452.496	5.73
452.7	5.76
452.904	5.54
453.107	5.28
453.311	5.2
453.515	5.11
453.719	5.19
453.922	5.1
454.126	5.14
454.33	5.09
454.533	4.97
454.737	5.09
454.94	5.27
455.144	5.27
455.348	5.47
455.551	5.57
455.755	5.71
455.958	5.6
456.162	5.53
456.365	5.34
456.569	5.19
456.772	5.3
456.976	5.05
457.179	4.99
457.383	5.06
457.586	4.95
457.79	4.87
457.993	4.82
458.196	4.82
458.4	4.76
458.603	4.62
458.807	4.75
459.01	4.69
459.213	4.92
459.417	4.74
459.62	4.68
459.823	4.76
460.026	4.74
460.23	4.8
460.433	4.95
460.636	5.08
460.839	5.22
461.042	5.3
461.246	5.31
461.449	5.15
461.652	5.33
461.855	5.47
462.058	5.4
462.261	5.59
462.464	5.6
462.668	5.44
462.871	5.35
463.074	5.37
463.277	5.16
463.48	5.24
463.683	5.29
463.886	5.37
464.089	5.56
464.292	5.77
464.495	5.66
464.698	5.43
464.901	5.38
