Data from 2937823_Reflection_1.txt Node
Date: Wed Jul 15 17:11:16 EDT 2015
User: robert
Spectrometer: USB4E03001
Autoset integration time: false
Trigger mode: 4
Integration Time (sec): 1.000000E-1
Scans to average: 10
Electric dark correction enabled: true
Nonlinearity correction enabled: false
Boxcar width: 5
Stray light correction enabled: false
XAxis mode: Wavelengths
Stop averaging: false
Number of Pixels in Spectrum: 3648
>>>>>Begin Spectral Data<<<<<
177.566	-122.29
177.785	-47.33
178.005	-89.81
178.225	5292.5
178.445	-95.63
178.665	67.72
178.885	-90.98
179.105	0.95
179.324	-157.26
179.544	-608.03
179.764	78.92
179.984	-5.51
180.204	3.08
180.423	-58.88
180.643	-700.84
180.863	-92.25
181.083	-111.49
181.302	-175.12
181.522	-398.43
181.742	-257.34
181.961	-572.96
182.181	-1160.45
182.401	10803.57
182.621	609.29
182.84	-635.79
183.06	-260.76
183.279	-236.91
183.499	-218.21
183.719	-423.41
183.938	-375.29
184.158	-248.28
184.377	-106.78
184.597	-127.88
184.816	-81.54
185.036	-62.66
185.256	-138.56
185.475	-167.84
185.695	-325.3
185.914	-259.85
186.134	-149.22
186.353	-100.51
186.572	-90.31
186.792	-125.62
187.011	-302.23
187.231	-307.74
187.45	-357.21
187.67	-243.02
187.889	-266.23
188.108	-457.94
188.328	-885.34
188.547	-3039.04
188.766	940.52
188.986	1073.53
189.205	1036.48
189.424	-247.32
189.644	-448.65
189.863	-362.5
190.082	-197.38
190.302	-148.44
190.521	-37.92
190.74	-22.81
190.959	-6.04
191.178	-22.46
191.398	-5.73
191.617	-5.51
191.836	4.23
192.055	19.27
192.274	5.67
192.494	-23.97
192.713	-22.02
192.932	-70.22
193.151	-50.26
193.37	-75.9
193.589	-47.39
193.808	-48.01
194.027	-31.32
194.246	-47.4
194.465	-54.44
194.685	-30.35
194.904	-49.45
195.123	-54.84
195.342	-107.88
195.561	-134.66
195.78	-75.54
195.999	-75.83
196.218	-118.87
196.436	-257.24
196.655	-205.02
196.874	-320.25
197.093	-380.63
197.312	-290.55
197.531	-487.92
197.75	-147.51
197.969	-161.78
198.188	-9254.12
198.407	423.88
198.625	394.4
198.844	453.59
199.063	424.5
199.282	633.14
199.501	311.51
199.719	286.49
199.938	248.49
200.157	389.22
200.376	465.6
200.594	408.92
200.813	1376.22
201.032	-711.15
201.251	-36600
201.469	-1389.98
201.688	-223.94
201.907	-150.96
202.125	-224.77
202.344	-52.86
202.563	-483.57
202.781	-96.68
203	-190.45
203.218	-73.34
203.437	-82.33
203.656	-64.08
203.874	-97.69
204.093	-93.58
204.311	-81.8
204.53	-31.9
204.748	-88.9
204.967	-29.8
205.185	-65.22
205.404	-34.01
205.622	-27.25
205.841	-72.32
206.059	-29.43
206.278	-31.51
206.496	-64.72
206.715	-115.09
206.933	-260.92
207.151	-108.26
207.37	-139.19
207.588	-62.84
207.806	-106.03
208.025	-446.51
208.243	-450.14
208.461	3396.84
208.68	1295
208.898	608.54
209.116	122.31
209.335	84.27
209.553	136.39
209.771	191.54
209.989	195.57
210.208	140.35
210.426	153.47
210.644	614.86
210.862	892.7
211.081	778.01
211.299	-122028.57
211.517	-180.71
211.735	-169.02
211.953	-95.96
212.171	-139.67
212.39	-308.14
212.608	-281.31
212.826	-261.55
213.044	-135.35
213.262	-128.92
213.48	-89.54
213.698	-78.69
213.916	-117.36
214.134	-103.78
214.352	-78.07
214.57	-42.16
214.788	-29.49
215.006	0.93
215.224	15.33
215.442	-2.87
215.66	6.26
215.878	9.88
216.096	25.28
216.314	33.57
216.532	13.24
216.75	16.81
216.968	9.94
217.185	9.87
217.403	4.14
217.621	-64.41
217.839	-32.28
218.057	-136.79
218.275	-365.71
218.492	-156.62
218.71	-1664.46
218.928	181.98
219.146	101.15
219.363	73.56
219.581	21.25
219.799	45.25
220.017	29.69
220.234	59.74
220.452	162.76
220.67	-138.41
220.887	-48.47
221.105	11.64
221.323	178.55
221.54	247.52
221.758	239.17
221.976	201.89
222.193	373.56
222.411	506.19
222.629	203.75
222.846	107.51
223.064	131.09
223.281	135.83
223.499	125.59
223.716	156.95
223.934	118.79
224.151	63.42
224.369	44.85
224.586	-0.3
224.804	33.61
225.021	64.02
225.239	91.84
225.456	72.59
225.674	91.42
225.891	75.92
226.108	44.25
226.326	43.11
226.543	59.42
226.76	62.19
226.978	51.58
227.195	46.8
227.413	38.92
227.63	34.63
227.847	28.15
228.064	21.95
228.282	18.7
228.499	20.67
228.716	23.59
228.934	24.96
229.151	26.23
229.368	24.93
229.585	25.97
229.802	26.24
230.02	28.58
230.237	31.28
230.454	37.24
230.671	40.97
230.888	47.45
231.105	49
231.323	47.62
231.54	44.86
231.757	46.12
231.974	46.79
232.191	48.79
232.408	48.07
232.625	47.77
232.842	37.64
233.059	28.87
233.276	22.79
233.493	20
233.71	23.33
233.927	39.57
234.144	47.16
234.361	48.95
234.578	51.44
234.795	49.86
235.012	50.43
235.229	53.65
235.446	53.88
235.663	46.01
235.879	46.62
236.096	48.09
236.313	41.62
236.53	39.32
236.747	34.66
236.964	31.84
237.181	32.84
237.397	30.65
237.614	33.63
237.831	39.8
238.048	43.79
238.264	45.99
238.481	40.52
238.698	36.31
238.915	33.07
239.131	34.27
239.348	34.76
239.565	32.73
239.781	37.38
239.998	38.1
240.215	34.89
240.431	34.72
240.648	37.91
240.865	37.36
241.081	34.24
241.298	31.4
241.514	29.87
241.731	27.11
241.947	26.92
242.164	23.26
242.38	23.15
242.597	22.84
242.814	21.08
243.03	16.35
243.246	15.62
243.463	16.33
243.679	18.55
243.896	18.72
244.112	20.59
244.329	21.74
244.545	23.4
244.762	23.21
244.978	23.85
245.194	24.34
245.411	27.86
245.627	28.77
245.843	27.56
246.06	24.26
246.276	23.34
246.492	21.78
246.709	20.81
246.925	20.14
247.141	19.14
247.357	18.34
247.574	18.36
247.79	17.67
248.006	17.83
248.222	17.12
248.439	17.9
248.655	18
248.871	16.92
249.087	16.55
249.303	17.22
249.519	15.84
249.736	15.4
249.952	15.02
250.168	17.22
250.384	17.52
250.6	19.11
250.816	19.05
251.032	18.19
251.248	19.82
251.464	19.96
251.68	20.23
251.896	22.22
252.112	22.49
252.328	22.67
252.544	20.9
252.76	18.4
252.976	18.83
253.192	19.75
253.408	20.92
253.624	23.86
253.84	25.67
254.056	23.75
254.272	22.92
254.487	23.17
254.703	20.27
254.919	20.78
255.135	22.66
255.351	21.96
255.567	19.26
255.782	16.6
255.998	13.51
256.214	10.21
256.43	12.09
256.646	14.19
256.861	14.68
257.077	17.8
257.293	15.51
257.508	14.76
257.724	14.41
257.94	13.6
258.155	12.33
258.371	10.7
258.587	11.17
258.802	10.74
259.018	11.58
259.234	11.85
259.449	10.98
259.665	11.76
259.88	12.11
260.096	12.3
260.312	13.38
260.527	13.25
260.743	13.78
260.958	13.18
261.174	13.6
261.389	12.85
261.605	12.83
261.82	13.95
262.036	13.58
262.251	14.09
262.466	14.02
262.682	12.53
262.897	15.35
263.113	16.89
263.328	17.95
263.543	18.76
263.759	18.11
263.974	19.88
264.189	20.4
264.405	20.81
264.62	20.48
264.835	18.61
265.051	17.98
265.266	17.3
265.481	15.64
265.696	17.42
265.912	17.2
266.127	19.18
266.342	16.57
266.557	16.05
266.773	16.02
266.988	15.63
267.203	16.43
267.418	16.94
267.633	16
267.848	16.46
268.064	15.48
268.279	14.64
268.494	13.27
268.709	14.36
268.924	13.28
269.139	13.8
269.354	13.26
269.569	13.33
269.784	12.34
269.999	11.07
270.214	10.03
270.429	10.16
270.644	10.62
270.859	10.16
271.074	9.14
271.289	10.12
271.504	9.41
271.719	8.85
271.934	9.35
272.149	8.91
272.363	9.22
272.578	9.65
272.793	9.39
273.008	9.78
273.223	11.22
273.438	12.14
273.653	12.32
273.867	11.75
274.082	13.85
274.297	15.18
274.512	16.51
274.726	16.9
274.941	18.11
275.156	16.2
275.371	15.08
275.585	14.77
275.8	13.6
276.015	13.14
276.229	14.28
276.444	13.3
276.659	12.22
276.873	11.36
277.088	11.58
277.302	10.11
277.517	13.34
277.732	13.29
277.946	13.56
278.161	13.3
278.375	13.8
278.59	13.32
278.804	12.78
279.019	9.54
279.233	10.26
279.448	11.56
279.662	12.18
279.877	11.21
280.091	11.81
280.306	9.13
280.52	9.07
280.735	11.07
280.949	10.54
281.163	11.8
281.378	13.39
281.592	14.49
281.806	13.9
282.021	12.69
282.235	13.02
282.449	13.16
282.664	14.84
282.878	14.98
283.092	12.3
283.307	13.88
283.521	12.88
283.735	14.16
283.949	14.94
284.164	13.93
284.378	13.8
284.592	12.56
284.806	12.15
285.02	12.39
285.234	13.73
285.449	15.54
285.663	15.47
285.877	15.02
286.091	16.1
286.305	14.65
286.519	15.06
286.733	16.03
286.947	15.61
287.161	16.43
287.375	15.17
287.589	14.6
287.803	14.23
288.017	12.6
288.231	11.92
288.445	10.57
288.659	11.99
288.873	12.78
289.087	11.7
289.301	14.43
289.515	14.16
289.729	15.31
289.943	15.96
290.157	16.36
290.371	16.99
290.584	18.19
290.798	18.22
291.012	17.34
291.226	16.37
291.44	17.17
291.654	17.06
291.867	17.5
292.081	18.59
292.295	18.1
292.509	16.78
292.722	17.09
292.936	19.15
293.15	19.31
293.364	18.66
293.577	18.62
293.791	18.45
294.005	16.29
294.218	15.45
294.432	13.99
294.645	12.46
294.859	14.46
295.073	14.55
295.286	12.56
295.5	12.01
295.713	11.12
295.927	11.5
296.14	10.97
296.354	12.11
296.568	11.41
296.781	11.01
296.994	12.66
297.208	11.17
297.421	11.1
297.635	11.49
297.848	11.79
298.062	12.41
298.275	13.06
298.489	14.74
298.702	14.99
298.915	15.5
299.129	16.29
299.342	16.91
299.555	18.45
299.769	17.95
299.982	16.37
300.195	16.2
300.409	18.02
300.622	16.82
300.835	13.63
301.048	12.38
301.262	13.01
301.475	12.73
301.688	12.95
301.901	12.64
302.115	14.63
302.328	15.39
302.541	15.64
302.754	13.73
302.967	14.33
303.18	15.22
303.393	15.85
303.607	15.11
303.82	15.86
304.033	12.77
304.246	12.16
304.459	10.52
304.672	12.27
304.885	12.6
305.098	12.32
305.311	13.12
305.524	14.26
305.737	14.04
305.95	14.86
306.163	14.94
306.376	16.7
306.589	16.98
306.802	17.49
307.015	14.73
307.228	12.4
307.44	11.24
307.653	11.19
307.866	10.2
308.079	10.7
308.292	11.25
308.505	10.16
308.718	10.78
308.93	9.48
309.143	9.85
309.356	11.74
309.569	11.03
309.781	12.58
309.994	13.65
310.207	14.29
310.42	13.39
310.632	13.37
310.845	13.84
311.058	13.51
311.27	14.64
311.483	13.55
311.696	12.99
311.908	14.68
312.121	14.6
312.333	13.86
312.546	13.04
312.759	13.89
312.971	13.76
313.184	14.73
313.396	14.05
313.609	12.4
313.821	13.77
314.034	13.96
314.246	14.23
314.459	15
314.671	14.28
314.884	15.71
315.096	14.59
315.309	14.15
315.521	13.59
315.733	14.05
315.946	14.29
316.158	14.81
316.371	14.34
316.583	13.22
316.795	12.73
317.008	11.66
317.22	10.36
317.432	11.91
317.644	13.71
317.857	15.53
318.069	16.77
318.281	17.73
318.494	17.26
318.706	16.04
318.918	16.32
319.13	15.89
319.342	15.69
319.555	15.33
319.767	14.08
319.979	11.89
320.191	8.43
320.403	6.04
320.615	6.41
320.827	5.23
321.039	6.42
321.252	6.1
321.464	5.92
321.676	8.2
321.888	9
322.1	9.32
322.312	9.16
322.524	8.46
322.736	8.84
322.948	9.23
323.16	12.22
323.372	12.87
323.584	13.6
323.796	15.06
324.007	14.14
324.219	14.46
324.431	13.24
324.643	13.47
324.855	15.11
325.067	15.04
325.279	14.65
325.491	13.61
325.702	13.6
325.914	13.42
326.126	11.94
326.338	12.04
326.55	11.62
326.761	11.31
326.973	9.84
327.185	9.7
327.396	10.2
327.608	9.55
327.82	8.11
328.032	8.25
328.243	8.46
328.455	8.58
328.666	9.09
328.878	10.16
329.09	11.78
329.301	12.7
329.513	11.19
329.725	9.13
329.936	9.74
330.148	10.5
330.359	10.33
330.571	10.89
330.782	11.99
330.994	10.03
331.205	9.62
331.417	9.35
331.628	9.66
331.84	10.41
332.051	13.23
332.262	13.07
332.474	12.92
332.685	12.48
332.897	11.78
333.108	11.51
333.319	13.76
333.531	14.01
333.742	15.07
333.953	14.24
334.165	14.03
334.376	12.43
334.587	11.32
334.799	10.89
335.01	11.02
335.221	10.88
335.432	11.37
335.644	10.83
335.855	10.4
336.066	10.55
336.277	9.97
336.488	9.79
336.7	10.13
336.911	10.78
337.122	12.08
337.333	11.32
337.544	10.86
337.755	10.43
337.966	10.24
338.177	9.22
338.388	9.31
338.599	11.99
338.811	11.07
339.022	11.01
339.233	10.44
339.444	9.32
339.655	9.5
339.866	10
340.076	10.6
340.287	9.26
340.498	9.7
340.709	8.11
340.92	7.54
341.131	9.78
341.342	10.65
341.553	11.43
341.764	11.8
341.975	12.31
342.185	11.43
342.396	11.58
342.607	13.45
342.818	14.72
343.029	15.15
343.239	15.09
343.45	13.98
343.661	13.29
343.872	12.58
344.082	13.68
344.293	13.74
344.504	14.34
344.714	13.08
344.925	13.13
345.136	13.85
345.346	13.8
345.557	13.32
345.768	14.59
345.978	14.57
346.189	15.12
346.399	13.76
346.61	14.51
346.821	15.25
347.031	15.58
347.242	15.63
347.452	13.65
347.663	13.43
347.873	13.56
348.084	11.4
348.294	11.59
348.504	11.52
348.715	13.34
348.925	12.72
349.136	12.61
349.346	12.48
349.557	11.28
349.767	10.74
349.977	11.73
350.188	10.57
350.398	10.27
350.608	9.86
350.819	9.18
351.029	8.57
351.239	8.22
351.449	6.9
351.66	7.02
351.87	6.73
352.08	7.83
352.29	7.69
352.501	8.85
352.711	10.83
352.921	10.13
353.131	10.89
353.341	9.46
353.552	9.82
353.762	10.09
353.972	10.25
354.182	10.45
354.392	9.79
354.602	9.1
354.812	8.55
355.022	7.51
355.232	8.18
355.442	8.51
355.652	8.28
355.862	7.2
356.072	8.31
356.282	7.96
356.492	6.85
356.702	6.97
356.912	8.03
357.122	8.39
357.332	9
357.542	8.65
357.752	7.71
357.962	7.8
358.171	8.84
358.381	8.34
358.591	8.54
358.801	10.22
359.011	10.53
359.221	9.36
359.43	8.08
359.64	7.56
359.85	7.29
360.06	7.53
360.269	7.79
360.479	7.44
360.689	7.01
360.899	6.14
361.108	5.5
361.318	5.81
361.528	6.65
361.737	7.1
361.947	7.54
362.156	7.81
362.366	8.07
362.576	7.97
362.785	7.58
362.995	7.5
363.204	8.15
363.414	8.25
363.623	8.1
363.833	7.63
364.042	7.91
364.252	7.64
364.461	7.45
364.671	6.91
364.88	7.7
365.09	8.98
365.299	9.16
365.509	9.12
365.718	10.27
365.927	11.09
366.137	11.4
366.346	11.77
366.555	10.41
366.765	10.73
366.974	10.83
367.183	10.4
367.393	9.5
367.602	9.77
367.811	9.87
368.021	9.32
368.23	7.92
368.439	8.02
368.648	7.7
368.857	9.03
369.067	9.37
369.276	9.78
369.485	9.25
369.694	9.57
369.903	9.21
370.112	9.37
370.321	8.99
370.531	9.64
370.74	8.72
370.949	8.38
371.158	8.53
371.367	8.36
371.576	8.32
371.785	8.65
371.994	8.21
372.203	8.37
372.412	7.72
372.621	7.08
372.83	7.3
373.039	7.31
373.248	7.9
373.457	7.13
373.666	7.2
373.874	7.15
374.083	6.7
374.292	7.04
374.501	7.42
374.71	7.64
374.919	8.15
375.128	7.05
375.336	7.46
375.545	7.24
375.754	7.86
375.963	7.12
376.171	6.44
376.38	7.09
376.589	6.43
376.798	6.11
377.006	6.23
377.215	5.98
377.424	6.32
377.632	6.26
377.841	5.74
378.05	5.63
378.258	6.68
378.467	7.31
378.675	6.51
378.884	7.44
379.093	7.41
379.301	7.81
379.51	7.7
379.718	7.92
379.927	8.51
380.135	9.02
380.344	8.57
380.552	7.92
380.761	7.28
380.969	7.86
381.177	7.14
381.386	7.17
381.594	7.19
381.803	7.87
382.011	7.74
382.219	6.6
382.428	6.64
382.636	7.23
382.845	7.64
383.053	8
383.261	7.97
383.469	8.03
383.678	7.81
383.886	7.41
384.094	6.22
384.302	5.92
384.511	6.22
384.719	6.36
384.927	6.59
385.135	6.51
385.343	6.53
385.552	6.15
385.76	6.34
385.968	6.18
386.176	6.08
386.384	6.52
386.592	6.34
386.8	6.28
387.008	6.36
387.216	5.9
387.424	5.54
387.633	5.54
387.841	6.14
388.049	5.85
388.257	6.18
388.465	6.03
388.672	6.18
388.88	6.66
389.088	6.6
389.296	5.91
389.504	5.96
389.712	6.33
389.92	6.11
390.128	5.82
390.336	5.76
390.544	5.41
390.751	5.44
390.959	5.46
391.167	5.57
391.375	5.5
391.583	5.7
391.79	5.5
391.998	5.38
392.206	5.03
392.414	4.72
392.621	4.94
392.829	5.21
393.037	5.55
393.244	5.55
393.452	5.29
393.66	5.42
393.867	5.2
394.075	5.12
394.283	5.09
394.49	5.7
394.698	6.24
394.905	6.12
395.113	5.8
395.32	5.38
395.528	5.28
395.735	5.14
395.943	4.89
396.15	4.56
396.358	4.49
396.565	4.37
396.773	3.98
396.98	3.44
397.188	3.26
397.395	3.22
397.602	3.52
397.81	3.39
398.017	3.7
398.225	4.06
398.432	4.52
398.639	4.64
398.847	4.57
399.054	4.91
399.261	4.91
399.468	5.15
399.676	6.02
399.883	5.6
400.09	5.86
400.297	5.81
400.505	5.62
400.712	5.95
400.919	6.16
401.126	6.2
401.333	5.81
401.54	5.69
401.748	5.54
401.955	5.02
402.162	5.14
402.369	4.7
402.576	4.66
402.783	4.59
402.99	4.15
403.197	4.11
403.404	4.45
403.611	4.51
403.818	4.73
404.025	4.61
404.232	4.43
404.439	4.39
404.646	4.44
404.853	4.39
405.06	4.48
405.267	4.49
405.474	4.69
405.681	4.58
405.887	4.45
406.094	4.41
406.301	4.6
406.508	4.63
406.715	4.74
406.922	5.1
407.128	5.15
407.335	4.85
407.542	4.85
407.749	4.07
407.955	3.87
408.162	3.96
408.369	4.23
408.575	4.49
408.782	4.59
408.989	4.62
409.195	4.77
409.402	4.45
409.609	4.73
409.815	5.2
410.022	6.05
410.228	6.05
410.435	6.08
410.642	5.78
410.848	5.43
411.055	5.5
411.261	5.55
411.468	5.11
411.674	5.14
411.881	5.18
412.087	4.87
412.294	4.29
412.5	4.17
412.706	3.98
412.913	4.09
413.119	4.24
413.326	4.11
413.532	4.16
413.738	4.74
413.945	4.73
414.151	4.74
414.357	4.95
414.564	5.12
414.77	5.06
414.976	5.21
415.182	5
415.389	4.74
415.595	4.59
415.801	4.6
416.007	4.14
416.214	4.41
416.42	4.44
416.626	4.45
416.832	4.49
417.038	4.76
417.244	5.09
417.45	5.14
417.657	5.4
417.863	5.33
418.069	5.21
418.275	5.16
418.481	5.31
418.687	5.18
418.893	5
419.099	5.09
419.305	4.99
419.511	4.62
419.717	4.6
419.923	4.63
420.129	4.72
420.335	4.7
420.541	4.72
420.746	4.49
420.952	4.54
421.158	4.65
421.364	4.47
421.57	4.41
421.776	4.46
421.982	4.5
422.187	4.41
422.393	4.24
422.599	4.27
422.805	4.34
423.01	4.27
423.216	4.19
423.422	3.96
423.628	4.09
423.833	4.06
424.039	3.96
424.245	3.95
424.45	3.85
424.656	4.03
424.862	4.08
425.067	3.88
425.273	3.98
425.478	3.85
425.684	3.89
425.889	3.89
426.095	3.85
426.301	4.1
426.506	3.92
426.712	3.86
426.917	3.95
427.123	3.68
427.328	3.86
427.533	4
427.739	4.23
427.944	4.2
428.15	4.09
428.355	4.1
428.561	4.21
428.766	4.3
428.971	4.6
429.177	4.36
429.382	4.48
429.587	4.29
429.793	4.01
429.998	4.07
430.203	4.18
430.408	4.17
430.614	4.12
430.819	3.87
431.024	4.12
431.229	3.83
431.434	4.04
431.64	4.03
431.845	4.47
432.05	4.71
432.255	4.49
432.46	4.54
432.665	4.46
432.87	4.53
433.076	4.46
433.281	4.37
433.486	4.52
433.691	4.35
433.896	4.35
434.101	3.95
434.306	3.66
434.511	3.82
434.716	3.74
434.921	3.88
435.126	3.75
435.331	3.74
435.535	3.79
435.74	3.79
435.945	3.67
436.15	3.73
436.355	3.83
436.56	3.97
436.765	3.91
436.97	3.91
437.174	3.98
437.379	4.09
437.584	4.22
437.789	4.18
437.993	4.13
438.198	4.03
438.403	4.06
438.608	4.05
438.812	4.05
439.017	4.24
439.222	4.18
439.426	4.01
439.631	3.99
439.836	3.88
440.04	3.82
440.245	3.73
440.45	3.89
440.654	3.6
440.859	3.64
441.063	3.62
441.268	3.35
441.472	3.36
441.677	3.33
441.881	3.29
442.086	3.27
442.29	3.25
442.495	3.2
442.699	3.11
442.904	3.36
443.108	3.38
443.312	3.21
443.517	3.32
443.721	3.38
443.925	3.3
444.13	3.27
444.334	3.18
444.538	3.23
444.743	3.41
444.947	3.51
445.151	3.47
445.356	3.36
445.56	3.45
445.764	3.47
445.968	3.47
446.173	3.46
446.377	3.53
446.581	3.72
446.785	3.54
446.989	3.5
447.193	3.5
447.398	3.54
447.602	3.67
447.806	3.62
448.01	3.55
448.214	3.79
448.418	3.76
448.622	3.73
448.826	3.58
449.03	3.63
449.234	3.57
449.438	3.74
449.642	3.57
449.846	3.49
450.05	3.71
450.254	3.78
450.458	3.33
450.662	3.58
450.866	3.63
451.069	3.76
451.273	3.84
451.477	3.86
451.681	3.43
451.885	3.57
452.089	3.79
452.292	3.53
452.496	3.52
452.7	3.7
452.904	3.7
453.107	3.8
453.311	3.66
453.515	3.75
453.719	3.99
453.922	4.12
454.126	4.04
454.33	3.84
454.533	4
454.737	3.98
454.94	3.9
455.144	3.92
455.348	3.66
455.551	3.8
455.755	3.69
455.958	3.41
456.162	3.42
456.365	3.4
456.569	3.39
456.772	3.42
456.976	3.45
457.179	3.33
457.383	3.23
457.586	3.2
457.79	3.08
457.993	3.11
458.196	3.12
458.4	3.17
458.603	3.2
458.807	3.19
459.01	3.25
459.213	3.32
459.417	3.34
459.62	3.36
459.823	3.44
460.026	3.54
460.23	3.49
460.433	3.42
460.636	3.44
460.839	3.49
461.042	3.44
461.246	3.43
461.449	3.36
461.652	3.41
461.855	3.33
462.058	3.36
