Data from 2937867_Reflection_2.txt Node
Date: Wed Jul 15 15:07:27 EDT 2015
User: robert
Spectrometer: USB4E03001
Autoset integration time: false
Trigger mode: 4
Integration Time (sec): 1.000000E-1
Scans to average: 10
Electric dark correction enabled: true
Nonlinearity correction enabled: false
Boxcar width: 5
Stray light correction enabled: false
XAxis mode: Wavelengths
Stop averaging: false
Number of Pixels in Spectrum: 3648
>>>>>Begin Spectral Data<<<<<
177.566	850.58
177.785	532.6
178.005	-1098.53
178.225	-192.9
178.445	-126.97
178.665	-268.06
178.885	-48.74
179.105	308.18
179.324	-52.45
179.544	12.88
179.764	39.54
179.984	45.15
180.204	52.65
180.423	26.93
180.643	15.01
180.863	-23.15
181.083	-18.14
181.302	-50.28
181.522	11.87
181.742	158
181.961	498.46
182.181	532.81
182.401	-269.69
182.621	-64.23
182.84	-88
183.06	-54.08
183.279	-100.87
183.499	-118.28
183.719	-76.33
183.938	-37.96
184.158	38.59
184.377	27.27
184.597	29.93
184.816	63.8
185.036	157.24
185.256	142.66
185.475	131.28
185.695	-785.17
185.914	-200.83
186.134	-36.85
186.353	-50.26
186.572	28.84
186.792	18.49
187.011	16.79
187.231	31.07
187.45	31
187.67	19.16
187.889	19.3
188.108	60.89
188.328	64.91
188.547	101.06
188.766	324.88
188.986	216.8
189.205	242.41
189.424	138.3
189.644	126.53
189.863	337.79
190.082	183.68
190.302	-3914.29
190.521	-353.15
190.74	38.03
190.959	38.55
191.178	67.27
191.398	-3.56
191.617	31.47
191.836	14.81
192.055	-9.33
192.274	15.02
192.494	-25.92
192.713	-98.14
192.932	-72.53
193.151	-139.93
193.37	-65.24
193.589	-593.99
193.808	-1028.92
194.027	128.62
194.246	54.69
194.465	60.32
194.685	60.73
194.904	55.18
195.123	72.22
195.342	58.15
195.561	65.68
195.78	41.74
195.999	40.22
196.218	47.62
196.436	61.24
196.655	69.11
196.874	45.34
197.093	46.85
197.312	63.07
197.531	23.58
197.75	17.81
197.969	1.54
198.188	45.25
198.407	47.67
198.625	33.57
198.844	-40.22
199.063	-26.16
199.282	-245.88
199.501	-27.96
199.719	5.38
199.938	-6.3
200.157	18.34
200.376	21.28
200.594	-36.02
200.813	-149.22
201.032	-458.46
201.251	-385.71
201.469	-67.8
201.688	107.26
201.907	124.66
202.125	135.95
202.344	219.86
202.563	135.03
202.781	151.82
203	182.06
203.218	328.97
203.437	272.2
203.656	1822.95
203.874	-1244.99
204.093	-315.01
204.311	-140.07
204.53	-96.15
204.748	-97.19
204.967	-105.49
205.185	-112.92
205.404	-106.42
205.622	-117.31
205.841	-177.19
206.059	-584.24
206.278	12129.69
206.496	2163.64
206.715	1141.73
206.933	6236.89
207.151	1588.59
207.37	407.08
207.588	375.85
207.806	237.96
208.025	79.86
208.243	900.96
208.461	538.11
208.68	200.46
208.898	488.71
209.116	112.81
209.335	88.35
209.553	82.65
209.771	1139.06
209.989	219.44
210.208	264.65
210.426	3310
210.644	-514.08
210.862	1158.78
211.081	325.37
211.299	-1324.12
211.517	-147.14
211.735	63.9
211.953	75.16
212.171	75.52
212.39	104.72
212.608	293.3
212.826	218.05
213.044	106.94
213.262	125.91
213.48	98.56
213.698	128.02
213.916	44.53
214.134	83.22
214.352	172.85
214.57	106.78
214.788	96.4
215.006	180.89
215.224	86.53
215.442	60.21
215.66	98.27
215.878	75.67
216.096	125.3
216.314	107.46
216.532	112.67
216.75	63.04
216.968	79.71
217.185	109.25
217.403	138.01
217.621	426.98
217.839	448.4
218.057	193.6
218.275	-89.69
218.492	-441.28
218.71	-248.52
218.928	-92.73
219.146	-8.11
219.363	-3.37
219.581	51.61
219.799	83.01
220.017	90.86
220.234	99.94
220.452	118.51
220.67	159.78
220.887	112.78
221.105	140.8
221.323	386.37
221.54	-384.69
221.758	-34.41
221.976	14.16
222.193	50.16
222.411	44.24
222.629	34.18
222.846	43.63
223.064	64.9
223.281	28.32
223.499	78.01
223.716	117.31
223.934	147.14
224.151	276.87
224.369	179.17
224.586	213.94
224.804	288.92
225.021	933.72
225.239	560.42
225.456	176.79
225.674	206.83
225.891	181.46
226.108	140.43
226.326	71.13
226.543	-157.85
226.76	-108.71
226.978	-118.03
227.195	-31.12
227.413	-8.27
227.63	11.72
227.847	1.92
228.064	22.67
228.282	28.32
228.499	25.87
228.716	21.59
228.934	25.01
229.151	24.25
229.368	27.46
229.585	23.5
229.802	20.33
230.02	17.06
230.237	16.05
230.454	5.24
230.671	3.53
230.888	2.61
231.105	4.39
231.323	0.62
231.54	-4.8
231.757	-5.14
231.974	-2.22
232.191	4.78
232.408	12.3
232.625	8.97
232.842	17.51
233.059	15.03
233.276	8.25
233.493	6.13
233.71	17.14
233.927	26.04
234.144	32.91
234.361	33.89
234.578	38.4
234.795	34.67
235.012	38.29
235.229	41.78
235.446	43.4
235.663	47.72
235.879	53.43
236.096	56.02
236.313	58.15
236.53	61.14
236.747	63.33
236.964	60.74
237.181	61.99
237.397	65.53
237.614	67.42
237.831	70.29
238.048	69.67
238.264	65.73
238.481	59.02
238.698	46.74
238.915	36.18
239.131	35.58
239.348	33.42
239.565	35.29
239.781	32.1
239.998	25.84
240.215	26.15
240.431	20.33
240.648	20.01
240.865	20.73
241.081	20.29
241.298	17.47
241.514	13.7
241.731	15.12
241.947	18.58
242.164	18.24
242.38	18.37
242.597	16.55
242.814	17.73
243.03	18.51
243.246	17.45
243.463	17.73
243.679	21.99
243.896	22.99
244.112	19.91
244.329	19.61
244.545	20.89
244.762	23.47
244.978	22.96
245.194	25.63
245.411	24.31
245.627	26.7
245.843	26.61
246.06	22.75
246.276	23.22
246.492	23.51
246.709	22.49
246.925	21.73
247.141	21.6
247.357	21.85
247.574	21.35
247.79	20.97
248.006	20.08
248.222	19.01
248.439	18.34
248.655	16.93
248.871	16.98
249.087	16.54
249.303	15.51
249.519	12.87
249.736	13.44
249.952	13.03
250.168	13.44
250.384	13.93
250.6	13.79
250.816	16.07
251.032	20
251.248	20.35
251.464	20.79
251.68	22.17
251.896	21.25
252.112	19.03
252.328	18.13
252.544	17.78
252.76	18.12
252.976	19.17
253.192	18.38
253.408	17.73
253.624	19.84
253.84	19.94
254.056	17.39
254.272	18.92
254.487	18.4
254.703	20.69
254.919	25.48
255.135	22.76
255.351	25.48
255.567	23.69
255.782	20.97
255.998	17.53
256.214	14.97
256.43	16.32
256.646	18.65
256.861	15.32
257.077	9.3
257.293	4.25
257.508	3.63
257.724	0.28
257.94	2.87
258.155	0.99
258.371	0.92
258.587	5.39
258.802	8.47
259.018	9.33
259.234	12.46
259.449	13.84
259.665	13.98
259.88	14.59
260.096	15.35
260.312	16.66
260.527	17.63
260.743	18.6
260.958	17.11
261.174	15.9
261.389	15.45
261.605	13.97
261.82	13.01
262.036	13.44
262.251	13.41
262.466	13.52
262.682	10.98
262.897	10.76
263.113	9.8
263.328	12.01
263.543	15.3
263.759	14.53
263.974	15.65
264.189	15.82
264.405	13.89
264.62	15.22
264.835	13.01
265.051	13.54
265.266	14.47
265.481	12.7
265.696	12.9
265.912	9.67
266.127	11.34
266.342	11.73
266.557	12.86
266.773	13.13
266.988	13.38
267.203	13.01
267.418	12.99
267.633	13.46
267.848	15.36
268.064	13.82
268.279	13.68
268.494	12.31
268.709	12.83
268.924	13.19
269.139	13.24
269.354	10.23
269.569	11.41
269.784	11.13
269.999	10.61
270.214	9.7
270.429	11.2
270.644	13.38
270.859	13.47
271.074	14.89
271.289	16.23
271.504	15.69
271.719	16.43
271.934	16.34
272.149	14.45
272.363	14.53
272.578	15.28
272.793	13.35
273.008	12.6
273.223	12.41
273.438	10.79
273.653	8.01
273.867	9.39
274.082	10.92
274.297	10.44
274.512	11.91
274.726	10.61
274.941	8.7
275.156	9.46
275.371	7.15
275.585	7.67
275.8	6.66
276.015	7.65
276.229	5.01
276.444	3.26
276.659	1.37
276.873	1.11
277.088	2.42
277.302	2.87
277.517	4.09
277.732	7.68
277.946	9.02
278.161	10.36
278.375	10.94
278.59	13.64
278.804	12.91
279.019	14.2
279.233	14.75
279.448	15.11
279.662	14.79
279.877	14.25
280.091	13.04
280.306	13.03
280.52	11.35
280.735	12.37
280.949	8.73
281.163	9.31
281.378	10.99
281.592	10.17
281.806	10.69
282.021	10
282.235	9.22
282.449	8.69
282.664	9.48
282.878	8.73
283.092	9.17
283.307	11.58
283.521	10.78
283.735	10.8
283.949	12.63
284.164	11.48
284.378	12.16
284.592	13.02
284.806	12.04
285.02	10
285.234	12.29
285.449	9.81
285.663	9.59
285.877	10.39
286.091	8.8
286.305	9.32
286.519	8.4
286.733	8.85
286.947	8.63
287.161	10.2
287.375	11.74
287.589	12.44
287.803	14.29
288.017	15.1
288.231	12.71
288.445	15.08
288.659	13.4
288.873	14.25
289.087	14.65
289.301	14.74
289.515	14.66
289.729	13.86
289.943	13.54
290.157	12.46
290.371	12.38
290.584	15.66
290.798	14.35
291.012	13.8
291.226	15.48
291.44	14.04
291.654	13.91
291.867	13.06
292.081	14.78
292.295	11.2
292.509	12.16
292.722	10.83
292.936	10.73
293.15	11.42
293.364	14.11
293.577	12.79
293.791	14.28
294.005	14.06
294.218	14.33
294.432	14.24
294.645	18.05
294.859	18.15
295.073	18.46
295.286	17.22
295.5	17.51
295.713	15.61
295.927	16.63
296.14	15.68
296.354	15.62
296.568	15.76
296.781	14.22
296.994	14.57
297.208	14.08
297.421	14.09
297.635	13.41
297.848	13.96
298.062	14.52
298.275	15.64
298.489	14.82
298.702	15.84
298.915	16.3
299.129	17.25
299.342	15.64
299.555	16.36
299.769	16.6
299.982	19.84
300.195	18.19
300.409	19.17
300.622	16.93
300.835	16.63
301.048	14.26
301.262	14.45
301.475	13.93
301.688	13.68
301.901	13.92
302.115	13.61
302.328	12.07
302.541	13.02
302.754	11.03
302.967	11.27
303.18	13.98
303.393	16.46
303.607	13.43
303.82	14.94
304.033	15.79
304.246	16.06
304.459	18.29
304.672	17.49
304.885	17.83
305.098	21.12
305.311	20.99
305.524	20.93
305.737	18.98
305.95	21.42
306.163	22.11
306.376	22.89
306.589	20.44
306.802	19.32
307.015	19.23
307.228	17.55
307.44	15.42
307.653	15.5
307.866	15.65
308.079	17.24
308.292	16.09
308.505	13.64
308.718	12.69
308.93	16.58
309.143	16.32
309.356	16.3
309.569	15.96
309.781	16.89
309.994	17.42
310.207	17.51
310.42	18.55
310.632	20.94
310.845	20.5
311.058	20.22
311.27	17.34
311.483	14.97
311.696	14.78
311.908	15.62
312.121	13.77
312.333	14.31
312.546	14.13
312.759	13.94
312.971	12.86
313.184	12.67
313.396	12.4
313.609	13.16
313.821	14.26
314.034	14.45
314.246	12.82
314.459	14.67
314.671	12.2
314.884	12.01
315.096	11.76
315.309	9.68
315.521	11.46
315.733	10.97
315.946	11.02
316.158	13.79
316.371	13.47
316.583	12.97
316.795	11.13
317.008	10.84
317.22	12.41
317.432	10.43
317.644	12.13
317.857	10.78
318.069	10.58
318.281	9.96
318.494	11.14
318.706	12.96
318.918	15.51
319.13	15.13
319.342	15.49
319.555	13.05
319.767	11.32
319.979	9.74
320.191	10.95
320.403	14.28
320.615	15.51
320.827	14.62
321.039	13.08
321.252	11.91
321.464	14.57
321.676	16.26
321.888	15.26
322.1	18.28
322.312	17.96
322.524	17.42
322.736	13.21
322.948	15.03
323.16	14.07
323.372	14.45
323.584	13.11
323.796	12.39
324.007	11
324.219	14.05
324.431	15.98
324.643	17.77
324.855	18.53
325.067	19.85
325.279	18.03
325.491	17.84
325.702	18.79
325.914	21.58
326.126	22
326.338	21.7
326.55	21.11
326.761	19.45
326.973	18
327.185	17.6
327.396	17.24
327.608	17.87
327.82	17.1
328.032	16.05
328.243	14.7
328.455	13.3
328.666	14.21
328.878	14.04
329.09	13.89
329.301	16.06
329.513	17.56
329.725	18.4
329.936	19.21
330.148	20.02
330.359	20.75
330.571	19.29
330.782	18.54
330.994	18.45
331.205	18.24
331.417	17.64
331.628	16.64
331.84	17.14
332.051	18.4
332.262	19.26
332.474	19.35
332.685	18.16
332.897	20.71
333.108	22.24
333.319	20.83
333.531	20.73
333.742	21.57
333.953	19.66
334.165	17.9
334.376	16.93
334.587	14.21
334.799	15.54
335.01	15.42
335.221	15.76
335.432	15.62
335.644	17.42
335.855	17.54
336.066	16.83
336.277	19.05
336.488	18.85
336.7	18.22
336.911	20.86
337.122	19.72
337.333	18.76
337.544	17.47
337.755	18.63
337.966	18.27
338.177	19.13
338.388	19.25
338.599	19.17
338.811	17.87
339.022	18.52
339.233	16.91
339.444	17.93
339.655	18.76
339.866	20.22
340.076	19.57
340.287	19.56
340.498	18.74
340.709	18.61
340.92	18.43
341.131	20.58
341.342	20.84
341.553	21.22
341.764	21.89
341.975	21.88
342.185	20.81
342.396	20.18
342.607	20.35
342.818	19.96
343.029	19.55
343.239	18.99
343.45	17.47
343.661	17.68
343.872	17.27
344.082	16.53
344.293	17.54
344.504	17.91
344.714	19.27
344.925	19.31
345.136	19.14
345.346	20.26
345.557	20.55
345.768	22.17
345.978	23.16
346.189	23.08
346.399	22.79
346.61	22.85
346.821	23.46
347.031	22.42
347.242	22.07
347.452	21.59
347.663	20.07
347.873	19.92
348.084	18.83
348.294	18.06
348.504	16.65
348.715	16.69
348.925	15.64
349.136	14.94
349.346	14.61
349.557	14.21
349.767	15.22
349.977	16.77
350.188	16.8
350.398	16.64
350.608	15.82
350.819	15.72
351.029	16.2
351.239	16.27
351.449	14.98
351.66	15.18
351.87	14.85
352.08	14.71
352.29	14.84
352.501	13.71
352.711	13.38
352.921	14.74
353.131	16.42
353.341	15.28
353.552	16.06
353.762	16.08
353.972	15.85
354.182	16.83
354.392	17.62
354.602	17.28
354.812	17.78
355.022	18.32
355.232	17.89
355.442	17.59
355.652	18.68
355.862	18.21
356.072	19.13
356.282	19.57
356.492	19.53
356.702	19.09
356.912	18.98
357.122	19.36
357.332	19.26
357.542	18.76
357.752	18.73
357.962	17.93
358.171	19.58
358.381	18.97
358.591	19.38
358.801	18.88
359.011	19.54
359.221	19.99
359.43	19.7
359.64	20.34
359.85	19.93
360.06	20.09
360.269	20.48
360.479	18.9
360.689	19.45
360.899	18.46
361.108	18.78
361.318	17.53
361.528	17.28
361.737	17.94
361.947	17.56
362.156	17.79
362.366	17
362.576	16.96
362.785	17.85
362.995	17.58
363.204	16.86
363.414	16.91
363.623	18.31
363.833	17.03
364.042	17.22
364.252	16.73
364.461	16.44
364.671	17.39
364.88	17.24
365.09	16.44
365.299	16.51
365.509	16.93
365.718	16.96
365.927	14.86
366.137	16.49
366.346	14.44
366.555	14.47
366.765	15.21
366.974	14.37
367.183	13.59
367.393	13.82
367.602	14.27
367.811	15.81
368.021	15.53
368.23	16.91
368.439	16.27
368.648	17.64
368.857	18.9
369.067	18.65
369.276	18.94
369.485	19.4
369.694	19.24
369.903	18.17
370.112	16.96
370.321	16.28
370.531	17.35
370.74	16.84
370.949	16.75
371.158	16.39
371.367	16.7
371.576	17.65
371.785	18.27
371.994	18.75
372.203	19.64
372.412	20.25
372.621	21.03
372.83	19.86
373.039	20.41
373.248	20.08
373.457	19.5
373.666	19.32
373.874	18.39
374.083	17.88
374.292	17.32
374.501	16.67
374.71	16.02
374.919	15.69
375.128	15.75
375.336	15.63
375.545	15.51
375.754	15.24
375.963	14.43
376.171	14.82
376.38	15.03
376.589	14.34
376.798	14.93
377.006	15.29
377.215	15.13
377.424	14.8
377.632	14.89
377.841	14.64
378.05	14.4
378.258	14.77
378.467	14.13
378.675	13.16
378.884	13.45
379.093	12.7
379.301	12.16
379.51	11.61
379.718	11.48
379.927	11.06
380.135	12.07
380.344	11.86
380.552	10.85
380.761	11.34
380.969	11.31
381.177	11.23
381.386	11.31
381.594	11.1
381.803	10.84
382.011	10.71
382.219	10.92
382.428	10.54
382.636	10.95
382.845	11.58
383.053	11.16
383.261	11.07
383.469	10.95
383.678	10.79
383.886	11.26
384.094	12.07
384.302	12.39
384.511	12.58
384.719	11.95
384.927	11.85
385.135	12.3
385.343	12.58
385.552	12.42
385.76	12.69
385.968	12.23
386.176	12.13
386.384	11.75
386.592	11.14
386.8	11.12
387.008	11.1
387.216	11.12
387.424	10.92
387.633	10.35
387.841	10.41
388.049	10.27
388.257	10.67
388.465	11.23
388.672	11.58
388.88	11.89
389.088	11.42
389.296	11.62
389.504	11.82
389.712	11.58
389.92	11.77
390.128	11.87
390.336	11.76
390.544	11.73
390.751	11.33
390.959	10.48
391.167	10.44
391.375	10.3
391.583	10.14
391.79	10.35
391.998	10.37
392.206	10.35
392.414	10.47
392.621	10.08
392.829	10.19
393.037	10.16
393.244	10.58
393.452	10.44
393.66	10.72
393.867	10.99
394.075	10.54
394.283	10.51
394.49	10.68
394.698	10.9
394.905	11.07
395.113	11.16
395.32	10.75
395.528	10.77
395.735	10.85
395.943	10.82
396.15	10.76
396.358	10.65
396.565	10.39
396.773	10.28
396.98	9.84
397.188	10.15
397.395	9.86
397.602	10.12
397.81	10.12
398.017	10.09
398.225	10.14
398.432	9.82
398.639	10.01
398.847	10.16
399.054	9.79
399.261	9.7
399.468	9.36
399.676	9.3
399.883	9.48
400.09	9.52
400.297	9.29
400.505	9.2
400.712	9.6
400.919	9.53
401.126	9.83
401.333	10.06
401.54	10.09
401.748	10.19
401.955	10.37
402.162	10.19
402.369	10.08
402.576	10.46
402.783	10.45
402.99	10.06
403.197	10.02
403.404	10.03
403.611	10.25
403.818	10.3
404.025	10.29
404.232	10.58
404.439	10.52
404.646	10.68
404.853	10.73
405.06	10.75
405.267	10.61
405.474	10.6
405.681	10.43
405.887	10.05
406.094	9.86
406.301	9.95
406.508	9.39
406.715	9.44
406.922	9.04
407.128	8.65
407.335	8.32
407.542	8.48
407.749	8.24
407.955	8.13
408.162	7.95
408.369	7.97
408.575	8.41
408.782	8.61
408.989	8.59
409.195	8.88
409.402	8.7
409.609	8.91
409.815	9.28
410.022	9.8
410.228	9.96
410.435	10.1
410.642	10.28
410.848	9.6
411.055	9.6
411.261	9.63
411.468	9.55
411.674	9.83
411.881	9.57
412.087	9.32
412.294	8.66
412.5	8.5
412.706	9
412.913	8.83
413.119	9.08
413.326	8.51
413.532	8.32
413.738	8.2
413.945	8.47
414.151	8.68
414.357	8.39
414.564	8.84
414.77	8.72
414.976	8.35
415.182	8.79
415.389	8.73
415.595	9.26
415.801	9.18
416.007	9.35
416.214	9.05
416.42	8.88
416.626	9.15
416.832	9.17
417.038	9.27
417.244	9.37
417.45	9.05
417.657	8.79
417.863	8.95
418.069	9
418.275	8.83
418.481	8.87
418.687	9.02
418.893	9.15
419.099	9.06
419.305	9.01
419.511	8.89
419.717	8.95
419.923	9.11
420.129	9.03
420.335	9.24
420.541	9.13
420.746	9.08
420.952	9.07
421.158	8.95
421.364	9.04
421.57	9.1
421.776	9.28
421.982	9.18
422.187	9.21
422.393	9.14
422.599	9.05
422.805	9.39
423.01	9.58
423.216	9.45
423.422	9.38
423.628	9.25
423.833	9.29
424.039	9.12
424.245	9.33
424.45	9.25
424.656	9.16
424.862	9.07
425.067	8.96
425.273	8.74
425.478	8.91
425.684	8.98
425.889	8.93
426.095	8.85
426.301	8.83
426.506	8.63
426.712	8.54
426.917	8.63
427.123	8.56
427.328	8.51
427.533	8.65
427.739	8.71
427.944	8.58
428.15	8.69
428.355	8.59
428.561	8.83
428.766	8.72
428.971	8.91
429.177	9.04
429.382	8.99
429.587	8.88
429.793	8.96
429.998	8.75
430.203	8.73
430.408	8.51
430.614	8.51
430.819	8.56
431.024	8.9
431.229	8.79
431.434	8.59
431.64	8.66
431.845	8.88
432.05	8.8
432.255	8.7
432.46	8.63
432.665	8.53
432.87	8.64
433.076	8.37
433.281	8.17
433.486	8.34
433.691	8.31
433.896	8.32
434.101	7.98
434.306	7.82
434.511	7.9
434.716	7.87
434.921	8.12
435.126	8.1
435.331	8.14
435.535	8.22
435.74	8.11
435.945	8.21
436.15	8.14
436.355	8.19
436.56	8.45
436.765	8.52
436.97	8.77
437.174	8.81
437.379	8.77
437.584	8.73
437.789	8.62
437.993	8.63
438.198	8.57
438.403	8.83
438.608	8.95
438.812	8.9
439.017	8.81
439.222	8.77
439.426	8.72
439.631	8.78
439.836	8.84
440.04	8.73
440.245	8.94
440.45	9.06
440.654	8.7
440.859	8.79
441.063	8.69
441.268	8.73
441.472	8.74
441.677	8.69
441.881	8.53
442.086	8.56
442.29	8.77
442.495	8.43
442.699	8.46
442.904	8.77
443.108	8.62
443.312	8.52
443.517	8.49
443.721	8.55
443.925	8.66
444.13	8.83
444.334	8.55
444.538	8.5
444.743	8.57
444.947	8.55
445.151	8.31
445.356	8.27
445.56	8.3
445.764	8.43
445.968	8.24
446.173	8.19
446.377	8.14
446.581	8.2
446.785	8.12
446.989	8.13
447.193	7.99
447.398	8.01
447.602	8.14
447.806	8.14
448.01	8.06
448.214	7.97
448.418	7.98
448.622	8.11
448.826	8.03
449.03	8
449.234	7.9
449.438	7.86
449.642	7.74
449.846	7.46
450.05	7.48
450.254	7.17
450.458	7.29
450.662	7.38
450.866	7.16
451.069	7.47
451.273	7.6
451.477	7.86
451.681	8.16
451.885	8.35
452.089	8.63
452.292	8.48
452.496	8.78
452.7	8.9
452.904	8.75
453.107	8.68
453.311	8.64
453.515	8.7
453.719	8.44
453.922	8.26
454.126	8.24
454.33	8.35
454.533	8.37
454.737	8.4
454.94	8.44
455.144	8.43
455.348	8.42
455.551	8.19
455.755	8.07
455.958	8.19
456.162	8.31
456.365	8.3
456.569	8.01
456.772	8.25
456.976	8.13
457.179	8.02
457.383	7.82
457.586	7.85
457.79	8.03
457.993	7.93
458.196	7.91
458.4	7.8
458.603	7.74
458.807	7.86
459.01	7.68
459.213	7.76
459.417	7.73
