Data from 2937861_Reflection_3.txt Node
Date: Wed Jul 15 15:25:08 EDT 2015
User: robert
Spectrometer: USB4E03001
Autoset integration time: false
Trigger mode: 4
Integration Time (sec): 1.000000E-1
Scans to average: 10
Electric dark correction enabled: true
Nonlinearity correction enabled: false
Boxcar width: 5
Stray light correction enabled: false
XAxis mode: Wavelengths
Stop averaging: false
Number of Pixels in Spectrum: 3648
>>>>>Begin Spectral Data<<<<<
177.566	-40.75
177.785	-24.24
178.005	-101.02
178.225	-17.88
178.445	-184.78
178.665	-294.13
178.885	635.56
179.105	405.19
179.324	245.73
179.544	-132.17
179.764	-121.82
179.984	-33.06
180.204	-18.13
180.423	-80.54
180.643	-83.03
180.863	-119.2
181.083	-200.97
181.302	-172.1
181.522	-144.66
181.742	-117.74
181.961	-215.48
182.181	-240.29
182.401	-418.3
182.621	-226.06
182.84	-215.36
183.06	-161.52
183.279	-114.77
183.499	-49.95
183.719	-76.96
183.938	-2.04
184.158	-16.04
184.377	-12.48
184.597	68.68
184.816	72.62
185.036	71.24
185.256	58.45
185.475	92.52
185.695	30.61
185.914	69.81
186.134	76.33
186.353	-61.11
186.572	-26.64
186.792	64.14
187.011	-11.17
187.231	-14.6
187.45	-4.65
187.67	-3.09
187.889	-3.13
188.108	-0.98
188.328	14.52
188.547	18.72
188.766	2.45
188.986	-37.42
189.205	-57.63
189.424	-99.31
189.644	-299.27
189.863	-590.83
190.082	-1674.5
190.302	5466.05
190.521	-468.6
190.74	-322.83
190.959	-549.25
191.178	-355.2
191.398	-308.7
191.617	-329.48
191.836	-306.5
192.055	-229.66
192.274	-133.74
192.494	-84.63
192.713	-72.9
192.932	-56.42
193.151	-83.12
193.37	-18.9
193.589	-1583.64
193.808	-587.27
194.027	-856.03
194.246	-134.09
194.465	-7.97
194.685	-120.71
194.904	-58.12
195.123	-14.78
195.342	-69.99
195.561	-97.96
195.78	-117.51
195.999	-47.01
196.218	-29.31
196.436	-43.5
196.655	-52.51
196.874	-50.77
197.093	-37.99
197.312	-35.04
197.531	-71.94
197.75	-50.97
197.969	-20.77
198.188	4.03
198.407	20.1
198.625	-2.74
198.844	-34.53
199.063	-162.5
199.282	-152.39
199.501	-76.68
199.719	-265.87
199.938	-72.68
200.157	-33.05
200.376	-26.75
200.594	-36.21
200.813	-121.96
201.032	-63.57
201.251	-56.14
201.469	-52.59
201.688	-42.73
201.907	-85.42
202.125	-68.71
202.344	-107.04
202.563	-217.6
202.781	-892.35
203	-525.24
203.218	-542.64
203.437	40495
203.656	3409.13
203.874	-726.38
204.093	-672.09
204.311	-208.84
204.53	-440.4
204.748	-130.35
204.967	-150.19
205.185	-97.51
205.404	-101.35
205.622	-49.32
205.841	-64.56
206.059	-59.32
206.278	-17.65
206.496	-25.93
206.715	-3.39
206.933	27.01
207.151	19.82
207.37	45.4
207.588	41.9
207.806	49.16
208.025	20.97
208.243	-0.14
208.461	26.61
208.68	18.45
208.898	25.14
209.116	10.74
209.335	-18.95
209.553	-28.62
209.771	-44.64
209.989	-65.91
210.208	-90.73
210.426	-107.56
210.644	-83.09
210.862	-77.01
211.081	-75.45
211.299	-73.06
211.517	-17.83
211.735	-6.38
211.953	-0.51
212.171	12.15
212.39	17.58
212.608	7.37
212.826	9.55
213.044	19.4
213.262	6.36
213.48	14.73
213.698	16.25
213.916	-14.12
214.134	-5.21
214.352	2.94
214.57	-15.47
214.788	-12.05
215.006	2.35
215.224	0.46
215.442	-18.63
215.66	-32.6
215.878	-36.17
216.096	-59.81
216.314	-30.32
216.532	-28.07
216.75	-32.53
216.968	-28.25
217.185	-29.65
217.403	-55.45
217.621	-93.17
217.839	-154.67
218.057	-153.93
218.275	-129.71
218.492	-95.67
218.71	-185.17
218.928	-400.08
219.146	-311.52
219.363	-228.99
219.581	-119.81
219.799	-68.48
220.017	-45.24
220.234	-36
220.452	-47.25
220.67	-46.26
220.887	-44.64
221.105	-35.45
221.323	-42.27
221.54	-32.32
221.758	-45.16
221.976	-77.36
222.193	-71.85
222.411	-52.63
222.629	-31.19
222.846	-17.58
223.064	-22.77
223.281	-19.79
223.499	-15.31
223.716	7.19
223.934	-0.94
224.151	-6.1
224.369	3.47
224.586	0.89
224.804	-2.87
225.021	-3.22
225.239	-9.13
225.456	2.48
225.674	14.43
225.891	22.52
226.108	15.07
226.326	9.11
226.543	10
226.76	12.15
226.978	11.26
227.195	13.91
227.413	6.4
227.63	5.9
227.847	6.2
228.064	1.97
228.282	-2.29
228.499	-4.04
228.716	-0.47
228.934	0.44
229.151	0.34
229.368	-0.58
229.585	-0.82
229.802	-0.14
230.02	-0.43
230.237	-4.44
230.454	-5.33
230.671	-9.14
230.888	-7.26
231.105	-7.99
231.323	-12.25
231.54	-13.98
231.757	-17.86
231.974	-23.75
232.191	-24.53
232.408	-27.98
232.625	-20.51
232.842	-22.18
233.059	-11.16
233.276	-15.67
233.493	-13.26
233.71	-10.89
233.927	-11.86
234.144	-9.41
234.361	-8.88
234.578	-8.4
234.795	-6.02
235.012	-8.37
235.229	-8.57
235.446	-18.44
235.663	-14.11
235.879	-13.78
236.096	-8.09
236.313	-7.21
236.53	-8.27
236.747	-7.25
236.964	-5.66
237.181	-5.33
237.397	-5.92
237.614	2.26
237.831	10.4
238.048	12.4
238.264	14.22
238.481	11.07
238.698	13.43
238.915	15.59
239.131	13.51
239.348	12.54
239.565	13.54
239.781	13.43
239.998	6.36
240.215	0.85
240.431	0.11
240.648	-0.91
240.865	-0.59
241.081	0.72
241.298	1.44
241.514	3.22
241.731	5.74
241.947	4
242.164	4.96
242.38	5.13
242.597	5.37
242.814	4.62
243.03	5.12
243.246	6.17
243.463	5.58
243.679	5.28
243.896	5.77
244.112	3.07
244.329	3.33
244.545	3.83
244.762	5.2
244.978	6.58
245.194	6.8
245.411	9.33
245.627	7.23
245.843	7.04
246.06	7.66
246.276	8.02
246.492	8.66
246.709	8.23
246.925	7.47
247.141	7.51
247.357	7.29
247.574	7.12
247.79	6.62
248.006	7.33
248.222	7.48
248.439	6.53
248.655	6.2
248.871	5.98
249.087	7.38
249.303	7.46
249.519	7.27
249.736	7.25
249.952	7.07
250.168	7.16
250.384	6.53
250.6	4.31
250.816	6.64
251.032	5.99
251.248	6.06
251.464	3.99
251.68	2.24
251.896	0.96
252.112	0.38
252.328	2.27
252.544	2.9
252.76	2.85
252.976	4.27
253.192	4.07
253.408	3.36
253.624	1.54
253.84	2.41
254.056	3.81
254.272	1.94
254.487	3.07
254.703	-0.26
254.919	-3.71
255.135	-4.18
255.351	-4.76
255.567	-4.73
255.782	-3.93
255.998	-1.43
256.214	-2.41
256.43	-1.08
256.646	2.95
256.861	5.36
257.077	6.68
257.293	8.22
257.508	8.11
257.724	6.03
257.94	4.39
258.155	3.59
258.371	4.27
258.587	5.67
258.802	5.25
259.018	3.64
259.234	2.57
259.449	3.76
259.665	3.07
259.88	3.24
260.096	3.91
260.312	4.64
260.527	4.54
260.743	4.15
260.958	3.3
261.174	2.9
261.389	3.74
261.605	3.72
261.82	1.55
262.036	1.95
262.251	1.14
262.466	0.83
262.682	0.42
262.897	0.41
263.113	0.42
263.328	0.48
263.543	2.51
263.759	1.43
263.974	1.41
264.189	3.41
264.405	1.52
264.62	2.14
264.835	2.42
265.051	-0.36
265.266	1.54
265.481	1.51
265.696	2.75
265.912	-0.49
266.127	0.3
266.342	1.23
266.557	2.11
266.773	2.67
266.988	3.97
267.203	5.06
267.418	5.65
267.633	4.38
267.848	4.56
268.064	4.44
268.279	5.32
268.494	5.98
268.709	6.1
268.924	5.53
269.139	6.43
269.354	4.57
269.569	3.03
269.784	3.29
269.999	3.61
270.214	2.76
270.429	2.84
270.644	2.52
270.859	1.47
271.074	0.76
271.289	-0.03
271.504	-0.6
271.719	0.24
271.934	-1
272.149	0.02
272.363	0.06
272.578	0.28
272.793	-0.65
273.008	-0.18
273.223	0.04
273.438	-0.06
273.653	1.09
273.867	1.43
274.082	0.88
274.297	1.27
274.512	-0.76
274.726	-0.73
274.941	-0.46
275.156	0.57
275.371	0.81
275.585	0.67
275.8	1.3
276.015	0.11
276.229	0.07
276.444	0.14
276.659	1.8
276.873	2.49
277.088	1.76
277.302	-0.35
277.517	-1.92
277.732	-2.7
277.946	-2.5
278.161	-1.31
278.375	1.19
278.59	1.05
278.804	-0.43
279.019	0.02
279.233	2.96
279.448	2.26
279.662	3.5
279.877	3.33
280.091	4.06
280.306	4.68
280.52	1.44
280.735	-1.5
280.949	-1.18
281.163	0.77
281.378	-0.07
281.592	-2.77
281.806	-2.38
282.021	-1.58
282.235	-0.03
282.449	-0.15
282.664	-2.27
282.878	0.11
283.092	2.1
283.307	1.69
283.521	0.6
283.735	1.27
283.949	1.77
284.164	2.19
284.378	1.72
284.592	1.17
284.806	0.33
285.02	3.2
285.234	2.22
285.449	2.26
285.663	2.68
285.877	4.21
286.091	4.03
286.305	5.02
286.519	5.07
286.733	5.33
286.947	5.11
287.161	6.58
287.375	4.91
287.589	5.42
287.803	3.94
288.017	4.18
288.231	4.09
288.445	4.13
288.659	3.21
288.873	4.04
289.087	4.64
289.301	5.75
289.515	4.07
289.729	5.13
289.943	3.64
290.157	4.55
290.371	4.21
290.584	3.55
290.798	3.17
291.012	2.82
291.226	2.34
291.44	1.19
291.654	0.8
291.867	1.96
292.081	1.88
292.295	2.27
292.509	3.15
292.722	2.08
292.936	1.88
293.15	1.9
293.364	2.57
293.577	1.42
293.791	2.27
294.005	1.6
294.218	0.16
294.432	-0.27
294.645	-0.01
294.859	-1.41
295.073	-0.7
295.286	1.11
295.5	2.73
295.713	2.38
295.927	4.54
296.14	4.43
296.354	4.12
296.568	5.31
296.781	5.72
296.994	6.38
297.208	7.28
297.421	7.72
297.635	7.09
297.848	6.08
298.062	5.75
298.275	3.89
298.489	4.8
298.702	4.89
298.915	4.84
299.129	4.08
299.342	3.62
299.555	2.61
299.769	2.37
299.982	2.86
300.195	2.9
300.409	3.44
300.622	3.76
300.835	3.92
301.048	5.3
301.262	4.62
301.475	5.56
301.688	5.95
301.901	7.08
302.115	6.26
302.328	4.74
302.541	4.75
302.754	5.27
302.967	6.24
303.18	5.4
303.393	3.97
303.607	4.14
303.82	4.32
304.033	4.49
304.246	2.99
304.459	3.25
304.672	4.75
304.885	6.3
305.098	5.29
305.311	5.94
305.524	7.04
305.737	7.47
305.95	6.53
306.163	6.18
306.376	7.47
306.589	8.69
306.802	9.01
307.015	7.91
307.228	6.03
307.44	6.55
307.653	5.28
307.866	4.15
308.079	4.79
308.292	5.73
308.505	5.21
308.718	4.98
308.93	5.51
309.143	5.88
309.356	7.38
309.569	8.74
309.781	8.96
309.994	10.02
310.207	11.06
310.42	11.48
310.632	11.69
310.845	11.95
311.058	11.5
311.27	11.18
311.483	11.36
311.696	9.96
311.908	8.95
312.121	8.98
312.333	8.33
312.546	7.16
312.759	6.29
312.971	5.08
313.184	5.38
313.396	4.75
313.609	5.59
313.821	5.69
314.034	7.68
314.246	8.18
314.459	8.41
314.671	8.73
314.884	10.31
315.096	11.43
315.309	12.31
315.521	11.73
315.733	12.5
315.946	12.27
316.158	13.81
316.371	13.66
316.583	13.88
316.795	13.01
317.008	13.06
317.22	11.71
317.432	10.26
317.644	10.69
317.857	12.36
318.069	12.31
318.281	12.41
318.494	10.64
318.706	10.68
318.918	9.52
319.13	10.15
319.342	8.16
319.555	8.26
319.767	7.59
319.979	7.99
320.191	6.64
320.403	4.72
320.615	3.76
320.827	3.1
321.039	1.68
321.252	2.52
321.464	2.58
321.676	5.7
321.888	6.2
322.1	7.92
322.312	6.62
322.524	5.99
322.736	8.74
322.948	8.98
323.16	10.33
323.372	11.95
323.584	11.88
323.796	12.92
324.007	12.78
324.219	11.61
324.431	11.69
324.643	12.4
324.855	13.18
325.067	12.77
325.279	13.36
325.491	13.16
325.702	12.67
325.914	13.18
326.126	13.84
326.338	15.01
326.55	15.77
326.761	15.33
326.973	16.88
327.185	17.23
327.396	17.42
327.608	17.8
327.82	18.89
328.032	18.58
328.243	18.89
328.455	17.23
328.666	16.13
328.878	16.05
329.09	17.44
329.301	16.6
329.513	17.86
329.725	19.08
329.936	19.77
330.148	20.29
330.359	20.23
330.571	21.57
330.782	23.56
330.994	24.92
331.205	26.64
331.417	26.65
331.628	26.25
331.84	25.48
332.051	25.53
332.262	25.59
332.474	25.82
332.685	26.28
332.897	26.59
333.108	27.61
333.319	26.15
333.531	26.77
333.742	26.85
333.953	27.24
334.165	27.37
334.376	28.02
334.587	28.63
334.799	28.05
335.01	30.03
335.221	29.38
335.432	28.6
335.644	30.02
335.855	30.03
336.066	30.35
336.277	29.77
336.488	29.86
336.7	29.53
336.911	29.32
337.122	30.44
337.333	30.03
337.544	31.08
337.755	30.67
337.966	30.68
338.177	30.44
338.388	30.85
338.599	32.38
338.811	32.67
339.022	32.31
339.233	32.95
339.444	32.21
339.655	32.46
339.866	32.5
340.076	32.88
340.287	33.51
340.498	32.82
340.709	32.46
340.92	32.64
341.131	33.42
341.342	34.59
341.553	33.74
341.764	34.54
341.975	33.57
342.185	33.68
342.396	32.85
342.607	32.24
342.818	33.77
343.029	35.34
343.239	35.32
343.45	35.02
343.661	34.32
343.872	35
344.082	34.89
344.293	34.56
344.504	33.68
344.714	35.83
344.925	36.84
345.136	36.44
345.346	35.34
345.557	35.69
345.768	35.82
345.978	36.03
346.189	36.07
346.399	35.55
346.61	36.98
346.821	37.61
347.031	36.33
347.242	35.52
347.452	35.27
347.663	36.11
347.873	35.89
348.084	35.57
348.294	35.73
348.504	35.5
348.715	35.8
348.925	35.58
349.136	35.46
349.346	35.14
349.557	34.87
349.767	34.82
349.977	35
350.188	36.36
350.398	36.41
350.608	36.42
350.819	36.4
351.029	36.41
351.239	36.36
351.449	36.92
351.66	38.52
351.87	39.33
352.08	40.07
352.29	39.4
352.501	38.06
352.711	38.85
352.921	38.51
353.131	38.66
353.341	37.82
353.552	37.08
353.762	36.7
353.972	36.18
354.182	35.88
354.392	35.56
354.602	35.08
354.812	34.62
355.022	34.35
355.232	34.25
355.442	33.92
355.652	34.44
355.862	34.81
356.072	34.53
356.282	34.15
356.492	34.58
356.702	34.86
356.912	35.01
357.122	35.71
357.332	35.53
357.542	36.19
357.752	36.44
357.962	37.08
358.171	36.83
358.381	36.96
358.591	37.75
358.801	37.5
359.011	37.25
359.221	37.72
359.43	37.46
359.64	37.73
359.85	37.34
360.06	37.21
360.269	36.95
360.479	36.99
360.689	37.23
360.899	37.21
361.108	37.28
361.318	36.87
361.528	36.41
361.737	36.65
361.947	36.56
362.156	37.07
362.366	37.19
362.576	37.07
362.785	37.06
362.995	36.98
363.204	37.15
363.414	36.91
363.623	37.51
363.833	37.29
364.042	37.18
364.252	36.79
364.461	35.69
364.671	35.68
364.88	35.54
365.09	36.31
365.299	36.77
365.509	35.95
365.718	36
365.927	35.58
366.137	36.76
366.346	36.5
366.555	37.4
366.765	37.43
366.974	36.62
367.183	37.73
367.393	37.01
367.602	35.97
367.811	35.81
368.021	36.01
368.23	35.68
368.439	34.87
368.648	34.93
368.857	33.98
369.067	34.01
369.276	35
369.485	32.95
369.694	32.84
369.903	33.24
370.112	33.31
370.321	33.17
370.531	33.73
370.74	33.58
370.949	33.41
371.158	33.16
371.367	33.37
371.576	33.14
371.785	33.51
371.994	33.35
372.203	33.12
372.412	33.63
372.621	33.77
372.83	33.27
373.039	33.68
373.248	33.5
373.457	33.77
373.666	33.61
373.874	33.52
374.083	33.83
374.292	33.66
374.501	33.95
374.71	33.48
374.919	32.66
375.128	32.96
375.336	32.27
375.545	32.34
375.754	32.23
375.963	31.93
376.171	31.91
376.38	32.22
376.589	32.34
376.798	32.17
377.006	31.95
377.215	31.69
377.424	31.6
377.632	31.57
377.841	31.83
378.05	31.44
378.258	31.32
378.467	31.5
378.675	30.92
378.884	31.34
379.093	31.28
379.301	31.39
379.51	31.59
379.718	31.37
379.927	31.87
380.135	31.7
380.344	31.84
380.552	32.16
380.761	31.45
380.969	31.78
381.177	30.99
381.386	30.86
381.594	30.44
381.803	31.14
382.011	31.27
382.219	31.18
382.428	30.52
382.636	30.71
382.845	30.19
383.053	30.57
383.261	30.78
383.469	31.03
383.678	31.14
383.886	31.08
384.094	30.49
384.302	29.97
384.511	29.7
384.719	29.6
384.927	29.54
385.135	30.12
385.343	29.72
385.552	28.97
385.76	28.57
385.968	28.35
386.176	28.29
386.384	27.98
386.592	28.37
386.8	28.36
387.008	28.59
387.216	28.16
387.424	27.79
387.633	27.88
387.841	28.01
388.049	28.36
388.257	28.51
388.465	28.27
388.672	28.67
388.88	28.09
389.088	27.59
389.296	27.72
389.504	27.78
389.712	27.71
389.92	27.4
390.128	27.38
390.336	27.18
390.544	27.12
390.751	27.11
390.959	26.75
391.167	27.4
391.375	27.66
391.583	27.26
391.79	27.28
391.998	27.22
392.206	27.31
392.414	27.4
392.621	27.19
392.829	26.96
393.037	27.12
393.244	27.33
393.452	26.78
393.66	26.76
393.867	26.88
394.075	27.04
394.283	27.16
394.49	27.23
394.698	27.26
394.905	27.42
395.113	27.47
395.32	27.62
395.528	27.4
395.735	27.3
395.943	27.52
396.15	27.68
396.358	27.44
396.565	27.3
396.773	27.37
396.98	27.48
397.188	27.75
397.395	27.85
397.602	27.52
397.81	27.66
398.017	27.94
398.225	27.6
398.432	27.51
398.639	27.69
398.847	27.65
399.054	27.84
399.261	27.82
399.468	27.36
399.676	27.32
399.883	27.68
400.09	27.6
400.297	28.1
400.505	27.85
400.712	27.81
400.919	28.31
401.126	28.69
401.333	28.2
401.54	28.08
401.748	28.22
401.955	28.09
402.162	27.91
402.369	27.81
402.576	27.54
402.783	28.1
402.99	28.28
403.197	27.97
403.404	27.96
403.611	28.33
403.818	28.13
404.025	28.14
404.232	28.26
404.439	28.37
404.646	28.53
404.853	28.37
405.06	28.38
405.267	28.48
405.474	28.53
405.681	28.33
405.887	28.26
406.094	28.41
406.301	28.37
406.508	28.02
406.715	28.13
406.922	28.2
407.128	28.17
407.335	28.13
407.542	27.77
407.749	27.71
407.955	27.71
408.162	27.73
408.369	27.82
408.575	27.95
408.782	28.27
408.989	27.74
409.195	27.54
409.402	27.88
409.609	27.75
409.815	27.98
410.022	27.71
410.228	27.93
410.435	27.89
410.642	27.94
410.848	28.06
411.055	28.09
411.261	28.41
411.468	28.23
411.674	28.06
411.881	27.85
412.087	27.7
412.294	27.89
412.5	27.84
412.706	27.86
412.913	27.91
413.119	27.78
413.326	28.06
413.532	27.97
413.738	28.18
413.945	28.13
414.151	28.27
414.357	28.46
414.564	28.44
414.77	28.68
414.976	28.62
415.182	28.24
415.389	28.18
415.595	27.93
415.801	27.89
416.007	28.2
416.214	28.22
416.42	28.2
416.626	27.96
416.832	27.79
417.038	27.63
417.244	27.35
417.45	27.58
417.657	27.36
417.863	27.23
418.069	27.24
418.275	26.94
418.481	26.78
418.687	26.92
418.893	27.2
419.099	27.26
419.305	27.21
419.511	27.4
419.717	27.27
419.923	27.4
420.129	27.42
420.335	27.39
420.541	27.34
420.746	27.31
420.952	27.2
421.158	26.99
421.364	26.87
421.57	26.75
421.776	26.85
421.982	26.86
422.187	26.69
422.393	26.6
422.599	26.62
422.805	26.52
423.01	26.53
423.216	26.56
423.422	26.49
423.628	26.49
423.833	26.37
424.039	26.31
424.245	26.26
424.45	26.4
424.656	26.46
424.862	26.43
425.067	26.59
425.273	26.68
425.478	26.75
425.684	26.85
425.889	27
426.095	27.09
426.301	27.02
426.506	26.99
426.712	26.98
426.917	27.16
427.123	27.06
427.328	27.02
427.533	26.82
427.739	26.67
427.944	26.63
428.15	26.58
428.355	26.61
428.561	26.51
428.766	26.43
428.971	26.5
429.177	26.26
429.382	26.27
429.587	26.01
429.793	26.16
429.998	26.03
430.203	26.14
430.408	26.14
430.614	26.1
430.819	26.1
431.024	25.89
431.229	25.65
431.434	25.69
431.64	25.8
431.845	25.97
432.05	25.87
432.255	25.94
432.46	25.96
432.665	25.85
432.87	25.8
433.076	25.99
433.281	26.21
433.486	26.27
433.691	26.47
433.896	26.52
434.101	26.6
434.306	26.69
434.511	26.62
434.716	26.49
434.921	26.41
435.126	26.55
435.331	26.24
435.535	26.11
435.74	26.26
435.945	26.13
436.15	25.86
436.355	25.79
436.56	25.71
436.765	25.95
436.97	25.96
437.174	26.15
437.379	26.12
437.584	26.26
437.789	26.35
437.993	26.22
438.198	26.02
438.403	26.06
438.608	26.08
438.812	26.05
439.017	25.86
439.222	25.83
439.426	25.58
439.631	25.67
439.836	25.54
440.04	25.65
440.245	25.66
440.45	25.61
440.654	25.83
440.859	25.8
441.063	25.79
441.268	25.84
441.472	25.87
441.677	25.98
441.881	25.86
442.086	25.92
442.29	25.75
442.495	25.82
442.699	25.93
442.904	25.81
443.108	25.77
443.312	25.86
443.517	25.8
443.721	25.74
443.925	25.83
444.13	25.77
444.334	25.99
444.538	26.14
444.743	25.93
444.947	25.83
445.151	25.68
445.356	25.59
445.56	25.42
445.764	25.53
445.968	25.58
446.173	25.46
446.377	25.6
446.581	25.57
446.785	25.5
446.989	25.62
447.193	25.54
447.398	25.62
447.602	25.74
447.806	25.81
448.01	25.71
448.214	25.71
448.418	25.74
448.622	25.52
448.826	25.43
449.03	25.28
449.234	25.24
449.438	25.35
449.642	25.21
449.846	25.24
450.05	25.28
450.254	25.03
450.458	24.96
450.662	25.09
450.866	25.15
451.069	24.96
451.273	25
451.477	24.98
451.681	24.95
451.885	25.15
452.089	24.94
452.292	24.85
452.496	25.23
452.7	25.33
452.904	25.14
453.107	25.31
453.311	25.37
453.515	25.44
453.719	25.37
453.922	25.5
454.126	25.51
454.33	25.53
454.533	25.59
454.737	25.34
454.94	25.29
455.144	25.34
455.348	25.21
455.551	25.31
455.755	25.09
455.958	25.11
456.162	24.95
456.365	24.9
456.569	25.09
456.772	25.09
456.976	25
457.179	25.03
457.383	25.1
457.586	24.99
457.79	25.03
457.993	25.31
458.196	25.29
458.4	25.34
458.603	25.35
