Data from 2937862_Reflection_2.txt Node
Date: Wed Jul 15 15:22:20 EDT 2015
User: robert
Spectrometer: USB4E03001
Autoset integration time: false
Trigger mode: 4
Integration Time (sec): 1.000000E-1
Scans to average: 10
Electric dark correction enabled: true
Nonlinearity correction enabled: false
Boxcar width: 5
Stray light correction enabled: false
XAxis mode: Wavelengths
Stop averaging: false
Number of Pixels in Spectrum: 3648
>>>>>Begin Spectral Data<<<<<
177.566	34.49
177.785	17.12
178.005	903.88
178.225	-555.25
178.445	305.16
178.665	133
178.885	96.72
179.105	27.7
179.324	49.69
179.544	88.17
179.764	56.58
179.984	48.65
180.204	24.63
180.423	-67.61
180.643	-95.4
180.863	-367.76
181.083	-123.02
181.302	-83.81
181.522	12.89
181.742	-84.53
181.961	-114.08
182.181	-98.62
182.401	-67.17
182.621	-46.69
182.84	-44.52
183.06	-33.85
183.279	15.87
183.499	11.52
183.719	47.98
183.938	33.25
184.158	51.22
184.377	31
184.597	50.48
184.816	49.58
185.036	77.79
185.256	81.55
185.475	68.26
185.695	43.49
185.914	52.21
186.134	18.66
186.353	15.34
186.572	31.21
186.792	-2.65
187.011	312.84
187.231	1270.21
187.45	-155.18
187.67	-25.31
187.889	-9.94
188.108	-36.14
188.328	-97.64
188.547	-36.48
188.766	-3.32
188.986	-9.44
189.205	6.53
189.424	22.72
189.644	37.5
189.863	24.05
190.082	-3.49
190.302	-47.69
190.521	-33.87
190.74	-32.62
190.959	-14.12
191.178	-25.36
191.398	-35.24
191.617	-63.38
191.836	-73.07
192.055	-206.34
192.274	-69.29
192.494	-1555.81
192.713	-113.89
192.932	-198.2
193.151	-90.67
193.37	170.37
193.589	143.47
193.808	15.69
194.027	124.27
194.246	90.61
194.465	88.31
194.685	20.09
194.904	-24.77
195.123	-112.22
195.342	-110.01
195.561	-1077.6
195.78	-248.9
195.999	-202.51
196.218	-506.56
196.436	-2094.3
196.655	-278.17
196.874	-456.01
197.093	-247.76
197.312	-26.52
197.531	68.14
197.75	89.42
197.969	118.63
198.188	85.62
198.407	104.58
198.625	127.48
198.844	97.02
199.063	68.56
199.282	7260
199.501	205.22
199.719	56.9
199.938	-190.52
200.157	-463.42
200.376	-247.9
200.594	-185.61
200.813	-284.16
201.032	-197.81
201.251	-191.75
201.469	-84.99
201.688	-61.92
201.907	-91.71
202.125	-100.17
202.344	-35.05
202.563	-18.02
202.781	13.96
203	23.38
203.218	49.08
203.437	47
203.656	49.2
203.874	58.87
204.093	80.95
204.311	82.89
204.53	82.09
204.748	56.28
204.967	65.98
205.185	26.25
205.404	-28.39
205.622	-93.27
205.841	17.8
206.059	7.77
206.278	-106.5
206.496	135.25
206.715	462.11
206.933	195.87
207.151	315.12
207.37	586.94
207.588	337.31
207.806	-778.23
208.025	26021.05
208.243	957.77
208.461	-212
208.68	-154.76
208.898	-104.02
209.116	-96.94
209.335	16.94
209.553	50.86
209.771	31.55
209.989	56.51
210.208	90.29
210.426	55.27
210.644	73.66
210.862	32.9
211.081	27.17
211.299	45.81
211.517	44.62
211.735	2.58
211.953	19.43
212.171	25.86
212.39	-134.52
212.608	-165.46
212.826	-179.58
213.044	-121.1
213.262	-285.13
213.48	-198.61
213.698	-997.99
213.916	-492.87
214.134	-225.2
214.352	-337.32
214.57	-200.1
214.788	-30.92
215.006	-17.41
215.224	-99.63
215.442	-158.62
215.66	-87.47
215.878	-105.74
216.096	-133
216.314	-143.96
216.532	-84.27
216.75	-91.73
216.968	-104.04
217.185	-64.28
217.403	-82.14
217.621	-5.66
217.839	5.36
218.057	3.85
218.275	-21.41
218.492	-3.05
218.71	0.79
218.928	4.85
219.146	-4.84
219.363	7.04
219.581	-14.6
219.799	-10.49
220.017	-89
220.234	-110.03
220.452	-64.89
220.67	-53.2
220.887	-59.27
221.105	-73.21
221.323	-83.25
221.54	-72.44
221.758	-114.24
221.976	-143.72
222.193	-87.8
222.411	-54.17
222.629	-40.19
222.846	-48.07
223.064	-43.33
223.281	-38.89
223.499	-23.95
223.716	-25.93
223.934	-33.72
224.151	-69.63
224.369	-77.58
224.586	-88.61
224.804	-187.03
225.021	-131.78
225.239	-139.99
225.456	-61.13
225.674	-48.35
225.891	-12.21
226.108	7.73
226.326	7.95
226.543	22.5
226.76	22.41
226.978	10.6
227.195	3.14
227.413	2.41
227.63	6.51
227.847	7.11
228.064	11
228.282	3.07
228.499	-2
228.716	5.14
228.934	8.74
229.151	11
229.368	15.4
229.585	18.53
229.802	18.05
230.02	19.04
230.237	19.89
230.454	19.29
230.671	21.69
230.888	24.66
231.105	20.84
231.323	21.22
231.54	18.69
231.757	17.03
231.974	14.29
232.191	12.84
232.408	11.86
232.625	3.53
232.842	-0.09
233.059	4.97
233.276	5.29
233.493	-1.77
233.71	-3.76
233.927	1.55
234.144	1.98
234.361	5.94
234.578	9.45
234.795	7.39
235.012	16.88
235.229	20.43
235.446	22.78
235.663	23.4
235.879	24.9
236.096	16.28
236.313	13.28
236.53	6.26
236.747	4.09
236.964	-2.33
237.181	3.43
237.397	-0.84
237.614	-10.23
237.831	-13.32
238.048	-8.56
238.264	1.1
238.481	7.66
238.698	7.72
238.915	7.76
239.131	13.09
239.348	14.64
239.565	16.26
239.781	18.26
239.998	19.4
240.215	19.74
240.431	15.33
240.648	14.22
240.865	16.46
241.081	19.83
241.298	21.67
241.514	18.99
241.731	18.6
241.947	16.79
242.164	14.72
242.38	15.32
242.597	14.86
242.814	15.73
243.03	16.52
243.246	15.06
243.463	12.15
243.679	13.28
243.896	14.73
244.112	13.26
244.329	11.87
244.545	12.29
244.762	11.88
244.978	11.35
245.194	9.5
245.411	6.81
245.627	7.86
245.843	9.31
246.06	8.46
246.276	7.47
246.492	11.03
246.709	12.13
246.925	12.14
247.141	12.95
247.357	12.9
247.574	13.04
247.79	13.92
248.006	14.12
248.222	13.39
248.439	13.32
248.655	13.7
248.871	13.06
249.087	12.76
249.303	12.88
249.519	11.53
249.736	12.04
249.952	11.74
250.168	10.31
250.384	9.73
250.6	9.96
250.816	11.92
251.032	8.01
251.248	7.53
251.464	6.48
251.68	6.07
251.896	6.29
252.112	6.31
252.328	6.16
252.544	6.58
252.76	5.42
252.976	5.91
253.192	2.29
253.408	5.1
253.624	2.62
253.84	2.76
254.056	3.08
254.272	1.31
254.487	1.29
254.703	2.97
254.919	0.88
255.135	3.36
255.351	5.01
255.567	8.93
255.782	7.79
255.998	11.89
256.214	14.4
256.43	11.13
256.646	12.35
256.861	11.7
257.077	10.69
257.293	10.82
257.508	10.9
257.724	7.5
257.94	9.19
258.155	9.39
258.371	9.37
258.587	7.36
258.802	9.38
259.018	10.28
259.234	8.32
259.449	8.46
259.665	9.81
259.88	8.95
260.096	10.51
260.312	9.66
260.527	10.31
260.743	9.66
260.958	10.14
261.174	9.92
261.389	9.67
261.605	9.75
261.82	9.85
262.036	8.85
262.251	9.29
262.466	8.19
262.682	6.9
262.897	6.44
263.113	4.86
263.328	4.34
263.543	4.02
263.759	2.71
263.974	5
264.189	7.83
264.405	7.16
264.62	7.66
264.835	8.8
265.051	9.23
265.266	9.54
265.481	11.33
265.696	11.13
265.912	10.18
266.127	11
266.342	12.01
266.557	9.7
266.773	10.48
266.988	10.12
267.203	9.6
267.418	11.93
267.633	11.65
267.848	11.54
268.064	12.14
268.279	14.7
268.494	15.19
268.709	14.37
268.924	15.28
269.139	14.04
269.354	13.27
269.569	14.16
269.784	12.11
269.999	11.43
270.214	11.68
270.429	10.87
270.644	8.68
270.859	8.39
271.074	9.66
271.289	8.31
271.504	8.94
271.719	8.73
271.934	8.54
272.149	9.62
272.363	8.32
272.578	7.72
272.793	6.72
273.008	7.35
273.223	7.62
273.438	6.68
273.653	7.15
273.867	6.73
274.082	6.53
274.297	6.69
274.512	5.95
274.726	8.14
274.941	8.41
275.156	9.79
275.371	9.02
275.585	7.41
275.8	6.81
276.015	4.77
276.229	5.61
276.444	6.89
276.659	6.3
276.873	6.51
277.088	6.52
277.302	7.91
277.517	7.78
277.732	8.2
277.946	10.8
278.161	12.18
278.375	14.52
278.59	12.52
278.804	12.19
279.019	12.95
279.233	12.42
279.448	11.44
279.662	9.74
279.877	10.62
280.091	11.3
280.306	8.73
280.52	8.9
280.735	8.96
280.949	9.62
281.163	10.38
281.378	11.32
281.592	11
281.806	10.7
282.021	12.19
282.235	12.22
282.449	12.03
282.664	13.18
282.878	12.98
283.092	13.06
283.307	14.94
283.521	14.15
283.735	12.91
283.949	13.22
284.164	14.03
284.378	12.57
284.592	12.73
284.806	12.01
285.02	11.34
285.234	11.46
285.449	11.82
285.663	11.64
285.877	11.15
286.091	10.86
286.305	10.18
286.519	9.97
286.733	10.81
286.947	9.59
287.161	9.68
287.375	10.88
287.589	10.86
287.803	9.01
288.017	7.66
288.231	8.44
288.445	8.04
288.659	9.01
288.873	9.66
289.087	8.51
289.301	10.57
289.515	10.77
289.729	9.71
289.943	9.31
290.157	8.74
290.371	8.66
290.584	8.69
290.798	7.98
291.012	6.98
291.226	7.24
291.44	5.99
291.654	5.38
291.867	5.83
292.081	6.83
292.295	6.56
292.509	8.36
292.722	11.37
292.936	11.61
293.15	11.91
293.364	13
293.577	11.16
293.791	13.12
294.005	14.01
294.218	14.71
294.432	13.28
294.645	14.22
294.859	14.56
295.073	10.77
295.286	11.23
295.5	12.24
295.713	11.19
295.927	11.77
296.14	11.52
296.354	10.65
296.568	9.34
296.781	9.67
296.994	8.54
297.208	7.94
297.421	8.99
297.635	8.35
297.848	7.25
298.062	8.29
298.275	7.13
298.489	7.94
298.702	6.93
298.915	6.52
299.129	6.58
299.342	6.12
299.555	5.67
299.769	6.88
299.982	7.85
300.195	9.09
300.409	9.92
300.622	12.36
300.835	11.12
301.048	11.85
301.262	13.57
301.475	12.67
301.688	13.73
301.901	13.85
302.115	13.4
302.328	12.93
302.541	12.32
302.754	11.23
302.967	11.36
303.18	10.85
303.393	10.68
303.607	9.12
303.82	10.55
304.033	9.47
304.246	10.05
304.459	7.53
304.672	8.32
304.885	9.01
305.098	8.54
305.311	7.55
305.524	8.97
305.737	9.32
305.95	10.01
306.163	9.17
306.376	9.49
306.589	7.52
306.802	9.61
307.015	10.01
307.228	9.77
307.44	9.83
307.653	9.92
307.866	7.47
308.079	8.06
308.292	7.32
308.505	8.84
308.718	9.62
308.93	11.74
309.143	12.46
309.356	11.67
309.569	11.02
309.781	10.26
309.994	9.87
310.207	10.71
310.42	9.21
310.632	9.93
310.845	9.75
311.058	9.64
311.27	9.2
311.483	8.85
311.696	6.81
311.908	6.55
312.121	6.68
312.333	7.02
312.546	7.5
312.759	8.67
312.971	7.85
313.184	8.41
313.396	7.81
313.609	8.24
313.821	9
314.034	10.65
314.246	12.22
314.459	12.76
314.671	11.1
314.884	10.8
315.096	11.19
315.309	12.09
315.521	10.72
315.733	10.96
315.946	9.46
316.158	7.57
316.371	8.5
316.583	8.51
316.795	8.8
317.008	11.18
317.22	11.09
317.432	10.4
317.644	8.86
317.857	7.23
318.069	7.46
318.281	8.5
318.494	9.62
318.706	8.11
318.918	6.25
319.13	6.42
319.342	4.08
319.555	3.41
319.767	3.66
319.979	5.63
320.191	7.66
320.403	6.7
320.615	7.36
320.827	6.34
321.039	7.85
321.252	7.4
321.464	7.62
321.676	9.54
321.888	11.17
322.1	10.8
322.312	9.78
322.524	9.33
322.736	9.58
322.948	9.46
323.16	10.66
323.372	8
323.584	7.87
323.796	5.78
324.007	5.84
324.219	4.64
324.431	6.19
324.643	6.72
324.855	6.39
325.067	6.21
325.279	5.06
325.491	3.84
325.702	5.67
325.914	7.06
326.126	9.52
326.338	7.63
326.55	6.93
326.761	5.41
326.973	5.28
327.185	6.92
327.396	6.63
327.608	7.05
327.82	6.69
328.032	5.88
328.243	5.71
328.455	5.45
328.666	7.4
328.878	8.98
329.09	9.26
329.301	9.67
329.513	8.21
329.725	8.26
329.936	6.72
330.148	8.6
330.359	9.52
330.571	9.32
330.782	7.94
330.994	7.25
331.205	7.02
331.417	6.72
331.628	6.56
331.84	6.71
332.051	8.43
332.262	10.57
332.474	9.57
332.685	9.21
332.897	10.6
333.108	11.95
333.319	10.09
333.531	10.13
333.742	9.19
333.953	8.71
334.165	9.22
334.376	8.95
334.587	8.79
334.799	8.53
335.01	8.4
335.221	6.35
335.432	5.06
335.644	7.32
335.855	7.41
336.066	8.86
336.277	8.43
336.488	8.32
336.7	6.91
336.911	6.61
337.122	6.72
337.333	6.88
337.544	6.19
337.755	7.48
337.966	7.77
338.177	7.71
338.388	6.94
338.599	7.55
338.811	7.06
339.022	7.82
339.233	8.48
339.444	7.23
339.655	6.26
339.866	7.54
340.076	7.03
340.287	6.13
340.498	6.21
340.709	7.41
340.92	7.67
341.131	7.92
341.342	8.41
341.553	6.32
341.764	7.91
341.975	8.24
342.185	8.37
342.396	8.03
342.607	9.93
342.818	11.12
343.029	9.54
343.239	7.58
343.45	7.57
343.661	6.86
343.872	8.62
344.082	8.49
344.293	8.65
344.504	7.64
344.714	6.65
344.925	4.68
345.136	3.68
345.346	4.24
345.557	4.99
345.768	3.52
345.978	4.44
346.189	4.4
346.399	3.86
346.61	3.33
346.821	3.36
347.031	4.7
347.242	4.35
347.452	2.39
347.663	3.83
347.873	4.56
348.084	5.08
348.294	5.06
348.504	5.19
348.715	4.96
348.925	7.45
349.136	8.03
349.346	8.17
349.557	8.26
349.767	8.93
349.977	7.47
350.188	7.07
350.398	7.99
350.608	6.69
350.819	6.82
351.029	5.93
351.239	4.31
351.449	4.08
351.66	3.24
351.87	4.22
352.08	3.2
352.29	3.39
352.501	4.5
352.711	5.27
352.921	5.7
353.131	5.09
353.341	6.17
353.552	7.03
353.762	7.96
353.972	8.32
354.182	8.49
354.392	10.2
354.602	10.33
354.812	10.3
355.022	9.28
355.232	9.3
355.442	9.53
355.652	9.87
355.862	10
356.072	10.13
356.282	10.84
356.492	10.13
356.702	9.44
356.912	10.07
357.122	9.52
357.332	9.47
357.542	10.18
357.752	9.95
357.962	10.44
358.171	10.23
358.381	9.51
358.591	9.39
358.801	9.72
359.011	9.92
359.221	9.34
359.43	9.88
359.64	11.08
359.85	10.52
360.06	10.43
360.269	10.3
360.479	10.02
360.689	9.64
360.899	9.35
361.108	8.99
361.318	9.19
361.528	8.74
361.737	8.96
361.947	8.08
362.156	8.54
362.366	7.98
362.576	7.34
362.785	6.95
362.995	7.47
363.204	6.57
363.414	5.98
363.623	6.05
363.833	6.39
364.042	5.66
364.252	5.13
364.461	4.57
364.671	5.23
364.88	5.94
365.09	6.01
365.299	5.75
365.509	6.6
365.718	7.36
365.927	7.09
366.137	6.99
366.346	7.06
366.555	7.42
366.765	7.45
366.974	7.89
367.183	6.73
367.393	6.68
367.602	6.63
367.811	6.23
368.021	5.68
368.23	5.54
368.439	5.73
368.648	5.54
368.857	5.26
369.067	4.45
369.276	3.98
369.485	4.93
369.694	4.58
369.903	4.91
370.112	5.69
370.321	5.78
370.531	5.18
370.74	4.15
370.949	3.8
371.158	3.5
371.367	4.05
371.576	4.57
371.785	3.69
371.994	4.32
372.203	4.49
372.412	4.46
372.621	4.72
372.83	5.01
373.039	5.63
373.248	5.94
373.457	6.43
373.666	6.37
373.874	5.63
374.083	6.57
374.292	6.89
374.501	5.93
374.71	5.48
374.919	4.95
375.128	4.63
375.336	4.67
375.545	4.91
375.754	4.68
375.963	5.46
376.171	6.07
376.38	5.91
376.589	5.28
376.798	5.54
377.006	5.62
377.215	6.47
377.424	7.1
377.632	7.43
377.841	7.23
378.05	7.97
378.258	7.49
378.467	7.19
378.675	6.5
378.884	6.71
379.093	6.38
379.301	6.26
379.51	5.59
379.718	5.1
379.927	4.95
380.135	5.07
380.344	4.44
380.552	4.53
380.761	4.09
380.969	4.55
381.177	4.78
381.386	5.05
381.594	5.31
381.803	5.14
382.011	5.19
382.219	4.61
382.428	5.02
382.636	5.41
382.845	5.37
383.053	5.65
383.261	5.39
383.469	5.44
383.678	5.6
383.886	4.88
384.094	5.08
384.302	5.28
384.511	5.67
384.719	4.71
384.927	4.34
385.135	3.63
385.343	3.77
385.552	4.44
385.76	4.11
385.968	4.47
386.176	4.8
386.384	4.83
386.592	4.66
386.8	3.93
387.008	4.64
387.216	5.11
387.424	5.29
387.633	5.19
387.841	4.63
388.049	4.49
388.257	4.02
388.465	3.9
388.672	3.74
388.88	4.31
389.088	4.72
389.296	4.3
389.504	4.08
389.712	4.51
389.92	4.38
390.128	4.32
390.336	4.74
390.544	4.36
390.751	4.37
390.959	4.01
391.167	3.49
391.375	3.52
391.583	3.58
391.79	3.3
391.998	2.88
392.206	3.03
392.414	3.06
392.621	3
392.829	3.3
393.037	3.31
393.244	3.64
393.452	3.96
393.66	3.86
393.867	4
394.075	4.07
394.283	4.19
394.49	4.16
394.698	3.92
394.905	3.71
395.113	3.82
395.32	4.02
395.528	4.33
395.735	3.94
395.943	4.32
396.15	4.37
396.358	4.5
396.565	4.81
396.773	4.77
396.98	5.01
397.188	5.18
397.395	5.24
397.602	5.26
397.81	4.58
398.017	4.7
398.225	4.83
398.432	4.48
398.639	4.54
398.847	4.36
399.054	4.45
399.261	3.95
399.468	3.84
399.676	3.3
399.883	3.11
400.09	3.31
400.297	3.2
400.505	3.06
400.712	3.24
400.919	3.35
401.126	3.06
401.333	3.3
401.54	3.75
401.748	3.87
401.955	4.17
402.162	3.82
402.369	4.3
402.576	4.29
402.783	3.71
402.99	3.62
403.197	3.31
403.404	3.69
403.611	3.21
403.818	3.58
404.025	3.33
404.232	3.57
404.439	3.88
404.646	3.57
404.853	3.74
405.06	3.99
405.267	3.68
405.474	3.55
405.681	3.47
405.887	3.71
406.094	3.33
406.301	3.39
406.508	3.14
406.715	3.16
406.922	3.23
407.128	3.16
407.335	3.29
407.542	3.63
407.749	3.63
407.955	3.8
408.162	3.6
408.369	3.87
408.575	3.88
408.782	3.94
408.989	4.1
409.195	4.29
409.402	4.25
409.609	4.13
409.815	4.19
410.022	4.04
410.228	3.87
410.435	3.99
410.642	4.07
410.848	4.19
411.055	4.19
411.261	3.71
411.468	3.43
411.674	3.59
411.881	3.55
412.087	3.66
412.294	4.18
412.5	4.17
412.706	4.06
412.913	3.95
413.119	3.73
413.326	3.66
413.532	3.77
413.738	3.84
413.945	3.68
414.151	3.79
414.357	3.7
414.564	3.21
414.77	3.13
414.976	2.98
415.182	2.73
415.389	2.97
415.595	2.93
415.801	3.14
416.007	3.22
416.214	3.49
416.42	3.24
416.626	3.25
416.832	3.33
417.038	3.42
417.244	3.38
417.45	3.59
417.657	3.66
417.863	3.63
418.069	3.75
418.275	3.6
418.481	3.41
418.687	3.49
418.893	3.4
419.099	3.5
419.305	3.39
419.511	3.63
419.717	3.65
419.923	3.4
420.129	3.47
420.335	3.21
420.541	3.21
420.746	3.32
420.952	3.37
421.158	3.56
421.364	3.42
421.57	3.4
421.776	3.4
421.982	3.25
422.187	3.34
422.393	3.41
422.599	3.57
422.805	3.61
423.01	3.5
423.216	3.36
423.422	3.28
423.628	3.41
423.833	3.54
424.039	3.52
424.245	3.67
424.45	3.62
424.656	3.71
424.862	3.69
425.067	3.92
425.273	3.93
425.478	3.98
425.684	3.9
425.889	3.91
426.095	3.92
426.301	3.89
426.506	3.79
426.712	3.9
426.917	3.7
427.123	3.79
427.328	3.5
427.533	3.42
427.739	3.61
427.944	3.73
428.15	3.57
428.355	3.38
428.561	3.34
428.766	3.3
428.971	3.31
429.177	3.4
429.382	3.06
429.587	2.91
429.793	3.29
429.998	3
430.203	2.92
430.408	3.12
430.614	3.27
430.819	3.14
431.024	3.37
431.229	3.19
431.434	3.1
431.64	3.18
431.845	3.2
432.05	2.75
432.255	3.08
432.46	3.14
432.665	3.07
432.87	3.16
433.076	3.25
433.281	3.07
433.486	3.04
433.691	2.94
433.896	2.92
434.101	3.16
434.306	3.32
434.511	3.31
434.716	3.09
434.921	3.11
435.126	3.15
435.331	3.11
435.535	3.12
435.74	3.09
435.945	3.17
436.15	3.43
436.355	3.23
436.56	3.27
436.765	3.07
436.97	3.2
437.174	3.23
437.379	3.14
437.584	3.19
437.789	3.32
437.993	3.49
438.198	3.4
438.403	3.43
438.608	3.33
438.812	3.25
439.017	3.23
439.222	3.36
439.426	3.3
439.631	3.22
439.836	3.28
440.04	3.21
440.245	3.22
440.45	3.25
440.654	3.11
440.859	3.26
441.063	3.34
441.268	3.34
441.472	3.23
441.677	3.18
441.881	2.99
442.086	3.01
442.29	2.83
442.495	2.69
442.699	2.54
442.904	2.64
443.108	2.52
443.312	2.41
443.517	2.44
443.721	2.44
443.925	2.77
444.13	2.92
444.334	2.7
444.538	2.88
444.743	2.97
444.947	3.05
445.151	2.95
445.356	2.93
445.56	2.99
445.764	2.99
445.968	2.99
446.173	2.9
446.377	2.77
446.581	2.91
446.785	3.02
446.989	3.05
447.193	3.1
447.398	3.02
447.602	3.01
447.806	2.9
448.01	2.86
448.214	2.89
448.418	2.76
448.622	3.02
448.826	2.97
449.03	2.7
449.234	2.71
449.438	2.78
449.642	2.73
449.846	2.8
450.05	3.03
450.254	3.27
450.458	3.22
450.662	3.2
450.866	2.98
451.069	2.96
451.273	3.02
451.477	2.97
451.681	2.96
451.885	3.04
452.089	3.24
452.292	2.9
452.496	2.63
452.7	2.67
452.904	2.63
453.107	2.82
453.311	2.8
453.515	2.77
453.719	2.74
453.922	2.75
454.126	2.75
454.33	2.45
454.533	2.55
454.737	2.5
454.94	2.45
455.144	2.68
455.348	2.58
455.551	2.85
455.755	2.84
455.958	2.9
456.162	2.89
456.365	2.97
456.569	3.07
456.772	3.13
456.976	3.16
457.179	3.07
457.383	3.03
457.586	3
457.79	2.6
457.993	2.57
458.196	2.61
458.4	2.55
458.603	2.44
458.807	2.36
459.01	2.53
459.213	2.55
459.417	2.7
459.62	2.73
459.823	2.78
460.026	2.9
460.23	3.01
460.433	2.87
460.636	2.94
460.839	3.04
461.042	3.2
461.246	3.07
461.449	3.23
461.652	3.13
461.855	2.88
462.058	2.77
462.261	2.71
462.464	2.76
462.668	2.83
462.871	2.83
463.074	2.74
463.277	2.78
463.48	2.64
463.683	2.53
463.886	2.56
464.089	2.74
464.292	2.93
464.495	2.83
464.698	2.49
464.901	2.33
465.104	2.33
465.306	2.41
465.509	2.19
465.712	2.45
465.915	2.39
466.118	2.42
466.321	2.6
466.524	2.48
466.726	2.62
466.929	2.94
467.132	3.1
467.335	2.94
467.538	2.89
467.74	2.94
