Data from 2937888_Reflection_2.txt Node
Date: Wed Jul 15 14:25:46 EDT 2015
User: robert
Spectrometer: USB4E03001
Autoset integration time: false
Trigger mode: 4
Integration Time (sec): 1.000000E-1
Scans to average: 10
Electric dark correction enabled: true
Nonlinearity correction enabled: false
Boxcar width: 5
Stray light correction enabled: false
XAxis mode: Wavelengths
Stop averaging: false
Number of Pixels in Spectrum: 3648
>>>>>Begin Spectral Data<<<<<
177.566	11480
177.785	-918
178.005	-149.36
178.225	-118.02
178.445	-351.75
178.665	-173.46
178.885	318.57
179.105	-1393.66
179.324	-580.73
179.544	-4168.75
179.764	740.5
179.984	-268.79
180.204	-99.42
180.423	-14.45
180.643	1.34
180.863	-11.1
181.083	-30.57
181.302	-7.21
181.522	29.68
181.742	8.64
181.961	5.46
182.181	7.17
182.401	8.49
182.621	7.63
182.84	-13.02
183.06	-24.96
183.279	-9.85
183.499	10.34
183.719	-0.39
183.938	3.04
184.158	9.18
184.377	11.35
184.597	13.79
184.816	20.26
185.036	0.91
185.256	9.5
185.475	-2.9
185.695	-3.45
185.914	-0.27
186.134	-0.17
186.353	-47.28
186.572	-39.65
186.792	-55.23
187.011	-63.95
187.231	-157.95
187.45	-171.39
187.67	-191.55
187.889	-68.52
188.108	-133.33
188.328	-134.35
188.547	-88.13
188.766	-58.38
188.986	-97.12
189.205	-100.97
189.424	-56.29
189.644	-21.52
189.863	-19.54
190.082	-42.56
190.302	-27.12
190.521	2.09
190.74	1.98
190.959	-46.13
191.178	-63.25
191.398	-65.37
191.617	-99.3
191.836	-267.3
192.055	-271.96
192.274	-152.33
192.494	-123.17
192.713	-207.14
192.932	-273.7
193.151	-350.21
193.37	-197.4
193.589	-165.29
193.808	-98.62
194.027	-77.18
194.246	-22.68
194.465	-25.42
194.685	-34.38
194.904	-44.12
195.123	-145.3
195.342	-116.55
195.561	-66.93
195.78	-78.43
195.999	-60.03
196.218	-63.78
196.436	-48.8
196.655	-38.6
196.874	-57.06
197.093	-45.64
197.312	-37.57
197.531	12.04
197.75	6.62
197.969	-1.55
198.188	30.46
198.407	40.31
198.625	27.98
198.844	20.24
199.063	-17.82
199.282	-22.68
199.501	-5.45
199.719	-4.89
199.938	-108.13
200.157	-73.32
200.376	-103.34
200.594	-244.87
200.813	-150.09
201.032	-169.05
201.251	-42.33
201.469	-116.3
201.688	779.43
201.907	394.55
202.125	789.05
202.344	85.09
202.563	230.37
202.781	217.43
203	241.51
203.218	356.78
203.437	-191.04
203.656	320100
203.874	-274.78
204.093	-477.12
204.311	-299
204.53	-519.31
204.748	-154.13
204.967	-100.3
205.185	-127.3
205.404	-157.84
205.622	-144.78
205.841	-174.12
206.059	-111.32
206.278	-121.49
206.496	-105.55
206.715	-91.47
206.933	-63.94
207.151	-4.69
207.37	-42.42
207.588	-23.27
207.806	-49.82
208.025	-4.29
208.243	12.69
208.461	-20.44
208.68	-1.55
208.898	-17.24
209.116	-62.89
209.335	-70.25
209.553	-109.38
209.771	-173.26
209.989	-123.46
210.208	-97.35
210.426	-654.26
210.644	-1570.57
210.862	-591.75
211.081	-548.49
211.299	-112.68
211.517	22.38
211.735	44.65
211.953	-33.68
212.171	-49.32
212.39	-173.51
212.608	-43.76
212.826	-61.13
213.044	-49.87
213.262	-80
213.48	-461.79
213.698	-1082.05
213.916	-1029.01
214.134	-290.94
214.352	-162.15
214.57	-206.49
214.788	-182.14
215.006	-389.93
215.224	-674.61
215.442	-1105.55
215.66	-397.05
215.878	-217.4
216.096	-259.46
216.314	-2094.28
216.532	775.04
216.75	269.46
216.968	315.85
217.185	130.39
217.403	366.12
217.621	240.12
217.839	217.46
218.057	138.17
218.275	-119.18
218.492	-242.83
218.71	-68.72
218.928	-81.75
219.146	-113.83
219.363	-697.81
219.581	-214.96
219.799	-275.74
220.017	-377.49
220.234	-520.37
220.452	-708.27
220.67	307.27
220.887	814.11
221.105	-151.06
221.323	-153.39
221.54	-100.81
221.758	-29.93
221.976	-32
222.193	46.46
222.411	79.07
222.629	118.26
222.846	102.62
223.064	181.25
223.281	221.49
223.499	-246.7
223.716	-306.09
223.934	-43.69
224.151	-4.86
224.369	15.44
224.586	51.29
224.804	64.37
225.021	89.85
225.239	65.82
225.456	85.25
225.674	79.45
225.891	75.63
226.108	87.89
226.326	77.94
226.543	68.01
226.76	65.91
226.978	50.19
227.195	37.5
227.413	37.28
227.63	38.53
227.847	32.76
228.064	28.15
228.282	25.44
228.499	18.8
228.716	16.04
228.934	16.11
229.151	15.07
229.368	16.24
229.585	16.75
229.802	13.3
230.02	12.11
230.237	13.17
230.454	15.07
230.671	14.64
230.888	12.78
231.105	14.25
231.323	14.95
231.54	14.53
231.757	6.16
231.974	8.26
232.191	1.59
232.408	-0.37
232.625	-12.06
232.842	-4.62
233.059	-10.65
233.276	-2.64
233.493	-2.28
233.71	-4.49
233.927	1.47
234.144	14.47
234.361	8.37
234.578	13.93
234.795	16.29
235.012	18.29
235.229	12.73
235.446	22.83
235.663	23.09
235.879	17.49
236.096	16.8
236.313	14.71
236.53	10.48
236.747	21.79
236.964	15.9
237.181	24.41
237.397	29.61
237.614	30.99
237.831	28.77
238.048	28.93
238.264	35.88
238.481	41.34
238.698	45.33
238.915	46.25
239.131	42.03
239.348	47.4
239.565	41.25
239.781	38.71
239.998	37.56
240.215	32.04
240.431	32.11
240.648	25.62
240.865	23.34
241.081	22.38
241.298	21.09
241.514	20.2
241.731	18.87
241.947	17.79
242.164	15.39
242.38	15.42
242.597	16.32
242.814	15.68
243.03	15.25
243.246	16.57
243.463	15.99
243.679	16.07
243.896	15.94
244.112	16.53
244.329	16.64
244.545	17
244.762	14.44
244.978	14.54
245.194	16.36
245.411	20.15
245.627	15.69
245.843	16.8
246.06	16.64
246.276	15.87
246.492	14.15
246.709	14.25
246.925	13.8
247.141	14.57
247.357	14.78
247.574	15.28
247.79	13.96
248.006	15.26
248.222	14.93
248.439	14.91
248.655	15.07
248.871	15.82
249.087	16.1
249.303	16.35
249.519	15.73
249.736	15.6
249.952	13.45
250.168	13.03
250.384	11.25
250.6	9.36
250.816	10.56
251.032	8.61
251.248	8.7
251.464	7.73
251.68	8.14
251.896	7.18
252.112	7.2
252.328	7.67
252.544	8.08
252.76	7.53
252.976	8.8
253.192	7.8
253.408	9.95
253.624	10.12
253.84	11.16
254.056	10.97
254.272	13.34
254.487	12.65
254.703	13.91
254.919	16.88
255.135	18.45
255.351	18.11
255.567	20.84
255.782	16.29
255.998	16.23
256.214	13.23
256.43	16.41
256.646	16.61
256.861	17.28
257.077	15.09
257.293	14.53
257.508	16.43
257.724	14.12
257.94	11.05
258.155	11.41
258.371	10.99
258.587	11.93
258.802	10.83
259.018	11.58
259.234	12.42
259.449	12.17
259.665	11.68
259.88	10.6
260.096	10.72
260.312	11.35
260.527	11.59
260.743	12.1
260.958	11.75
261.174	11.85
261.389	11.54
261.605	10.55
261.82	11.06
262.036	10.8
262.251	11.26
262.466	11.93
262.682	11.86
262.897	12.12
263.113	11.65
263.328	10.58
263.543	10.64
263.759	10.38
263.974	11.01
264.189	9.56
264.405	10.44
264.62	10.78
264.835	10.09
265.051	6.5
265.266	8.46
265.481	9.21
265.696	11.51
265.912	11.81
266.127	10.55
266.342	10.18
266.557	9.32
266.773	7.86
266.988	6.73
267.203	7.65
267.418	11.23
267.633	9.85
267.848	9.5
268.064	10.54
268.279	11.36
268.494	11.6
268.709	11.35
268.924	10.98
269.139	11.91
269.354	13.64
269.569	12.13
269.784	9.92
269.999	10.64
270.214	9.11
270.429	7.72
270.644	5.5
270.859	5.86
271.074	4.4
271.289	6.97
271.504	8.73
271.719	8.26
271.934	9.43
272.149	8.31
272.363	7.15
272.578	7.46
272.793	7.96
273.008	10.01
273.223	10.8
273.438	12.64
273.653	12.69
273.867	10.67
274.082	9.98
274.297	10.26
274.512	12.04
274.726	12.65
274.941	13.4
275.156	12.95
275.371	11.99
275.585	11.9
275.8	10.9
276.015	9.36
276.229	10.48
276.444	10.35
276.659	10.52
276.873	9.59
277.088	11.36
277.302	12.52
277.517	12.74
277.732	11.9
277.946	11.84
278.161	13.55
278.375	13.35
278.59	13.15
278.804	13.34
279.019	13.47
279.233	14.77
279.448	12.74
279.662	12.23
279.877	11.94
280.091	11.67
280.306	9.17
280.52	8.22
280.735	10.79
280.949	11.39
281.163	10.91
281.378	10.46
281.592	10.05
281.806	9.11
282.021	8.12
282.235	8.86
282.449	9.8
282.664	11.05
282.878	10.61
283.092	9.96
283.307	10.46
283.521	10.8
283.735	11.55
283.949	11.67
284.164	11.77
284.378	11.79
284.592	11.45
284.806	9.96
285.02	9.8
285.234	9.95
285.449	8.81
285.663	7.9
285.877	8.08
286.091	7.65
286.305	8.26
286.519	8.27
286.733	8.58
286.947	8.2
287.161	9.72
287.375	9.77
287.589	9.2
287.803	8.33
288.017	7.8
288.231	7.11
288.445	7.45
288.659	7.37
288.873	8.72
289.087	7.41
289.301	7.28
289.515	6.51
289.729	6.88
289.943	7.55
290.157	9.31
290.371	9.21
290.584	10.35
290.798	10.68
291.012	10.06
291.226	9.27
291.44	10.63
291.654	11.13
291.867	10.98
292.081	10.16
292.295	10.07
292.509	9.49
292.722	9.67
292.936	9.22
293.15	9.23
293.364	7.25
293.577	7.39
293.791	9.14
294.005	9.91
294.218	10.33
294.432	10.24
294.645	9.89
294.859	9.84
295.073	10.57
295.286	12.03
295.5	10.48
295.713	11.82
295.927	11.86
296.14	9.57
296.354	9.34
296.568	9.44
296.781	9.91
296.994	10.03
297.208	10.37
297.421	10.6
297.635	9.71
297.848	10
298.062	9.8
298.275	9.97
298.489	10.56
298.702	10.83
298.915	10.28
299.129	10.2
299.342	10.05
299.555	9.76
299.769	8.97
299.982	8.92
300.195	9.3
300.409	9.36
300.622	9.03
300.835	9.53
301.048	9
301.262	9.5
301.475	10.41
301.688	12.02
301.901	11.92
302.115	11.19
302.328	10.55
302.541	9.38
302.754	10.87
302.967	11.61
303.18	11.79
303.393	12.01
303.607	11.99
303.82	12.16
304.033	11.89
304.246	12.34
304.459	14.33
304.672	14.84
304.885	17.06
305.098	16.89
305.311	15.96
305.524	14.43
305.737	14.54
305.95	15.89
306.163	14.5
306.376	13.96
306.589	13.06
306.802	12.1
307.015	10.8
307.228	8.54
307.44	8.26
307.653	9.87
307.866	9.8
308.079	10.21
308.292	11.02
308.505	12.19
308.718	11.81
308.93	12.38
309.143	11.04
309.356	13.68
309.569	14.09
309.781	13.46
309.994	14.02
310.207	14.81
310.42	14.06
310.632	12.65
310.845	12.3
311.058	12.19
311.27	12.71
311.483	13.56
311.696	12.03
311.908	12.23
312.121	11.2
312.333	9.67
312.546	10.51
312.759	12.14
312.971	12.39
313.184	13.44
313.396	13.53
313.609	13.22
313.821	13.82
314.034	13.94
314.246	14.51
314.459	16.62
314.671	17.14
314.884	15.27
315.096	12.9
315.309	12.79
315.521	10.25
315.733	9.85
315.946	9.09
316.158	8.35
316.371	8.03
316.583	5.83
316.795	5.13
317.008	4.71
317.22	6.18
317.432	7.2
317.644	8.78
317.857	10.7
318.069	11.03
318.281	10.07
318.494	12.73
318.706	14.71
318.918	15.77
319.13	15.36
319.342	14.89
319.555	15.3
319.767	14.91
319.979	12.05
320.191	12.62
320.403	12.56
320.615	14.4
320.827	12.22
321.039	12.56
321.252	12.5
321.464	12.86
321.676	13.5
321.888	12.8
322.1	13.73
322.312	14.67
322.524	14.62
322.736	15.08
322.948	13.72
323.16	14.41
323.372	12.32
323.584	11.96
323.796	12.9
324.007	12.26
324.219	12.04
324.431	10.35
324.643	9.67
324.855	7.86
325.067	7.24
325.279	7.14
325.491	6.55
325.702	6.07
325.914	6.49
326.126	4.27
326.338	5.37
326.55	6.06
326.761	7.07
326.973	7.68
327.185	9.02
327.396	9.61
327.608	10.5
327.82	12.06
328.032	12.24
328.243	12.34
328.455	13.45
328.666	12.94
328.878	12.66
329.09	12.09
329.301	11.77
329.513	11.87
329.725	11.27
329.936	11.72
330.148	10.72
330.359	12.85
330.571	13.8
330.782	14.49
330.994	15.38
331.205	16.29
331.417	17.46
331.628	16.78
331.84	16.51
332.051	18.51
332.262	19.71
332.474	18.97
332.685	18.24
332.897	17.66
333.108	17.98
333.319	17.17
333.531	16.81
333.742	16.45
333.953	15.73
334.165	15.7
334.376	13.98
334.587	12.79
334.799	12.79
335.01	12.42
335.221	11.24
335.432	10.04
335.644	10
335.855	9.09
336.066	7.6
336.277	9.42
336.488	9.07
336.7	9.66
336.911	8.87
337.122	8.16
337.333	7.83
337.544	8.3
337.755	8.11
337.966	7.81
338.177	8.01
338.388	8.88
338.599	8.98
338.811	8.64
339.022	8.67
339.233	8.8
339.444	10.09
339.655	9.91
339.866	10.54
340.076	11.72
340.287	11.97
340.498	12.47
340.709	10.76
340.92	10.69
341.131	11.27
341.342	10.14
341.553	11.07
341.764	11.26
341.975	12.02
342.185	11.48
342.396	11
342.607	10.18
342.818	10.46
343.029	12.06
343.239	12.18
343.45	12.12
343.661	12.51
343.872	10.18
344.082	9.21
344.293	8.26
344.504	8.48
344.714	8.05
344.925	8.29
345.136	7.67
345.346	7.99
345.557	7.89
345.768	7.76
345.978	7.61
346.189	9.22
346.399	9.16
346.61	9.72
346.821	10.25
347.031	11.33
347.242	10.61
347.452	10.22
347.663	9.91
347.873	10.3
348.084	9.74
348.294	11.07
348.504	10.41
348.715	10.69
348.925	10.21
349.136	10.1
349.346	9.37
349.557	10.75
349.767	9.92
349.977	9.83
350.188	8.55
350.398	9.21
350.608	8.04
350.819	8.52
351.029	8.64
351.239	9.07
351.449	7.98
351.66	7.81
351.87	7.05
352.08	6.72
352.29	6.29
352.501	6.51
352.711	5.79
352.921	5.29
353.131	4.54
353.341	4.72
353.552	4.52
353.762	4.19
353.972	3.76
354.182	5.45
354.392	6.58
354.602	7.24
354.812	7.3
355.022	8.24
355.232	8.15
355.442	9.33
355.652	9.04
355.862	8.41
356.072	8.65
356.282	8.75
356.492	8.46
356.702	7.49
356.912	7.97
357.122	8.23
357.332	7.48
357.542	7.6
357.752	7.2
357.962	6.97
358.171	7.98
358.381	7.81
358.591	8.23
358.801	7.75
359.011	8.09
359.221	7.37
359.43	7
359.64	7.1
359.85	7.51
360.06	6.47
360.269	6.68
360.479	6.38
360.689	6.42
360.899	6.76
361.108	6.78
361.318	7.32
361.528	7.06
361.737	6.93
361.947	6.15
362.156	5.73
362.366	6.48
362.576	6.44
362.785	6.15
362.995	6.39
363.204	5.6
363.414	4.85
363.623	4.69
363.833	4.69
364.042	5.06
364.252	5.98
364.461	6.48
364.671	5.99
364.88	5.34
365.09	5.69
365.299	5.61
365.509	5.6
365.718	6.51
365.927	5.76
366.137	6
366.346	5.59
366.555	5.31
366.765	5.24
366.974	4.93
367.183	5.16
367.393	5.11
367.602	5.21
367.811	5.07
368.021	4.18
368.23	4.66
368.439	4.75
368.648	5.24
368.857	5.36
369.067	4.86
369.276	5.65
369.485	5.64
369.694	5.88
369.903	5.28
370.112	6.11
370.321	6.25
370.531	6.62
370.74	6.44
370.949	6.04
371.158	6.19
371.367	6.35
371.576	5.55
371.785	5.89
371.994	5.15
372.203	5.81
372.412	5.7
372.621	6.19
372.83	6.2
373.039	6.41
373.248	6.49
373.457	5.48
373.666	5.38
373.874	6.14
374.083	6.12
374.292	6.73
374.501	6.64
374.71	6.16
374.919	6.17
375.128	5.66
375.336	5.35
375.545	5.66
375.754	6.55
375.963	6.62
376.171	6.76
376.38	6.34
376.589	6.44
376.798	6.28
377.006	5.94
377.215	5.61
377.424	6
377.632	6.43
377.841	5.67
378.05	6.21
378.258	5.99
378.467	5.81
378.675	5.92
378.884	5.53
379.093	5.37
379.301	5.89
379.51	5.57
379.718	5.21
379.927	4.88
380.135	5.13
380.344	4.64
380.552	4.89
380.761	5.05
380.969	5.2
381.177	5.26
381.386	5.28
381.594	5.34
381.803	5.5
382.011	5.44
382.219	5.42
382.428	5.11
382.636	5.12
382.845	5.3
383.053	5.27
383.261	5.46
383.469	5.17
383.678	5.1
383.886	5.08
384.094	5.48
384.302	5.65
384.511	5.32
384.719	5.45
384.927	5.21
385.135	5.13
385.343	5.38
385.552	5.22
385.76	5.62
385.968	5.94
386.176	5.34
386.384	4.7
386.592	4.33
386.8	4.69
387.008	4.87
387.216	4.71
387.424	4.83
387.633	4.46
387.841	4.45
388.049	4.31
388.257	3.75
388.465	4.61
388.672	5.37
388.88	5.67
389.088	5.52
389.296	5.54
389.504	5.82
389.712	5.88
389.92	5.51
390.128	5.39
390.336	5.1
390.544	5.69
390.751	5.52
390.959	5.46
391.167	5.33
391.375	5.51
391.583	5.59
391.79	5.62
391.998	5.39
392.206	5.55
392.414	5.63
392.621	6.07
392.829	5.81
393.037	5.53
393.244	5.33
393.452	5.26
393.66	5.1
393.867	5.09
394.075	5.06
394.283	4.93
394.49	4.74
394.698	5.11
394.905	5
395.113	5.19
395.32	5.14
395.528	4.77
395.735	4.72
395.943	4.38
396.15	4.18
396.358	4.25
396.565	4.17
396.773	4.37
396.98	3.97
397.188	3.88
397.395	3.85
397.602	4.31
397.81	4.41
398.017	4.31
398.225	4.58
398.432	4.7
398.639	4.82
398.847	5.01
399.054	5.04
399.261	4.88
399.468	4.57
399.676	4.58
399.883	4.35
400.09	4.26
400.297	4.85
400.505	4.74
400.712	4.64
400.919	4.33
401.126	3.99
401.333	3.92
401.54	3.86
401.748	4.01
401.955	3.78
402.162	3.51
402.369	3.85
402.576	4.12
402.783	4.32
402.99	4.31
403.197	4.49
403.404	4.85
403.611	5.08
403.818	5.21
404.025	4.95
404.232	5.04
404.439	5.51
404.646	5.35
404.853	5.12
405.06	5.17
405.267	5.52
405.474	5.37
405.681	5.17
405.887	5.03
406.094	5.18
406.301	5.45
406.508	5.02
406.715	4.79
406.922	4.74
407.128	4.23
407.335	3.97
407.542	3.38
407.749	3.64
407.955	3.94
408.162	3.74
408.369	3.55
408.575	3.45
408.782	3.39
408.989	3.28
409.195	3.15
409.402	3.44
409.609	3.44
409.815	3.65
410.022	3.68
410.228	3.42
410.435	3.51
410.642	3.59
410.848	3.65
411.055	4.22
411.261	3.97
411.468	3.92
411.674	4.08
411.881	4.04
412.087	4.3
412.294	4.11
412.5	4.17
412.706	4.26
412.913	3.9
413.119	3.54
413.326	3.25
413.532	3.58
413.738	3.97
413.945	3.71
414.151	3.68
414.357	3.49
414.564	3.56
414.77	3.66
414.976	3.67
415.182	3.86
415.389	4.25
415.595	4.55
415.801	4.48
416.007	4.41
416.214	4.5
416.42	4.66
416.626	4.47
416.832	4.28
417.038	4.32
417.244	4.05
417.45	4.19
417.657	4.07
417.863	4.07
418.069	3.95
418.275	4.01
418.481	3.75
418.687	3.55
418.893	3.65
419.099	3.69
419.305	3.62
419.511	3.71
419.717	3.8
419.923	3.87
420.129	3.77
420.335	3.78
420.541	3.71
420.746	3.88
420.952	4.06
421.158	3.87
421.364	3.82
421.57	3.8
421.776	4.01
421.982	3.69
422.187	3.59
422.393	3.51
422.599	3.59
422.805	3.67
423.01	3.64
423.216	3.53
423.422	3.63
423.628	3.69
423.833	3.76
424.039	3.58
424.245	3.9
424.45	4.04
424.656	4.08
424.862	4.01
425.067	3.85
425.273	3.84
425.478	3.92
425.684	3.95
425.889	3.85
426.095	3.89
426.301	4.03
426.506	3.79
426.712	3.59
426.917	3.78
427.123	3.8
427.328	3.79
427.533	3.81
427.739	3.59
427.944	3.54
428.15	3.74
428.355	3.64
428.561	3.51
428.766	3.42
428.971	3.62
429.177	3.36
429.382	3.32
429.587	3.5
429.793	3.33
429.998	3.73
430.203	3.9
430.408	3.63
430.614	3.46
430.819	3.55
431.024	3.49
431.229	3.38
431.434	3.49
431.64	3.68
431.845	3.65
432.05	3.8
432.255	3.53
432.46	3.55
432.665	3.75
432.87	3.83
433.076	3.73
433.281	4.05
433.486	4.03
433.691	3.91
433.896	3.67
434.101	3.56
434.306	3.51
434.511	3.6
434.716	3.67
434.921	3.76
435.126	3.77
435.331	3.9
435.535	3.62
435.74	3.68
435.945	3.89
436.15	4.1
436.355	4.38
436.56	4.39
436.765	4.3
436.97	4.05
437.174	3.8
437.379	3.64
437.584	3.6
437.789	3.69
437.993	3.72
438.198	3.58
438.403	3.45
438.608	3.2
438.812	3.06
439.017	3.3
439.222	3.26
439.426	3.37
439.631	3.33
439.836	3.2
440.04	3.13
440.245	2.98
440.45	2.96
440.654	2.93
440.859	2.95
441.063	3
441.268	2.78
441.472	2.89
441.677	2.92
441.881	3.22
442.086	3.24
442.29	3.27
442.495	3.41
442.699	3.32
442.904	3.6
443.108	3.67
443.312	3.86
443.517	3.94
443.721	3.77
443.925	3.61
444.13	3.58
444.334	3.58
444.538	3.68
444.743	3.7
444.947	3.9
445.151	3.66
445.356	3.66
445.56	3.74
445.764	3.75
445.968	3.84
446.173	3.84
446.377	3.72
446.581	3.69
446.785	3.61
446.989	3.56
447.193	3.48
447.398	3.66
447.602	3.6
447.806	3.49
448.01	3.53
448.214	3.47
448.418	3.41
448.622	3.36
448.826	3.49
449.03	3.52
449.234	3.57
449.438	3.59
449.642	3.38
449.846	3.59
450.05	3.48
450.254	3.35
450.458	3.49
450.662	3.66
450.866	3.76
451.069	3.66
451.273	3.58
451.477	3.67
451.681	3.77
451.885	3.85
452.089	3.65
452.292	3.65
452.496	3.57
452.7	3.44
452.904	3.51
453.107	3.46
453.311	3.38
453.515	3.51
453.719	3.36
453.922	3.15
454.126	3.09
454.33	3.28
454.533	3.25
454.737	3.15
454.94	3.33
455.144	3.27
455.348	3.33
455.551	3.32
455.755	3.14
455.958	3.14
456.162	3.14
456.365	3.21
456.569	3.07
456.772	3.17
456.976	3.58
457.179	3.34
457.383	3.33
457.586	3.41
457.79	3.38
457.993	3.47
458.196	3.32
458.4	3.4
458.603	3.25
458.807	3.32
459.01	3.22
459.213	3.13
459.417	3.34
459.62	3.31
459.823	3.27
460.026	3.42
460.23	3.37
460.433	3.31
460.636	3.21
460.839	3.3
461.042	3.27
461.246	3.29
461.449	3.41
461.652	3.26
461.855	3.22
462.058	3.11
462.261	3.14
462.464	3.19
462.668	3.32
462.871	3.46
463.074	3.51
463.277	3.43
463.48	3.42
463.683	3.31
463.886	3.46
464.089	3.42
