Data from 2937866_Reflection_1.txt Node
Date: Wed Jul 15 15:10:31 EDT 2015
User: robert
Spectrometer: USB4E03001
Autoset integration time: false
Trigger mode: 4
Integration Time (sec): 1.000000E-1
Scans to average: 10
Electric dark correction enabled: true
Nonlinearity correction enabled: false
Boxcar width: 5
Stray light correction enabled: false
XAxis mode: Wavelengths
Stop averaging: false
Number of Pixels in Spectrum: 3648
>>>>>Begin Spectral Data<<<<<
177.566	-2007.56
177.785	-422.28
178.005	1390.2
178.225	706.56
178.445	382.52
178.665	466.14
178.885	217.56
179.105	659.09
179.324	-83.02
179.544	-47.85
179.764	-94.56
179.984	-94.49
180.204	-64.78
180.423	-94.73
180.643	-94.14
180.863	-171.27
181.083	-227.09
181.302	-358.49
181.522	-123.93
181.742	-277.35
181.961	-1452.63
182.181	-967.71
182.401	551.85
182.621	172.87
182.84	122.3
183.06	107.08
183.279	99.03
183.499	124.39
183.719	127.85
183.938	145.51
184.158	220.95
184.377	186.67
184.597	196.25
184.816	258.7
185.036	517.73
185.256	441.1
185.475	350.61
185.695	-2465.47
185.914	-503.43
186.134	-148.24
186.353	-194.72
186.572	-224.2
186.792	-217.46
187.011	-171.11
187.231	-132.03
187.45	-168.65
187.67	-192.9
187.889	-146.27
188.108	-638.88
188.328	387.95
188.547	254.64
188.766	629.52
188.986	394.65
189.205	348.17
189.424	201.01
189.644	301.09
189.863	546.42
190.082	497.53
190.302	-25492.86
190.521	-1376.71
190.74	-104.56
190.959	-205.39
191.178	-119.61
191.398	-103.32
191.617	-20.21
191.836	-8.55
192.055	-50.1
192.274	-93.76
192.494	-134.64
192.713	-246.14
192.932	-133.57
193.151	-185.15
193.37	-200.13
193.589	-1293.72
193.808	-3449.48
194.027	419.39
194.246	192.95
194.465	196.74
194.685	285.92
194.904	226.12
195.123	225.86
195.342	195.2
195.561	216
195.78	163.85
195.999	144.62
196.218	137.85
196.436	124.13
196.655	169.86
196.874	147.55
197.093	143.59
197.312	168.22
197.531	168.06
197.75	146.81
197.969	155.6
198.188	207.73
198.407	211.69
198.625	219.92
198.844	305.45
199.063	213.32
199.282	705.67
199.501	254.94
199.719	230.95
199.938	357.35
200.157	1467.33
200.376	667.52
200.594	498.18
200.813	1022.21
201.032	2968.55
201.251	3772.2
201.469	-863.05
201.688	385.12
201.907	397.2
202.125	416.85
202.344	405.34
202.563	251.37
202.781	241.49
203	234.09
203.218	311.69
203.437	212.89
203.656	1492.8
203.874	-1340.19
204.093	-389.92
204.311	-178.06
204.53	-141.92
204.748	-149.66
204.967	-184.77
205.185	-171.86
205.404	-176.94
205.622	-217.94
205.841	-336.61
206.059	-1049.66
206.278	14696.88
206.496	2193.66
206.715	1476.4
206.933	7466.02
207.151	2440.94
207.37	1102.83
207.588	1148.89
207.806	649.54
208.025	670.72
208.243	-4320.1
208.461	-2345.78
208.68	-477.09
208.898	-1690.28
209.116	-757.09
209.335	601.39
209.553	632.48
209.771	3105.15
209.989	439.06
210.208	472.35
210.426	2694.44
210.644	-475.36
210.862	938.83
211.081	235.85
211.299	-768.82
211.517	-510.09
211.735	-44.28
211.953	-71.62
212.171	-61.18
212.39	-44.89
212.608	-37.51
212.826	-139.84
213.044	-3038.19
213.262	649.16
213.48	-2385.65
213.698	710.49
213.916	140.58
214.134	113.19
214.352	232.12
214.57	108.77
214.788	114.79
215.006	193.46
215.224	147.28
215.442	136.59
215.66	242.33
215.878	137.84
216.096	207.88
216.314	205.94
216.532	242.42
216.75	145.8
216.968	223.57
217.185	216.12
217.403	269.18
217.621	725.75
217.839	798.03
218.057	851.9
218.275	-403.19
218.492	-1432.16
218.71	-1108.12
218.928	-436.71
219.146	-128.5
219.363	-122.84
219.581	-35.44
219.799	2.82
220.017	-16.13
220.234	-34.1
220.452	7.84
220.67	24.16
220.887	33.37
221.105	75.05
221.323	209.72
221.54	125.76
221.758	66.22
221.976	100.59
222.193	90.61
222.411	93.89
222.629	72.38
222.846	95.79
223.064	86.66
223.281	81.19
223.499	102.03
223.716	119.03
223.934	107.64
224.151	213.72
224.369	154.03
224.586	271.3
224.804	399.87
225.021	1293.46
225.239	696.82
225.456	232.67
225.674	286.1
225.891	242.29
226.108	281.97
226.326	230.24
226.543	495.95
226.76	314.04
226.978	91.95
227.195	67.59
227.413	40.08
227.63	43.3
227.847	39.44
228.064	36.37
228.282	34.14
228.499	33.33
228.716	31.42
228.934	31.64
229.151	34.44
229.368	33.92
229.585	32.72
229.802	33.29
230.02	32.34
230.237	32.77
230.454	26.94
230.671	31.62
230.888	29.89
231.105	32.2
231.323	27.14
231.54	20.88
231.757	22.67
231.974	17.38
232.191	19.97
232.408	18.77
232.625	14.95
232.842	26.38
233.059	27.54
233.276	20.14
233.493	19.74
233.71	45.02
233.927	51.81
234.144	48.94
234.361	57.3
234.578	56.01
234.795	58
235.012	56.86
235.229	63.88
235.446	60.39
235.663	59.92
235.879	53.54
236.096	40.08
236.313	37.66
236.53	45.39
236.747	45.61
236.964	40.13
237.181	40.45
237.397	42.74
237.614	30.97
237.831	32.38
238.048	41.67
238.264	45.06
238.481	54.18
238.698	49.93
238.915	41.89
239.131	36.5
239.348	39
239.565	45.4
239.781	40.81
239.998	34.32
240.215	31.84
240.431	21.71
240.648	24.23
240.865	26.62
241.081	25.88
241.298	21.35
241.514	19.42
241.731	17.13
241.947	17
242.164	18.33
242.38	19.43
242.597	20.98
242.814	22.99
243.03	24.7
243.246	21.47
243.463	20.67
243.679	21.51
243.896	20.27
244.112	19.31
244.329	19.54
244.545	20.67
244.762	23.29
244.978	21.62
245.194	25.6
245.411	22.79
245.627	26.12
245.843	26.43
246.06	27.59
246.276	28.14
246.492	27.7
246.709	25.51
246.925	23.35
247.141	22.58
247.357	22.13
247.574	20.13
247.79	19.96
248.006	18.96
248.222	17.95
248.439	16.27
248.655	15.28
248.871	14.71
249.087	13.42
249.303	12.55
249.519	11.61
249.736	12.04
249.952	12.4
250.168	13.13
250.384	10.81
250.6	12.32
250.816	15.77
251.032	17.76
251.248	18.22
251.464	20.75
251.68	21.66
251.896	19.82
252.112	17.59
252.328	15.53
252.544	14.09
252.76	16.73
252.976	14.52
253.192	12.32
253.408	10.56
253.624	13.39
253.84	14.13
254.056	16.46
254.272	17.46
254.487	20.5
254.703	26.34
254.919	28.91
255.135	26.08
255.351	30.7
255.567	31.38
255.782	31.97
255.998	28.53
256.214	27.26
256.43	24.69
256.646	25.8
256.861	23.04
257.077	18.44
257.293	17.11
257.508	19.22
257.724	15.77
257.94	14.83
258.155	13.43
258.371	13.25
258.587	13.23
258.802	14.82
259.018	13.43
259.234	14.65
259.449	14.34
259.665	13.13
259.88	12.68
260.096	13.38
260.312	14.02
260.527	15.12
260.743	15.63
260.958	14.96
261.174	13.1
261.389	13.85
261.605	13.08
261.82	13.55
262.036	14.81
262.251	15.33
262.466	13.61
262.682	13.49
262.897	14.17
263.113	12.72
263.328	13.57
263.543	16.55
263.759	15.49
263.974	15.27
264.189	14.08
264.405	11.88
264.62	12.36
264.835	12.41
265.051	11.32
265.266	6.93
265.481	6.69
265.696	5.67
265.912	4.57
266.127	6.54
266.342	8.1
266.557	7.93
266.773	10.12
266.988	9.91
267.203	12.24
267.418	10.86
267.633	11.59
267.848	13.39
268.064	12.97
268.279	10.8
268.494	10.88
268.709	10.12
268.924	10.45
269.139	8.51
269.354	7.8
269.569	6.43
269.784	8.09
269.999	10.24
270.214	8.66
270.429	10.31
270.644	12.65
270.859	10.89
271.074	11.18
271.289	12.41
271.504	12.93
271.719	12.73
271.934	13.41
272.149	13.5
272.363	12.93
272.578	14.54
272.793	13.44
273.008	14.27
273.223	14.19
273.438	13.73
273.653	11.88
273.867	11.79
274.082	12.28
274.297	12.43
274.512	11.49
274.726	9.52
274.941	7.52
275.156	9.19
275.371	5.82
275.585	6.03
275.8	5.79
276.015	8.4
276.229	8.69
276.444	8.77
276.659	7.01
276.873	8.37
277.088	8.72
277.302	7.07
277.517	7.07
277.732	9.14
277.946	8.34
278.161	10.29
278.375	7.02
278.59	8.45
278.804	7.8
279.019	9.1
279.233	8.43
279.448	9.65
279.662	11.6
279.877	11.8
280.091	12.98
280.306	14.58
280.52	13.45
280.735	16.25
280.949	16.89
281.163	16.34
281.378	15.68
281.592	15.66
281.806	15.94
282.021	15.5
282.235	13.42
282.449	13.54
282.664	14.59
282.878	15.75
283.092	15.04
283.307	15.27
283.521	15.84
283.735	16
283.949	16.35
284.164	15.57
284.378	14.92
284.592	15.43
284.806	13.24
285.02	11.68
285.234	10.86
285.449	11.04
285.663	10.15
285.877	11.11
286.091	10.5
286.305	11.59
286.519	9.88
286.733	12.05
286.947	11.94
287.161	13.12
287.375	13.63
287.589	12.72
287.803	12.8
288.017	13.52
288.231	10.96
288.445	12.41
288.659	11.16
288.873	13.17
289.087	12.04
289.301	13.44
289.515	13.82
289.729	14.48
289.943	16.41
290.157	15.42
290.371	15.11
290.584	16.56
290.798	16.11
291.012	15.59
291.226	16.73
291.44	16.71
291.654	15.7
291.867	15.34
292.081	14.47
292.295	13.1
292.509	12.83
292.722	13.09
292.936	12.95
293.15	12.37
293.364	13.67
293.577	12.25
293.791	11.4
294.005	12.48
294.218	10.88
294.432	11.34
294.645	11.76
294.859	12.6
295.073	11.45
295.286	11.51
295.5	12.58
295.713	11.3
295.927	12.22
296.14	13.05
296.354	12.02
296.568	13.01
296.781	12.91
296.994	13.81
297.208	14.28
297.421	14.61
297.635	13.28
297.848	13.37
298.062	13.8
298.275	14.16
298.489	13.21
298.702	15.42
298.915	15.71
299.129	15.46
299.342	13.2
299.555	12.55
299.769	11.83
299.982	15.85
300.195	15.28
300.409	14.43
300.622	13.37
300.835	13.17
301.048	11.21
301.262	10.32
301.475	11.76
301.688	12.16
301.901	11.71
302.115	12.72
302.328	11.03
302.541	11.61
302.754	11.03
302.967	12.47
303.18	13.99
303.393	15.11
303.607	15.82
303.82	14.68
304.033	16.75
304.246	16.6
304.459	16.54
304.672	16.03
304.885	16.15
305.098	17.81
305.311	15.68
305.524	15.12
305.737	14.95
305.95	16.61
306.163	16.97
306.376	15.66
306.589	16.2
306.802	15.12
307.015	14.98
307.228	15.43
307.44	16.32
307.653	19.56
307.866	20.74
308.079	19.17
308.292	17.83
308.505	17.41
308.718	17.43
308.93	17.97
309.143	18.36
309.356	17.6
309.569	16.44
309.781	16.32
309.994	15.75
310.207	15.99
310.42	16.8
310.632	17.77
310.845	19.2
311.058	19.48
311.27	18.62
311.483	16.59
311.696	17.45
311.908	17.27
312.121	15.84
312.333	14.01
312.546	13.67
312.759	12.95
312.971	12.78
313.184	10.64
313.396	10.89
313.609	11.9
313.821	13.93
314.034	13.89
314.246	13.65
314.459	14.58
314.671	15.06
314.884	13.29
315.096	13.46
315.309	11.94
315.521	15.08
315.733	14.73
315.946	16.6
316.158	17.69
316.371	18.5
316.583	21.01
316.795	20.52
317.008	19.7
317.22	20.6
317.432	19.57
317.644	20.04
317.857	16.74
318.069	13.97
318.281	12.28
318.494	15.68
318.706	14.77
318.918	14.31
319.13	13.58
319.342	15.74
319.555	14.68
319.767	14.73
319.979	14.13
320.191	15.7
320.403	18.53
320.615	17.89
320.827	16.57
321.039	17.45
321.252	17.05
321.464	19.21
321.676	21.19
321.888	20.67
322.1	22.47
322.312	22.89
322.524	23.37
322.736	22.5
322.948	23.74
323.16	23.45
323.372	22.01
323.584	20.68
323.796	20.58
324.007	17.85
324.219	19.53
324.431	20.1
324.643	20.03
324.855	18.89
325.067	18.36
325.279	17.71
325.491	16.05
325.702	16.13
325.914	18.14
326.126	17.66
326.338	17.93
326.55	18.02
326.761	16.77
326.973	16.88
327.185	16.73
327.396	18.11
327.608	18.07
327.82	18.74
328.032	19.77
328.243	18.88
328.455	19.68
328.666	18.57
328.878	19.49
329.09	19.78
329.301	20.65
329.513	21.96
329.725	21.67
329.936	22.6
330.148	22.77
330.359	22.64
330.571	22.43
330.782	21.35
330.994	23.98
331.205	22.68
331.417	23.13
331.628	21.08
331.84	23.18
332.051	23.11
332.262	21.53
332.474	21.2
332.685	19.45
332.897	20.17
333.108	21.28
333.319	20.14
333.531	22.01
333.742	22.34
333.953	22.27
334.165	19.47
334.376	20.19
334.587	20.32
334.799	20.21
335.01	21.06
335.221	21.64
335.432	20.99
335.644	20.32
335.855	19.8
336.066	18.94
336.277	21.21
336.488	22.21
336.7	21.66
336.911	22.2
337.122	23.06
337.333	23.65
337.544	22.36
337.755	22.72
337.966	23.56
338.177	22.07
338.388	22.72
338.599	21.91
338.811	21.36
339.022	21.39
339.233	21.37
339.444	20.76
339.655	20.53
339.866	21.42
340.076	21.32
340.287	21.11
340.498	21.3
340.709	20.37
340.92	19.84
341.131	20.19
341.342	20.18
341.553	20.41
341.764	21.41
341.975	22.29
342.185	20.45
342.396	19.58
342.607	20.51
342.818	20.4
343.029	20.17
343.239	20.69
343.45	18.6
343.661	17.97
343.872	17.73
344.082	16.93
344.293	16.32
344.504	17.87
344.714	19.09
344.925	17.75
345.136	17.67
345.346	18.19
345.557	18.51
345.768	19.95
345.978	20.5
346.189	20.38
346.399	21.42
346.61	21.15
346.821	20.8
347.031	20.98
347.242	22.36
347.452	21.88
347.663	19.49
347.873	18.58
348.084	18.03
348.294	18.16
348.504	17.4
348.715	14.87
348.925	13.77
349.136	14.72
349.346	11.81
349.557	9.53
349.767	11.03
349.977	13.87
350.188	14.7
350.398	15.92
350.608	15.49
350.819	15.52
351.029	16.91
351.239	18.11
351.449	16.47
351.66	17.77
351.87	18.96
352.08	19.39
352.29	20.13
352.501	19.58
352.711	18.4
352.921	19.2
353.131	19.44
353.341	18.39
353.552	18.6
353.762	19.36
353.972	19.83
354.182	20.55
354.392	20.46
354.602	19.66
354.812	19.5
355.022	20.66
355.232	20.87
355.442	21.16
355.652	22.08
355.862	21.86
356.072	21.61
356.282	20.4
356.492	18.41
356.702	18.35
356.912	18.11
357.122	17.92
357.332	16.72
357.542	16.29
357.752	16.53
357.962	16.56
358.171	18.29
358.381	18.12
358.591	18.84
358.801	19.46
359.011	19.27
359.221	19.21
359.43	19.98
359.64	20.68
359.85	19.8
360.06	19.36
360.269	18.97
360.479	16.84
360.689	17.67
360.899	16.81
361.108	17.81
361.318	17.62
361.528	18.44
361.737	18.1
361.947	17.23
362.156	17.08
362.366	16.92
362.576	16.92
362.785	18.6
362.995	18.47
363.204	19.35
363.414	19.07
363.623	20.27
363.833	19.25
364.042	19.11
364.252	18.88
364.461	19.28
364.671	20.05
364.88	20.16
365.09	18.9
365.299	18.08
365.509	17.42
365.718	17.04
365.927	15.13
366.137	16.03
366.346	15.78
366.555	16.24
366.765	16.27
366.974	16.22
367.183	15.75
367.393	14.68
367.602	15.47
367.811	16.11
368.021	14.98
368.23	16.11
368.439	14.42
368.648	14.1
368.857	15.48
369.067	15.29
369.276	14.67
369.485	14.92
369.694	15.87
369.903	15.63
370.112	15.53
370.321	16.2
370.531	16.05
370.74	16.4
370.949	17.32
371.158	16.77
371.367	17.19
371.576	17.41
371.785	17.63
371.994	17.03
372.203	16.83
372.412	16.83
372.621	17.46
372.83	17.49
373.039	18.4
373.248	17.03
373.457	16.63
373.666	16.3
373.874	15.58
374.083	14.85
374.292	15.61
374.501	15.36
374.71	14.72
374.919	14.59
375.128	14.32
375.336	13.36
375.545	13.49
375.754	13.5
375.963	13.2
376.171	14.15
376.38	13.93
376.589	12.61
376.798	12.9
377.006	13.54
377.215	12.9
377.424	12.67
377.632	12.06
377.841	11.77
378.05	11.64
378.258	11.71
378.467	11.72
378.675	12.23
378.884	13.12
379.093	12.64
379.301	12.03
379.51	12.29
379.718	12.25
379.927	12.99
380.135	13.93
380.344	13.97
380.552	13.88
380.761	13.66
380.969	13.4
381.177	12.83
381.386	12.75
381.594	12.34
381.803	11.66
382.011	11.11
382.219	11.27
382.428	10.9
382.636	10.86
382.845	10.89
383.053	10.27
383.261	9.91
383.469	9.81
383.678	9.52
383.886	9.85
384.094	9.92
384.302	10.58
384.511	10.71
384.719	10.8
384.927	10.72
385.135	11
385.343	11.1
385.552	11.13
385.76	11.03
385.968	11.25
386.176	11.36
386.384	11.52
386.592	10.69
386.8	10.82
387.008	10.3
387.216	9.9
387.424	9.6
387.633	9.71
387.841	9.59
388.049	9.78
388.257	10.11
388.465	10.7
388.672	10.72
388.88	10.73
389.088	9.97
389.296	9.91
389.504	10.35
389.712	10.3
389.92	10.2
390.128	10.08
390.336	9.89
390.544	9.8
390.751	9.57
390.959	9.29
391.167	9.32
391.375	9.23
391.583	9.11
391.79	8.86
391.998	9.21
392.206	9.01
392.414	9.12
392.621	9.08
392.829	8.73
393.037	8.53
393.244	8.8
393.452	8.86
393.66	9.02
393.867	9.27
394.075	9.09
394.283	8.43
394.49	8.07
394.698	8.09
394.905	8.16
395.113	8.59
395.32	8.25
395.528	8.05
395.735	8.14
395.943	8.68
396.15	8.97
396.358	8.97
396.565	8.97
396.773	9.58
396.98	9.76
397.188	10.17
397.395	10.03
397.602	10.24
397.81	10.37
398.017	9.96
398.225	9.57
398.432	8.93
398.639	8.82
398.847	8.93
399.054	8.4
399.261	8.14
399.468	7.48
399.676	6.92
399.883	7.24
400.09	7.29
400.297	7.66
400.505	7.59
400.712	8.13
400.919	8.33
401.126	8.6
401.333	9.23
401.54	9.13
401.748	9.05
401.955	9.26
402.162	8.6
402.369	8.27
402.576	8.14
402.783	8.3
402.99	8
403.197	8.06
403.404	8.1
403.611	7.79
403.818	8.03
404.025	8.02
404.232	8.42
404.439	8.7
404.646	8.84
404.853	9.09
405.06	9.02
405.267	9.11
405.474	9.12
405.681	9.11
405.887	9.01
406.094	8.85
406.301	9.32
406.508	8.88
406.715	8.76
406.922	8.61
407.128	8.32
407.335	8.42
407.542	8.41
407.749	8.24
407.955	8.26
408.162	8.14
408.369	8.19
408.575	8.29
408.782	8.4
408.989	8.77
409.195	8.9
409.402	8.88
409.609	8.8
409.815	8.53
410.022	8.96
410.228	9.12
410.435	9.03
410.642	8.84
410.848	8.31
411.055	8.41
411.261	7.95
411.468	7.89
411.674	8.2
411.881	7.91
412.087	8.15
412.294	7.9
412.5	7.39
412.706	8.08
412.913	7.93
413.119	8.26
413.326	7.93
413.532	7.82
413.738	8.17
413.945	8.16
414.151	8.24
414.357	7.97
414.564	8.28
414.77	8.43
414.976	8.04
415.182	8.58
415.389	8.34
415.595	8.45
415.801	8.56
416.007	8.3
416.214	7.84
416.42	7.79
416.626	8.28
416.832	8.15
417.038	8.12
417.244	8.26
417.45	7.8
417.657	7.89
417.863	7.87
418.069	7.97
418.275	7.95
418.481	8.09
418.687	8.11
418.893	7.92
419.099	7.69
419.305	7.72
419.511	7.52
419.717	7.87
419.923	7.94
420.129	8.1
420.335	8.03
420.541	8.03
420.746	8.01
420.952	7.93
421.158	7.89
421.364	8.01
421.57	8.05
421.776	8.17
421.982	7.99
422.187	7.91
422.393	7.89
422.599	7.99
422.805	8.23
423.01	8.35
423.216	8.48
423.422	8.54
423.628	8.33
423.833	8.4
424.039	8.29
424.245	8.29
424.45	8.19
424.656	7.94
424.862	7.79
425.067	7.54
425.273	7.53
425.478	7.47
425.684	7.42
425.889	7.57
426.095	7.52
426.301	7.43
426.506	7.34
426.712	7.51
426.917	7.8
427.123	7.85
427.328	7.82
427.533	7.62
427.739	7.79
427.944	7.72
428.15	7.7
428.355	7.35
428.561	7.72
428.766	7.94
428.971	7.99
429.177	7.98
429.382	8.16
429.587	8.21
429.793	8.24
429.998	8.03
430.203	8.1
430.408	7.84
430.614	8.11
430.819	8.08
431.024	8.07
431.229	8
431.434	7.85
431.64	7.71
431.845	7.81
432.05	7.95
432.255	7.9
432.46	7.8
432.665	7.96
432.87	8.06
433.076	7.96
433.281	7.99
433.486	7.95
433.691	7.9
433.896	7.86
434.101	7.69
434.306	7.77
434.511	7.89
434.716	7.91
434.921	7.82
435.126	7.55
435.331	7.45
435.535	7.32
435.74	7.44
435.945	7.51
436.15	7.5
436.355	7.68
436.56	7.81
436.765	7.97
436.97	8.04
437.174	8.26
437.379	8.38
437.584	8.35
437.789	8.19
437.993	8
438.198	8.06
438.403	8.27
438.608	8.21
438.812	8.18
439.017	8.12
439.222	8.11
439.426	8.08
439.631	8.01
439.836	8.1
440.04	8.2
440.245	8.28
440.45	8.26
440.654	8.03
440.859	7.99
441.063	7.81
441.268	7.61
441.472	7.62
441.677	7.56
441.881	7.45
442.086	7.4
442.29	7.51
442.495	7.44
442.699	7.4
442.904	7.59
443.108	7.66
443.312	7.35
443.517	7.45
443.721	7.3
443.925	7.32
444.13	7.56
444.334	7.41
444.538	7.4
444.743	7.39
444.947	7.47
445.151	7.2
445.356	6.97
445.56	7.17
445.764	7.16
445.968	7.2
446.173	7.31
446.377	7.27
446.581	7.27
446.785	7.35
446.989	7.38
447.193	7.2
447.398	7.24
447.602	7.39
447.806	7.4
448.01	7.34
448.214	7.28
448.418	7.15
448.622	7.23
448.826	7.32
449.03	6.96
449.234	7.01
449.438	6.88
449.642	6.96
449.846	6.9
450.05	6.82
450.254	6.83
450.458	6.94
450.662	7.11
450.866	6.89
451.069	6.93
451.273	7.15
451.477	7.03
451.681	7.41
451.885	7.45
452.089	7.56
452.292	7.68
452.496	7.74
452.7	7.79
452.904	7.68
453.107	7.71
453.311	7.77
453.515	7.74
453.719	7.69
453.922	7.59
454.126	7.67
454.33	7.82
454.533	7.63
454.737	7.81
454.94	7.79
455.144	7.62
455.348	7.66
455.551	7.31
455.755	7.56
455.958	7.73
456.162	7.79
456.365	7.64
456.569	7.57
456.772	7.86
456.976	7.67
457.179	7.54
457.383	7.68
457.586	7.61
457.79	7.93
457.993	7.54
458.196	7.3
458.4	7.19
458.603	7.24
