Data from 2937815_Reflection_3.txt Node
Date: Wed Jul 15 17:36:15 EDT 2015
User: robert
Spectrometer: USB4E03001
Autoset integration time: false
Trigger mode: 4
Integration Time (sec): 1.000000E-1
Scans to average: 10
Electric dark correction enabled: true
Nonlinearity correction enabled: false
Boxcar width: 5
Stray light correction enabled: false
XAxis mode: Wavelengths
Stop averaging: false
Number of Pixels in Spectrum: 3648
>>>>>Begin Spectral Data<<<<<
177.566	22.86
177.785	30.31
178.005	7.68
178.225	-337.57
178.445	734.46
178.665	213.99
178.885	61.3
179.105	14.48
179.324	-79.9
179.544	104.62
179.764	-42.62
179.984	67.3
180.204	70.93
180.423	103.69
180.643	89.18
180.863	87.88
181.083	57.66
181.302	42.01
181.522	45.41
181.742	48.51
181.961	58.89
182.181	78.19
182.401	117.99
182.621	112.87
182.84	56.85
183.06	87.48
183.279	56.74
183.499	123.06
183.719	102.42
183.938	78.02
184.158	68.14
184.377	33.93
184.597	4.23
184.816	-16.67
185.036	-16.02
185.256	40.41
185.475	8.22
185.695	-12.5
185.914	-19.71
186.134	-3.29
186.353	15.81
186.572	4.51
186.792	46.09
187.011	32.42
187.231	25.77
187.45	21.59
187.67	-3.02
187.889	11.25
188.108	32.12
188.328	35.41
188.547	55.02
188.766	40.66
188.986	47.96
189.205	-29.98
189.424	2.75
189.644	37.9
189.863	58.02
190.082	94.49
190.302	111.52
190.521	99.38
190.74	88.08
190.959	63.21
191.178	-6.91
191.398	52.32
191.617	-1230.27
191.836	-145.58
192.055	-231.21
192.274	-53.69
192.494	43.06
192.713	-22.51
192.932	-86.67
193.151	-27.54
193.37	-9.21
193.589	-9725.93
193.808	525.78
194.027	-6.88
194.246	126.02
194.465	757.87
194.685	-35.21
194.904	41.88
195.123	69.49
195.342	34.67
195.561	-77.38
195.78	37.81
195.999	-151.53
196.218	-112.38
196.436	-2.22
196.655	11.95
196.874	-9.87
197.093	-25.86
197.312	2.66
197.531	7.34
197.75	26.89
197.969	30.02
198.188	26.46
198.407	44.71
198.625	38.72
198.844	45.67
199.063	103.63
199.282	63.82
199.501	31.42
199.719	-501.75
199.938	270.65
200.157	267.73
200.376	-890.25
200.594	-564.06
200.813	-255.82
201.032	-518.7
201.251	-1708.57
201.469	2262
201.688	3303.53
201.907	-207.97
202.125	-348.95
202.344	-5571.43
202.563	202.9
202.781	191.4
203	204.82
203.218	198.1
203.437	240.99
203.656	-698.78
203.874	-686.02
204.093	-147.73
204.311	-295.04
204.53	-16.02
204.748	96.15
204.967	52.29
205.185	77.9
205.404	170.85
205.622	101.73
205.841	118.99
206.059	264.88
206.278	161.83
206.496	208.58
206.715	250.46
206.933	136.84
207.151	173.98
207.37	408.8
207.588	231.53
207.806	123.02
208.025	161.05
208.243	189.41
208.461	254.06
208.68	138.25
208.898	216.67
209.116	258.4
209.335	248.36
209.553	-7023.38
209.771	-202.85
209.989	482.34
210.208	559.12
210.426	222.83
210.644	165.51
210.862	196.35
211.081	6.32
211.299	-158.89
211.517	371.01
211.735	3306.03
211.953	1154.97
212.171	2801.55
212.39	179.98
212.608	79.67
212.826	52.5
213.044	6.13
213.262	1.16
213.48	3.2
213.698	-33.4
213.916	-75.08
214.134	-101.88
214.352	-234.07
214.57	-182.38
214.788	-234.46
215.006	-97.37
215.224	146.85
215.442	96.79
215.66	-4.28
215.878	215.78
216.096	164.77
216.314	313.92
216.532	-4.08
216.75	70.17
216.968	23.23
217.185	17.68
217.403	-124.91
217.621	-36.2
217.839	-72.13
218.057	-108.26
218.275	-80.02
218.492	-26.63
218.71	-5.81
218.928	2.44
219.146	28.06
219.363	3.14
219.581	-28.22
219.799	-30.99
220.017	-77.75
220.234	-40.92
220.452	-28.94
220.67	18.91
220.887	13.49
221.105	-11.15
221.323	30.39
221.54	46.47
221.758	47.55
221.976	54.71
222.193	54.08
222.411	72.1
222.629	71.39
222.846	60.61
223.064	59.43
223.281	52.14
223.499	60.53
223.716	44.2
223.934	33.67
224.151	28.48
224.369	15.36
224.586	28.18
224.804	0.15
225.021	-15.59
225.239	-27.22
225.456	-45.07
225.674	2.45
225.891	18.14
226.108	9.47
226.326	20.21
226.543	16.14
226.76	15.6
226.978	16.29
227.195	24.68
227.413	22.07
227.63	33.2
227.847	30.57
228.064	20.3
228.282	14.3
228.499	12.95
228.716	6.1
228.934	7.31
229.151	12.02
229.368	9.84
229.585	6.4
229.802	3.52
230.02	2.87
230.237	2.43
230.454	2.02
230.671	1.72
230.888	0.62
231.105	2.4
231.323	-0.32
231.54	-9.82
231.757	-16.62
231.974	-16.46
232.191	-12.49
232.408	-17.11
232.625	-16.11
232.842	-16.92
233.059	-20.27
233.276	-12.73
233.493	-9.71
233.71	-16.76
233.927	-19.68
234.144	-8.81
234.361	-13.67
234.578	-2.65
234.795	-1.58
235.012	-9.09
235.229	-5.81
235.446	3.23
235.663	6.85
235.879	8.98
236.096	16.17
236.313	20.27
236.53	20.54
236.747	25.04
236.964	20.56
237.181	23.67
237.397	23.88
237.614	23.43
237.831	23.32
238.048	22.44
238.264	22.48
238.481	20.31
238.698	15.2
238.915	14.11
239.131	15.55
239.348	15.49
239.565	15.25
239.781	19.53
239.998	21.96
240.215	20.16
240.431	17.72
240.648	20.08
240.865	19.35
241.081	21.08
241.298	19.56
241.514	17.42
241.731	20.35
241.947	18.76
242.164	18.86
242.38	15.69
242.597	14.04
242.814	15.21
243.03	12.39
243.246	13.3
243.463	11.17
243.679	10.99
243.896	11.72
244.112	9.35
244.329	6.47
244.545	7.52
244.762	8.43
244.978	10.25
245.194	8.75
245.411	9.03
245.627	7.06
245.843	8.54
246.06	10.66
246.276	8.86
246.492	9.33
246.709	12.07
246.925	10.56
247.141	11.49
247.357	11.32
247.574	10.51
247.79	10.9
248.006	11.67
248.222	11.84
248.439	10.33
248.655	9.75
248.871	9
249.087	7.11
249.303	7.37
249.519	7.2
249.736	5.14
249.952	7.14
250.168	6.38
250.384	5.1
250.6	5.5
250.816	7.9
251.032	10.42
251.248	9.51
251.464	12.96
251.68	11.68
251.896	9.15
252.112	9.41
252.328	7.98
252.544	7.52
252.76	6.97
252.976	6.6
253.192	5.26
253.408	4.43
253.624	7.47
253.84	1.86
254.056	0.91
254.272	1.45
254.487	-1.15
254.703	-2.29
254.919	-2.67
255.135	-3.17
255.351	-3.39
255.567	-2.06
255.782	0.09
255.998	-3.97
256.214	-0.96
256.43	1.79
256.646	3.75
256.861	8.01
257.077	8.37
257.293	7.75
257.508	5.88
257.724	5.78
257.94	4.79
258.155	4.13
258.371	5.16
258.587	5.51
258.802	6.01
259.018	6.1
259.234	6.45
259.449	7.42
259.665	7.73
259.88	9.13
260.096	9.97
260.312	9.34
260.527	9.29
260.743	9.72
260.958	9.59
261.174	7.85
261.389	6.59
261.605	6
261.82	4.63
262.036	4.36
262.251	3.88
262.466	1.18
262.682	0.15
262.897	-0.31
263.113	-2.2
263.328	-2.49
263.543	1.24
263.759	3.53
263.974	3.36
264.189	3.53
264.405	2.13
264.62	1.4
264.835	3.99
265.051	4.92
265.266	7.53
265.481	8.58
265.696	11.47
265.912	10.19
266.127	9.59
266.342	7.88
266.557	9.62
266.773	10.67
266.988	9.9
267.203	7.2
267.418	8.66
267.633	5.93
267.848	6.08
268.064	4.65
268.279	4.45
268.494	4.34
268.709	4.81
268.924	3.66
269.139	3.07
269.354	2.62
269.569	2.26
269.784	3.77
269.999	4.91
270.214	2.19
270.429	1.59
270.644	2.52
270.859	2.11
271.074	4
271.289	2.9
271.504	4.25
271.719	3.97
271.934	6.18
272.149	3.73
272.363	3.7
272.578	5
272.793	4.36
273.008	4.59
273.223	5.36
273.438	4.03
273.653	4.66
273.867	3.3
274.082	3.63
274.297	1.63
274.512	2.93
274.726	2.54
274.941	2.08
275.156	3.32
275.371	3.73
275.585	2.1
275.8	2.99
276.015	2.94
276.229	4.64
276.444	7.19
276.659	7.88
276.873	7.55
277.088	10.09
277.302	10.48
277.517	11.51
277.732	9.88
277.946	9.14
278.161	9.94
278.375	8.72
278.59	8.58
278.804	7.98
279.019	7.63
279.233	7.31
279.448	3.12
279.662	2.75
279.877	0.83
280.091	1.59
280.306	3.25
280.52	1.45
280.735	3.24
280.949	3.32
281.163	3.23
281.378	4.14
281.592	4.05
281.806	5.14
282.021	4.05
282.235	4.48
282.449	5.31
282.664	7.48
282.878	8.39
283.092	7.06
283.307	6.09
283.521	5.47
283.735	6.35
283.949	5.8
284.164	7.07
284.378	8.35
284.592	7.55
284.806	6.99
285.02	5.11
285.234	4.58
285.449	4.61
285.663	5.21
285.877	4.91
286.091	4.67
286.305	5.26
286.519	4.21
286.733	4.01
286.947	5.55
287.161	5.01
287.375	4.24
287.589	4.23
287.803	2.97
288.017	2.03
288.231	1.67
288.445	1.09
288.659	0.93
288.873	-0.02
289.087	0.45
289.301	0.06
289.515	1.38
289.729	1.49
289.943	2.43
290.157	5.86
290.371	6.67
290.584	8.46
290.798	8.1
291.012	8.45
291.226	10.29
291.44	9.69
291.654	11.24
291.867	10.3
292.081	12.36
292.295	13.36
292.509	13.48
292.722	13.53
292.936	12.63
293.15	15.06
293.364	15.51
293.577	15.3
293.791	15.94
294.005	13.61
294.218	13.55
294.432	12.77
294.645	12.17
294.859	11.27
295.073	11.72
295.286	11.47
295.5	10.2
295.713	10.43
295.927	10.65
296.14	11.06
296.354	11.97
296.568	11.44
296.781	10.44
296.994	10.61
297.208	11.37
297.421	10.61
297.635	10.87
297.848	11.48
298.062	12.04
298.275	11.2
298.489	12.02
298.702	10.58
298.915	10.88
299.129	12.56
299.342	10.51
299.555	9.76
299.769	10.83
299.982	10.85
300.195	10.22
300.409	10
300.622	9.47
300.835	8.97
301.048	10.74
301.262	12.55
301.475	12.84
301.688	13.51
301.901	15.49
302.115	14.26
302.328	13.95
302.541	13.16
302.754	12.4
302.967	14.28
303.18	12.66
303.393	13.85
303.607	13.98
303.82	12.05
304.033	13.29
304.246	13.13
304.459	13.14
304.672	12.25
304.885	13.94
305.098	14.81
305.311	12.44
305.524	13.54
305.737	12.63
305.95	12.05
306.163	13.61
306.376	14.12
306.589	12.58
306.802	12.27
307.015	13.99
307.228	12.31
307.44	12.62
307.653	15.49
307.866	14.77
308.079	15.89
308.292	16.22
308.505	16.07
308.718	16.84
308.93	16.81
309.143	18.93
309.356	18.63
309.569	18.47
309.781	16.99
309.994	16.07
310.207	16.99
310.42	16.19
310.632	15.64
310.845	16
311.058	15.42
311.27	15.21
311.483	13.62
311.696	13.98
311.908	14.91
312.121	16.83
312.333	17.63
312.546	16.98
312.759	18.15
312.971	19.26
313.184	18.85
313.396	18.83
313.609	18.62
313.821	20.21
314.034	20.58
314.246	21.03
314.459	19.04
314.671	19.66
314.884	20.89
315.096	18.12
315.309	17.75
315.521	18
315.733	17.79
315.946	18.71
316.158	18.01
316.371	17.41
316.583	16.09
316.795	17.23
317.008	17.58
317.22	16.56
317.432	17.82
317.644	18.86
317.857	19.14
318.069	19.41
318.281	18.68
318.494	17.86
318.706	17.17
318.918	16.22
319.13	15.42
319.342	13.21
319.555	16.19
319.767	16.15
319.979	15.07
320.191	13.24
320.403	14.73
320.615	14.95
320.827	17.03
321.039	18.65
321.252	21.09
321.464	21.35
321.676	25.79
321.888	23.22
322.1	23.33
322.312	22.55
322.524	22.85
322.736	21.31
322.948	21.79
323.16	20.15
323.372	19.05
323.584	18.11
323.796	17.65
324.007	15.81
324.219	16.23
324.431	16.1
324.643	17.2
324.855	18.41
325.067	18.65
325.279	17.15
325.491	18.93
325.702	20.55
325.914	22.21
326.126	21.85
326.338	21.93
326.55	22.06
326.761	23.01
326.973	22.79
327.185	21.99
327.396	22.83
327.608	25.74
327.82	26.03
328.032	24.32
328.243	23.76
328.455	24.69
328.666	23.8
328.878	24.92
329.09	25.53
329.301	25.65
329.513	26.97
329.725	27.12
329.936	25.99
330.148	26.21
330.359	29.27
330.571	30.34
330.782	31.11
330.994	33.17
331.205	32.46
331.417	32.37
331.628	33.72
331.84	33.94
332.051	35.01
332.262	37.07
332.474	36.79
332.685	34.76
332.897	34.32
333.108	35.04
333.319	34.43
333.531	36.52
333.742	36.35
333.953	36.01
334.165	37.74
334.376	37.5
334.587	37.08
334.799	38.77
335.01	40.51
335.221	40.54
335.432	40.79
335.644	41.27
335.855	41.7
336.066	42.48
336.277	42.92
336.488	42.27
336.7	42.57
336.911	43.07
337.122	43.76
337.333	43.85
337.544	45.17
337.755	45.34
337.966	45.11
338.177	43.31
338.388	44.42
338.599	45.01
338.811	46.01
339.022	46.24
339.233	45.38
339.444	44.88
339.655	44.65
339.866	44.28
340.076	43.87
340.287	45.14
340.498	45.64
340.709	45.54
340.92	45.21
341.131	43.97
341.342	43.68
341.553	45.4
341.764	45.41
341.975	44.87
342.185	44.94
342.396	45.93
342.607	45.45
342.818	46.36
343.029	46.1
343.239	46.01
343.45	47.08
343.661	47.8
343.872	47.06
344.082	46.51
344.293	46.88
344.504	47.39
344.714	46.77
344.925	45.86
345.136	45.44
345.346	44.27
345.557	44.28
345.768	44.38
345.978	43.69
346.189	43.36
346.399	42.63
346.61	42.32
346.821	41.09
347.031	40.66
347.242	41.45
347.452	41.68
347.663	43.09
347.873	44.25
348.084	44.52
348.294	44.86
348.504	45.08
348.715	44.53
348.925	43.9
349.136	44.93
349.346	45.27
349.557	45.23
349.767	45.62
349.977	43.87
350.188	43.22
350.398	42.02
350.608	42.36
350.819	41.78
351.029	43.46
351.239	45.13
351.449	44.85
351.66	44.3
351.87	43.6
352.08	42.82
352.29	44.08
352.501	43.99
352.711	44.38
352.921	45.68
353.131	46.4
353.341	46.04
353.552	45.6
353.762	44.55
353.972	46.24
354.182	47.5
354.392	47.33
354.602	47.71
354.812	46.79
355.022	47.05
355.232	45.1
355.442	44.5
355.652	44.59
355.862	43.75
356.072	44.16
356.282	44.68
356.492	44.26
356.702	44.94
356.912	45.56
357.122	45.84
357.332	45.73
357.542	45.51
357.752	46.77
357.962	45.78
358.171	46.31
358.381	46.7
358.591	45.34
358.801	45.54
359.011	45.4
359.221	44.75
359.43	45.82
359.64	45.74
359.85	46.89
360.06	45.99
360.269	45.83
360.479	45.73
360.689	46.54
360.899	47
361.108	47.31
361.318	47.35
361.528	47.09
361.737	46.72
361.947	46.35
362.156	45.92
362.366	46.29
362.576	47.14
362.785	47.17
362.995	46.67
363.204	46.18
363.414	45.99
363.623	46
363.833	45.68
364.042	45.56
364.252	45.98
364.461	44.61
364.671	44.34
364.88	44.3
365.09	44.19
365.299	43.72
365.509	43.54
365.718	43.14
365.927	42.15
366.137	42.22
366.346	41.43
366.555	41
366.765	42.48
366.974	41.46
367.183	41.36
367.393	41.72
367.602	41.49
367.811	41.33
368.021	41.25
368.23	41.31
368.439	40.93
368.648	41.19
368.857	40.63
369.067	39.93
369.276	39.61
369.485	39.01
369.694	37.86
369.903	38.01
370.112	38.22
370.321	37.29
370.531	36.84
370.74	36.85
370.949	36.52
371.158	36.98
371.367	36.36
371.576	37.47
371.785	37.77
371.994	37.57
372.203	36.81
372.412	36.1
372.621	36.69
372.83	36.21
373.039	36.29
373.248	35.76
373.457	35.6
373.666	35.39
373.874	34.98
374.083	34.08
374.292	34.33
374.501	34.36
374.71	34.78
374.919	34.86
375.128	35.19
375.336	35.02
375.545	34.83
375.754	33.89
375.963	33.41
376.171	32.61
376.38	32.85
376.589	32.89
376.798	32.13
377.006	31.67
377.215	31.8
377.424	31.37
377.632	31.43
377.841	31.66
378.05	31.95
378.258	32.27
378.467	32.35
378.675	32.25
378.884	31.51
379.093	31.99
379.301	32.16
379.51	31.5
379.718	31.9
379.927	31.58
380.135	31.48
380.344	31.53
380.552	31.45
380.761	31.04
380.969	30.99
381.177	30.82
381.386	31.04
381.594	30.34
381.803	29.76
382.011	29.04
382.219	28.63
382.428	28.46
382.636	28.37
382.845	28.22
383.053	28.22
383.261	27.78
383.469	27.94
383.678	27.23
383.886	27.37
384.094	27.33
384.302	27.49
384.511	27
384.719	26.89
384.927	26.56
385.135	25.77
385.343	25.34
385.552	25.55
385.76	25
385.968	24.9
386.176	24.12
386.384	23.82
386.592	23.78
386.8	24.21
387.008	23.65
387.216	23.49
387.424	23.91
387.633	23.83
387.841	23.15
388.049	23.15
388.257	22.73
388.465	23.14
388.672	23.13
388.88	22.68
389.088	22
389.296	21.78
389.504	21.44
389.712	21.1
389.92	20.92
390.128	20.66
390.336	20.65
390.544	20.8
390.751	20.58
390.959	20.23
391.167	20.39
391.375	20.43
391.583	20.64
391.79	20.57
391.998	20.68
392.206	20.57
392.414	20.87
392.621	20.97
392.829	21.04
393.037	21.1
393.244	21.32
393.452	21.4
393.66	21.51
393.867	21.4
394.075	21.09
394.283	20.77
394.49	20.93
394.698	20.89
394.905	20.96
395.113	20.5
395.32	20.55
395.528	20.49
395.735	19.9
395.943	19.6
396.15	19.13
396.358	19.49
396.565	19.48
396.773	19.05
396.98	18.92
397.188	18.43
397.395	18.81
397.602	18.27
397.81	18.06
398.017	18.42
398.225	18.52
398.432	18.61
398.639	18.25
398.847	18.25
399.054	18.5
399.261	18.23
399.468	18.28
399.676	17.85
399.883	17.94
400.09	18.2
400.297	17.99
400.505	17.95
400.712	17.94
400.919	18.43
401.126	18.42
401.333	18.29
401.54	18.11
401.748	18.06
401.955	18.44
402.162	18.61
402.369	18.2
402.576	17.95
402.783	17.83
402.99	18.04
403.197	17.11
403.404	17.11
403.611	17.38
403.818	17.34
404.025	17.38
404.232	17.15
404.439	17.23
404.646	17.2
404.853	17.65
405.06	17.9
405.267	17.88
405.474	18.31
405.681	18.16
405.887	17.66
406.094	17.85
406.301	17.6
406.508	17.66
406.715	17.68
406.922	17.94
407.128	17.76
407.335	17.37
407.542	17.23
407.749	16.99
407.955	17.01
408.162	17.13
408.369	17.28
408.575	17.23
408.782	17.01
408.989	16.38
409.195	16.17
409.402	15.78
409.609	15.92
409.815	15.83
410.022	15.88
410.228	15.92
410.435	16.32
410.642	16.14
410.848	16.25
411.055	16.29
411.261	16.41
411.468	16.46
411.674	16.66
411.881	16.45
412.087	16.47
412.294	16.64
412.5	16.65
412.706	16.26
412.913	15.97
413.119	15.96
413.326	16.1
413.532	16.05
413.738	15.95
413.945	15.9
414.151	15.86
414.357	15.93
414.564	16.25
414.77	16.46
414.976	16.23
415.182	15.96
415.389	15.87
415.595	15.78
415.801	15.97
416.007	15.88
416.214	16.06
416.42	16.06
416.626	16.04
416.832	15.6
417.038	15.24
417.244	15.54
417.45	16.1
417.657	16.22
417.863	16.14
418.069	16.24
418.275	16.47
418.481	16.23
418.687	16.15
418.893	16.1
419.099	16.27
419.305	16.27
419.511	16.24
419.717	15.98
419.923	15.94
420.129	16.01
420.335	16
420.541	15.78
420.746	15.87
420.952	15.83
421.158	15.88
421.364	15.79
421.57	15.82
421.776	15.82
421.982	15.77
422.187	15.84
422.393	15.66
422.599	15.59
422.805	15.74
423.01	15.74
423.216	15.9
423.422	15.92
423.628	15.97
423.833	15.97
424.039	15.86
424.245	15.87
424.45	15.74
424.656	15.89
424.862	15.74
425.067	15.58
425.273	15.47
425.478	15.29
425.684	15.04
425.889	14.87
426.095	14.85
426.301	14.88
426.506	14.83
426.712	14.73
426.917	14.51
427.123	14.53
427.328	14.54
427.533	14.59
427.739	14.73
427.944	14.86
428.15	14.74
428.355	14.75
428.561	14.85
428.766	14.95
428.971	15.08
429.177	15.29
429.382	15.21
429.587	15.04
429.793	14.93
429.998	15.03
430.203	14.94
430.408	15.13
430.614	15.17
430.819	15.06
431.024	15.21
431.229	15.01
431.434	14.95
431.64	15.1
431.845	15.39
432.05	15.33
432.255	15.13
432.46	15.41
432.665	15.44
432.87	15.25
433.076	15.11
433.281	14.99
433.486	15.18
433.691	15.13
433.896	15.21
434.101	15.09
434.306	15.22
434.511	15.17
434.716	14.94
434.921	14.89
435.126	15.08
435.331	15.17
435.535	15.25
435.74	15.02
435.945	14.91
436.15	14.86
436.355	14.98
436.56	14.83
436.765	14.69
436.97	14.89
437.174	15.03
437.379	14.87
437.584	14.97
437.789	14.81
437.993	14.99
438.198	15.02
438.403	14.92
438.608	14.75
438.812	14.73
439.017	15
439.222	14.84
439.426	14.67
439.631	14.6
439.836	14.49
440.04	14.66
440.245	14.79
440.45	14.92
440.654	14.94
440.859	14.94
441.063	15.12
441.268	15.2
441.472	15.22
441.677	15.2
441.881	15.25
442.086	15.29
442.29	15.15
442.495	15.02
442.699	14.93
442.904	15
443.108	15.11
443.312	15.08
443.517	14.77
443.721	14.56
443.925	14.65
444.13	14.68
444.334	14.51
444.538	14.62
444.743	14.63
444.947	14.65
445.151	14.63
445.356	14.55
445.56	14.41
445.764	14.53
445.968	14.84
446.173	14.97
446.377	15.09
446.581	15.28
446.785	15.14
446.989	15.02
447.193	14.91
447.398	15.04
447.602	15.04
447.806	15.08
448.01	15.11
448.214	14.87
448.418	14.75
448.622	14.64
448.826	14.47
449.03	14.51
449.234	14.56
449.438	14.44
449.642	14.2
449.846	14.23
450.05	14.25
450.254	14.13
450.458	14.31
450.662	14.17
450.866	14.13
451.069	14.34
451.273	14.3
451.477	14.34
451.681	14.48
451.885	14.39
452.089	14.18
452.292	14.13
452.496	14.17
452.7	14.13
452.904	14.17
453.107	14.26
453.311	13.91
453.515	13.79
453.719	13.75
453.922	13.73
454.126	13.62
454.33	13.75
454.533	13.68
454.737	13.6
454.94	13.72
455.144	13.67
455.348	13.59
455.551	13.76
455.755	13.89
455.958	13.99
456.162	14.07
456.365	14.34
456.569	14.41
456.772	14.51
456.976	14.7
457.179	14.65
457.383	14.81
457.586	14.77
457.79	14.8
457.993	14.9
458.196	14.83
