Data from 2937808_Reflection_1.txt Node
Date: Wed Jul 15 17:52:39 EDT 2015
User: robert
Spectrometer: USB4E03001
Autoset integration time: false
Trigger mode: 4
Integration Time (sec): 1.000000E-1
Scans to average: 10
Electric dark correction enabled: true
Nonlinearity correction enabled: false
Boxcar width: 5
Stray light correction enabled: false
XAxis mode: Wavelengths
Stop averaging: false
Number of Pixels in Spectrum: 3648
>>>>>Begin Spectral Data<<<<<
177.566	-26.2
177.785	-81.93
178.005	-125
178.225	-1420.67
178.445	734.99
178.665	502.09
178.885	552.34
179.105	90.69
179.324	119.04
179.544	71.73
179.764	40.48
179.984	11.98
180.204	-8.91
180.423	-14.99
180.643	-45.79
180.863	-11.97
181.083	47.85
181.302	35.05
181.522	48.48
181.742	16.21
181.961	14760
182.181	281.64
182.401	115.85
182.621	182.83
182.84	62.23
183.06	89.26
183.279	71.75
183.499	84.06
183.719	38.27
183.938	40.43
184.158	42.22
184.377	-55.04
184.597	-294.1
184.816	699.32
185.036	466.82
185.256	105.86
185.475	124.7
185.695	139.53
185.914	176.08
186.134	108.09
186.353	120.67
186.572	113.48
186.792	85.27
187.011	117.96
187.231	114.6
187.45	115.86
187.67	189.84
187.889	304.14
188.108	143.59
188.328	102.49
188.547	184.87
188.766	144.18
188.986	138.04
189.205	164.19
189.424	126.62
189.644	117.42
189.863	139.18
190.082	127.66
190.302	76.67
190.521	61.4
190.74	33.98
190.959	-33.45
191.178	-102.29
191.398	-229.1
191.617	39.03
191.836	35.08
192.055	63.76
192.274	54.34
192.494	2.46
192.713	35.98
192.932	83.59
193.151	98.86
193.37	94.58
193.589	56.57
193.808	48.75
194.027	-26.27
194.246	9.91
194.465	-4.74
194.685	3.66
194.904	68.56
195.123	75.75
195.342	42.56
195.561	-21.18
195.78	1688.16
195.999	-379.84
196.218	192.6
196.436	183.48
196.655	113.93
196.874	89.77
197.093	99.39
197.312	184.01
197.531	511.93
197.75	-23.07
197.969	39.21
198.188	85.35
198.407	70.15
198.625	52.94
198.844	66.5
199.063	54.95
199.282	62.46
199.501	39.34
199.719	54.62
199.938	55.91
200.157	44.13
200.376	58.89
200.594	49.37
200.813	87.36
201.032	75.8
201.251	-69.25
201.469	-296.47
201.688	-218.41
201.907	-264.69
202.125	-344.49
202.344	-1718.26
202.563	-909.37
202.781	-550.92
203	-836.45
203.218	-777.89
203.437	5208.82
203.656	203.6
203.874	146.66
204.093	107.58
204.311	82.15
204.53	56.93
204.748	38.34
204.967	44.06
205.185	53.79
205.404	58.17
205.622	56.87
205.841	69.02
206.059	163.16
206.278	435.67
206.496	187.06
206.715	238.33
206.933	378.85
207.151	2328.86
207.37	-153.53
207.588	-343.35
207.806	138.44
208.025	94.72
208.243	35.44
208.461	-24.17
208.68	82.94
208.898	186.66
209.116	-486.04
209.335	498.89
209.553	596.19
209.771	294.6
209.989	-605.57
210.208	21.27
210.426	-142.36
210.644	5766.36
210.862	1447.3
211.081	387.22
211.299	287.37
211.517	-2153.07
211.735	23925
211.953	663.13
212.171	693.9
212.39	1822.64
212.608	1211.35
212.826	1421.04
213.044	-319.55
213.262	-934.04
213.48	-5761.26
213.698	-1831.25
213.916	338.12
214.134	266.19
214.352	501.49
214.57	-5079.59
214.788	-1753.02
215.006	4944.33
215.224	1402.26
215.442	332.9
215.66	491.35
215.878	605.13
216.096	-709.76
216.314	-125.44
216.532	-71.73
216.75	-45.07
216.968	-199.92
217.185	-89.98
217.403	-85.06
217.621	-35.32
217.839	-6.73
218.057	-8.96
218.275	-40.65
218.492	-475.48
218.71	775.16
218.928	380.93
219.146	370.34
219.363	402.94
219.581	257.89
219.799	818.25
220.017	2438.67
220.234	-3105.23
220.452	-4105.45
220.67	2174.53
220.887	-347.24
221.105	-168.37
221.323	-31.88
221.54	-34.49
221.758	-32.34
221.976	-573.67
222.193	155.96
222.411	104.15
222.629	98.98
222.846	131.1
223.064	130.46
223.281	122.97
223.499	121.32
223.716	80.49
223.934	67.35
224.151	41.17
224.369	31.1
224.586	43.15
224.804	83.06
225.021	73.05
225.239	34.99
225.456	44.73
225.674	60.76
225.891	62.89
226.108	108.8
226.326	78.17
226.543	2684.58
226.76	-196.43
226.978	-69.45
227.195	-97.48
227.413	-65.4
227.63	-27.64
227.847	-7.7
228.064	-6.3
228.282	-10.99
228.499	-5.91
228.716	-14.19
228.934	-6.76
229.151	-3.69
229.368	-5.22
229.585	-4.02
229.802	-1.11
230.02	-2.04
230.237	0.78
230.454	-2.97
230.671	0.99
230.888	-11.1
231.105	-5.3
231.323	-17.4
231.54	-5.7
231.757	-4.26
231.974	-6.06
232.191	-19.73
232.408	-13.96
232.625	-13.77
232.842	-7.81
233.059	-29.88
233.276	-20.99
233.493	-40.31
233.71	-28.12
233.927	-42.47
234.144	-22.75
234.361	-19.58
234.578	-19.17
234.795	-30.67
235.012	-16.65
235.229	-18.89
235.446	-6.79
235.663	-0.89
235.879	2.44
236.096	-0.19
236.313	-12.97
236.53	-14.72
236.747	-19.79
236.964	-13.65
237.181	-5.38
237.397	-23.32
237.614	-23.15
237.831	-9.22
238.048	-29.11
238.264	-33.16
238.481	-21.42
238.698	-3.68
238.915	1.4
239.131	4.99
239.348	14.12
239.565	14.81
239.781	13.67
239.998	11.28
240.215	6.11
240.431	10.44
240.648	13.36
240.865	14.17
241.081	12.85
241.298	9.57
241.514	10.51
241.731	5.7
241.947	-0.29
242.164	0.89
242.38	5.22
242.597	6.35
242.814	10.22
243.03	10.74
243.246	12.11
243.463	12.97
243.679	13.93
243.896	13.46
244.112	14.18
244.329	18.29
244.545	19.91
244.762	18.73
244.978	16.04
245.194	15.32
245.411	15.61
245.627	14.64
245.843	13.22
246.06	14.48
246.276	16.51
246.492	16.09
246.709	15.99
246.925	15.11
247.141	15.26
247.357	15.81
247.574	16.74
247.79	15.5
248.006	15.56
248.222	16.45
248.439	14.73
248.655	13.93
248.871	13.93
249.087	11.86
249.303	14.28
249.519	14.38
249.736	15.09
249.952	14.53
250.168	14.76
250.384	11.56
250.6	12.16
250.816	14.46
251.032	17.2
251.248	16.37
251.464	20.22
251.68	14.1
251.896	16.12
252.112	14.76
252.328	8.33
252.544	4.94
252.76	6.16
252.976	5.6
253.192	6.73
253.408	4.47
253.624	3.27
253.84	3.27
254.056	6.42
254.272	-1.17
254.487	-2
254.703	2.75
254.919	10.4
255.135	10.21
255.351	11.33
255.567	6.38
255.782	4.92
255.998	8
256.214	9.2
256.43	7.92
256.646	6.25
256.861	4.09
257.077	4.54
257.293	2.1
257.508	2.44
257.724	-2.08
257.94	-4.25
258.155	-5.05
258.371	-7.79
258.587	-5.01
258.802	-4.86
259.018	0.67
259.234	4.62
259.449	3.82
259.665	4.5
259.88	6.86
260.096	9.54
260.312	10.19
260.527	11.17
260.743	12.81
260.958	10.59
261.174	9.59
261.389	8.92
261.605	6.62
261.82	7.66
262.036	8.33
262.251	4.7
262.466	1.88
262.682	4.13
262.897	2.39
263.113	2.08
263.328	3.1
263.543	6.21
263.759	2.96
263.974	4.88
264.189	6.48
264.405	8.75
264.62	10.34
264.835	8.3
265.051	4
265.266	6.64
265.481	3.17
265.696	5.48
265.912	4.46
266.127	5.88
266.342	4.49
266.557	2.27
266.773	-2.47
266.988	-0.41
267.203	-0.57
267.418	-0.58
267.633	-1.29
267.848	-0.61
268.064	-3
268.279	-1.57
268.494	-1.98
268.709	-1.95
268.924	-1.27
269.139	3.56
269.354	1.39
269.569	2.71
269.784	3.88
269.999	2.5
270.214	2.19
270.429	3.3
270.644	1.79
270.859	3.48
271.074	6.49
271.289	6.06
271.504	3.48
271.719	4.21
271.934	6.13
272.149	6.14
272.363	6.9
272.578	7.2
272.793	7.08
273.008	8.56
273.223	7.11
273.438	6.59
273.653	8.11
273.867	8.49
274.082	7.91
274.297	6.94
274.512	5.58
274.726	7.23
274.941	8.25
275.156	9.31
275.371	8.57
275.585	11.57
275.8	7.83
276.015	3.8
276.229	1.94
276.444	3.12
276.659	2.94
276.873	4.32
277.088	2.7
277.302	2.78
277.517	0.67
277.732	-3.31
277.946	-6.26
278.161	-7.01
278.375	-4.29
278.59	-4.78
278.804	-4.96
279.019	-4.87
279.233	-7.01
279.448	-9.61
279.662	-7.18
279.877	-2.92
280.091	-0.52
280.306	2.56
280.52	6.86
280.735	4.49
280.949	4.76
281.163	4.48
281.378	3.27
281.592	3.3
281.806	5.43
282.021	5.09
282.235	1.87
282.449	4.47
282.664	4.65
282.878	6.72
283.092	10.2
283.307	10.15
283.521	9.79
283.735	12.31
283.949	15.37
284.164	15.78
284.378	14.72
284.592	17.62
284.806	15.79
285.02	15.79
285.234	12.19
285.449	12.22
285.663	12.21
285.877	12.28
286.091	11.05
286.305	10.28
286.519	9.22
286.733	10.13
286.947	7.81
287.161	9.99
287.375	9.34
287.589	9.97
287.803	9.02
288.017	9.02
288.231	9.62
288.445	6.03
288.659	5.32
288.873	5.85
289.087	4.4
289.301	4.68
289.515	4.31
289.729	4.38
289.943	3.96
290.157	4.37
290.371	3.97
290.584	2.61
290.798	6.73
291.012	7.61
291.226	7.9
291.44	6.16
291.654	7.63
291.867	6.77
292.081	5.7
292.295	4.69
292.509	4.86
292.722	4.75
292.936	5.77
293.15	5.59
293.364	6.48
293.577	6.04
293.791	7.38
294.005	6.39
294.218	8.25
294.432	7.83
294.645	11.1
294.859	10.4
295.073	13.35
295.286	13.03
295.5	12.78
295.713	12.31
295.927	12.43
296.14	15.14
296.354	15.07
296.568	14.14
296.781	14.4
296.994	15.3
297.208	14.98
297.421	14.16
297.635	14.29
297.848	12.49
298.062	10.89
298.275	10.96
298.489	9.95
298.702	8.46
298.915	8.81
299.129	9.89
299.342	6.54
299.555	6.92
299.769	6.26
299.982	7.75
300.195	9.18
300.409	10.41
300.622	9.36
300.835	7.47
301.048	6.12
301.262	3.16
301.475	2.13
301.688	2.39
301.901	3.29
302.115	1.85
302.328	1.7
302.541	-0.12
302.754	-1.83
302.967	1.94
303.18	2.94
303.393	6.34
303.607	9.04
303.82	10.94
304.033	12.77
304.246	12.22
304.459	14.75
304.672	12.7
304.885	15.56
305.098	18.42
305.311	14.26
305.524	14.16
305.737	12.96
305.95	13.68
306.163	11.49
306.376	11.34
306.589	12.45
306.802	11.33
307.015	13.52
307.228	11.77
307.44	9.88
307.653	13.59
307.866	14.55
308.079	15.16
308.292	13.76
308.505	13.1
308.718	12.89
308.93	14.53
309.143	15.11
309.356	15.2
309.569	14.67
309.781	15.47
309.994	13.38
310.207	11.97
310.42	12.63
310.632	12.39
310.845	14.24
311.058	14.46
311.27	10.85
311.483	9.3
311.696	9.91
311.908	9.72
312.121	7.36
312.333	7.48
312.546	9.78
312.759	7.91
312.971	7.69
313.184	3.78
313.396	-0.69
313.609	-0.06
313.821	2.25
314.034	-0.9
314.246	0.43
314.459	4.66
314.671	2.43
314.884	-1.56
315.096	-0.64
315.309	-0.13
315.521	5.05
315.733	9.08
315.946	10.62
316.158	9.3
316.371	8.34
316.583	8.59
316.795	8.05
317.008	11.8
317.22	11.29
317.432	11.42
317.644	11.09
317.857	7.24
318.069	2.98
318.281	5.36
318.494	3.84
318.706	7.91
318.918	5.21
319.13	3.86
319.342	2.76
319.555	3.76
319.767	5.89
319.979	7.56
320.191	8.35
320.403	10.43
320.615	9.81
320.827	10.91
321.039	3.87
321.252	5.54
321.464	3.24
321.676	7.04
321.888	8.04
322.1	6.53
322.312	6.7
322.524	4.91
322.736	5.82
322.948	1.46
323.16	1.94
323.372	5.54
323.584	5.51
323.796	7.21
324.007	5.86
324.219	7.55
324.431	6.09
324.643	5.02
324.855	7.45
325.067	9.65
325.279	11.99
325.491	11.87
325.702	11.39
325.914	11.02
326.126	10.97
326.338	10.13
326.55	10.66
326.761	10.39
326.973	11.24
327.185	10.7
327.396	7.54
327.608	6.08
327.82	5.79
328.032	8.18
328.243	9.25
328.455	6.28
328.666	7.46
328.878	5.94
329.09	6.4
329.301	6.21
329.513	6.59
329.725	7.54
329.936	8.85
330.148	7.79
330.359	6.71
330.571	7.5
330.782	6.48
330.994	4.57
331.205	4.74
331.417	3.39
331.628	4.01
331.84	3.53
332.051	3.64
332.262	3.53
332.474	6.7
332.685	5.63
332.897	3.22
333.108	7.3
333.319	7.4
333.531	7.05
333.742	10
333.953	5.9
334.165	7.75
334.376	10.48
334.587	10.25
334.799	10.72
335.01	10.18
335.221	11.07
335.432	10.18
335.644	8.76
335.855	7.56
336.066	6.07
336.277	8.95
336.488	7.92
336.7	5
336.911	3.98
337.122	2.11
337.333	2.8
337.544	0.3
337.755	1.51
337.966	1.94
338.177	4.17
338.388	5.81
338.599	6.42
338.811	6.9
339.022	8.05
339.233	8.3
339.444	8.19
339.655	7.49
339.866	8.39
340.076	7.12
340.287	8.16
340.498	6.53
340.709	6.13
340.92	5.95
341.131	6.13
341.342	4.29
341.553	4.24
341.764	6.03
341.975	7.36
342.185	8.24
342.396	10.18
342.607	10.46
342.818	11.26
343.029	10.2
343.239	9.47
343.45	8.16
343.661	11.27
343.872	12.69
344.082	11.26
344.293	9.71
344.504	9.92
344.714	9.24
344.925	9.76
345.136	10.21
345.346	10.67
345.557	10.76
345.768	12.42
345.978	11.51
346.189	9.59
346.399	9.24
346.61	9.47
346.821	9.44
347.031	9.87
347.242	8.11
347.452	6.28
347.663	6.26
347.873	5.42
348.084	3.55
348.294	1.7
348.504	3.42
348.715	3.98
348.925	4.22
349.136	6.34
349.346	4.95
349.557	4.35
349.767	3.46
349.977	3.74
350.188	3.55
350.398	4.43
350.608	5.68
350.819	6.05
351.029	5.19
351.239	6.63
351.449	3.81
351.66	3.59
351.87	4.07
352.08	5.74
352.29	4.14
352.501	5.45
352.711	5.08
352.921	3.48
353.131	2.54
353.341	2.32
353.552	2.78
353.762	2.73
353.972	3.53
354.182	4.54
354.392	4.98
354.602	8.24
354.812	7.76
355.022	6.79
355.232	8.4
355.442	10.18
355.652	11.21
355.862	11.17
356.072	12.04
356.282	13.19
356.492	13.69
356.702	13.1
356.912	11.77
357.122	9.43
357.332	10.32
357.542	11.24
357.752	9.36
357.962	9.49
358.171	8.79
358.381	8.03
358.591	7.48
358.801	6.96
359.011	5.7
359.221	5.37
359.43	7.86
359.64	7.24
359.85	5.52
360.06	5.52
360.269	6.06
360.479	6.55
360.689	6.97
360.899	6.47
361.108	5.69
361.318	6.08
361.528	5.8
361.737	6.01
361.947	5.68
362.156	5.93
362.366	6.88
362.576	5.89
362.785	5.92
362.995	5.89
363.204	5.75
363.414	6.28
363.623	6.04
363.833	6.24
364.042	5.7
364.252	6.52
364.461	6.4
364.671	5.43
364.88	5.65
365.09	4.21
365.299	4.27
365.509	5.01
365.718	3.27
365.927	5.36
366.137	4.69
366.346	4.22
366.555	3.3
366.765	2.33
366.974	2.29
367.183	0.84
367.393	1.65
367.602	1.49
367.811	1.22
368.021	2.27
368.23	0.95
368.439	1.39
368.648	1.4
368.857	1.82
369.067	2.63
369.276	2.99
369.485	4.15
369.694	4.81
369.903	4.43
370.112	4.6
370.321	5.48
370.531	5.39
370.74	5.67
370.949	6.57
371.158	5.89
371.367	7.15
371.576	7.96
371.785	9.07
371.994	8.46
372.203	9.28
372.412	8.15
372.621	7.69
372.83	7.35
373.039	6.85
373.248	5.99
373.457	5.92
373.666	5.4
373.874	3.59
374.083	3.17
374.292	3.04
374.501	1.89
374.71	1.76
374.919	1.94
375.128	2.3
375.336	2.48
375.545	3.22
375.754	3.82
375.963	3.29
376.171	4.41
376.38	4.28
376.589	4.85
376.798	5.93
377.006	6.04
377.215	6.25
377.424	6.56
377.632	5.77
377.841	4.88
378.05	4.45
378.258	4.78
378.467	4.44
378.675	3.27
378.884	2.81
379.093	2.14
379.301	3.01
379.51	3.49
379.718	3.21
379.927	4.38
380.135	4.33
380.344	4.06
380.552	3.79
380.761	3.55
380.969	4.38
381.177	4.55
381.386	4.91
381.594	4.45
381.803	4.12
382.011	3.5
382.219	2.99
382.428	3.2
382.636	3.72
382.845	3.13
383.053	2.69
383.261	2.62
383.469	2.81
383.678	2.7
383.886	3.16
384.094	3.05
384.302	3.87
384.511	4.02
384.719	4.44
384.927	4.18
385.135	4.14
385.343	4.25
385.552	4.7
385.76	4.08
385.968	4.02
386.176	2.73
386.384	2.86
386.592	2.8
386.8	2.48
387.008	2.3
387.216	3.02
387.424	3.69
387.633	4.14
387.841	3.81
388.049	4.03
388.257	4.12
388.465	4.56
388.672	4.26
388.88	4.37
389.088	4.93
389.296	4.89
389.504	4.53
389.712	4.51
389.92	4.36
390.128	4.45
390.336	4.35
390.544	4.24
390.751	4.65
390.959	4.54
391.167	4.3
391.375	3.58
391.583	4.01
391.79	4.1
391.998	3.94
392.206	4.22
392.414	4.07
392.621	3.9
392.829	3.92
393.037	3.82
393.244	3.69
393.452	3.45
393.66	3.66
393.867	3.19
394.075	3.06
394.283	3.32
394.49	3.06
394.698	3.15
394.905	3.15
395.113	3.71
395.32	3.3
395.528	3.5
395.735	3.78
395.943	3.81
396.15	4.19
396.358	3.93
396.565	3.98
396.773	4.14
396.98	4.02
397.188	4.25
397.395	3.48
397.602	3.92
397.81	3.83
398.017	3.95
398.225	3.86
398.432	3.23
398.639	3.45
398.847	2.91
399.054	2.71
399.261	2.54
399.468	2.78
399.676	3.03
399.883	2.82
400.09	2.99
400.297	3.04
400.505	3.31
400.712	3.3
400.919	3.25
401.126	3.59
401.333	4
401.54	4.06
401.748	3.55
401.955	3.2
402.162	3.75
402.369	3.5
402.576	3.29
402.783	3.09
402.99	3.1
403.197	3.12
403.404	2.93
403.611	2.4
403.818	2.37
404.025	2.4
404.232	2.78
404.439	2.5
404.646	2.52
404.853	2.82
405.06	3.55
405.267	3.53
405.474	3
405.681	3.04
405.887	3.23
406.094	3.56
406.301	3.61
406.508	3.5
406.715	3.23
406.922	3.5
407.128	3.24
407.335	2.45
407.542	2.51
407.749	2.95
407.955	3.29
408.162	3.21
408.369	3.17
408.575	3.11
408.782	3.36
408.989	3.32
409.195	3.07
409.402	3.07
409.609	3.38
409.815	3.49
410.022	3.87
410.228	3.78
410.435	3.92
410.642	4.22
410.848	4.18
411.055	3.82
411.261	4.01
411.468	4.06
411.674	3.91
411.881	3.68
412.087	3.81
412.294	3.3
412.5	3.01
412.706	2.75
412.913	2.18
413.119	2.23
413.326	2.28
413.532	2.76
413.738	2.91
413.945	3.02
414.151	2.84
414.357	2.6
414.564	2.59
414.77	2.87
414.976	2.96
415.182	3.25
415.389	3.27
415.595	3.33
415.801	2.9
416.007	2.76
416.214	2.71
416.42	2.93
416.626	2.73
416.832	2.83
417.038	2.62
417.244	2.68
417.45	2.27
417.657	2.45
417.863	2.41
418.069	2.5
418.275	2.5
418.481	2.68
418.687	2.47
418.893	2.47
419.099	2.68
419.305	2.7
419.511	2.87
419.717	2.91
419.923	2.69
420.129	2.62
420.335	2.69
420.541	2.74
420.746	2.6
420.952	2.67
421.158	2.8
421.364	2.83
421.57	2.68
421.776	2.64
421.982	2.74
422.187	2.88
422.393	2.93
422.599	2.9
422.805	2.9
423.01	2.91
423.216	2.92
423.422	3.09
423.628	2.75
423.833	2.9
424.039	2.61
424.245	2.85
424.45	2.68
424.656	2.67
424.862	2.61
425.067	2.49
425.273	2.46
425.478	2.38
425.684	2.25
425.889	2.47
426.095	2.55
426.301	2.75
426.506	2.61
426.712	2.78
426.917	2.72
427.123	2.57
427.328	2.61
427.533	2.61
427.739	2.66
427.944	2.45
428.15	2.45
428.355	2.35
428.561	2.3
428.766	2.01
428.971	2
429.177	2.05
429.382	2.16
429.587	2.3
429.793	2.11
429.998	2.27
430.203	2.33
430.408	2.4
430.614	2.7
430.819	2.52
431.024	2.37
431.229	2.22
431.434	1.94
431.64	1.9
431.845	1.67
432.05	2.05
432.255	1.87
432.46	2.01
432.665	2.14
432.87	1.96
433.076	1.98
433.281	2.13
433.486	2.27
433.691	2.53
433.896	2.42
434.101	2.47
434.306	2.24
434.511	2.25
434.716	2.27
434.921	1.84
435.126	1.76
435.331	1.8
435.535	1.96
435.74	1.93
435.945	1.79
436.15	1.79
436.355	1.79
436.56	1.62
436.765	1.92
436.97	1.9
437.174	2.34
437.379	2.44
437.584	2.44
437.789	2.28
437.993	2.38
438.198	2.26
438.403	2.29
438.608	2.44
438.812	2.53
439.017	2.32
439.222	2.24
439.426	2.04
439.631	1.92
439.836	1.95
440.04	2.03
440.245	1.99
440.45	2.21
440.654	2.35
440.859	2.32
441.063	2.4
441.268	2.57
441.472	2.59
441.677	2.66
441.881	2.72
442.086	2.76
442.29	2.72
442.495	2.8
442.699	2.71
442.904	2.65
443.108	2.74
443.312	2.76
443.517	2.64
443.721	2.83
443.925	2.94
444.13	2.94
444.334	2.92
444.538	2.86
444.743	2.85
444.947	2.94
445.151	2.88
445.356	2.79
445.56	2.67
445.764	2.61
445.968	2.56
446.173	2.43
446.377	2.38
446.581	2.35
446.785	2.38
446.989	2.26
447.193	2.13
447.398	2.14
447.602	2.12
447.806	2.19
448.01	2.22
448.214	2.14
448.418	2.03
448.622	1.8
448.826	1.73
449.03	1.65
449.234	1.56
449.438	1.65
449.642	1.7
449.846	1.5
450.05	1.34
450.254	1.28
450.458	1.08
450.662	1.02
450.866	1.19
451.069	1.17
451.273	1.02
451.477	1.04
451.681	1.03
451.885	1.03
452.089	1.13
452.292	1.19
452.496	1.16
452.7	1.31
452.904	1.5
453.107	1.68
453.311	1.89
453.515	1.97
453.719	2.15
453.922	2.12
454.126	2.02
454.33	1.89
454.533	2.12
454.737	2.33
454.94	2.24
455.144	2.18
455.348	1.92
455.551	1.99
455.755	2.16
455.958	2.26
456.162	2.37
456.365	2.28
456.569	2.26
456.772	2.08
456.976	1.88
457.179	1.87
457.383	1.72
457.586	1.83
457.79	1.57
457.993	1.63
458.196	1.39
458.4	1.3
458.603	1.6
458.807	1.75
459.01	1.87
459.213	1.86
459.417	1.96
459.62	2.01
459.823	2.03
460.026	2.06
460.23	1.89
460.433	1.96
460.636	2.01
460.839	1.89
461.042	1.72
461.246	1.71
461.449	1.78
461.652	1.76
461.855	1.74
462.058	1.7
462.261	1.78
462.464	1.85
462.668	1.9
462.871	1.76
463.074	1.85
463.277	1.98
463.48	1.91
463.683	1.68
463.886	1.7
464.089	1.8
464.292	1.91
464.495	1.88
464.698	2.05
464.901	1.98
465.104	1.99
465.306	1.83
465.509	2.08
465.712	2.1
465.915	2.23
466.118	2.27
466.321	2.22
