Data from 2937857_Reflection_2.txt Node
Date: Wed Jul 15 15:36:31 EDT 2015
User: robert
Spectrometer: USB4E03001
Autoset integration time: false
Trigger mode: 4
Integration Time (sec): 1.000000E-1
Scans to average: 10
Electric dark correction enabled: true
Nonlinearity correction enabled: false
Boxcar width: 5
Stray light correction enabled: false
XAxis mode: Wavelengths
Stop averaging: false
Number of Pixels in Spectrum: 3648
>>>>>Begin Spectral Data<<<<<
177.566	-157.38
177.785	-869.52
178.005	165.42
178.225	103.26
178.445	165.55
178.665	397.79
178.885	78.54
179.105	-332.99
179.324	1128.4
179.544	-708.85
179.764	-1648.75
179.984	248.47
180.204	123.87
180.423	106.42
180.643	130.27
180.863	102.89
181.083	143.82
181.302	120.77
181.522	147.58
181.742	154.36
181.961	126.05
182.181	108.49
182.401	149.97
182.621	149.08
182.84	114.56
183.06	103.52
183.279	171.93
183.499	130.91
183.719	149.05
183.938	89.16
184.158	84.45
184.377	95.44
184.597	278.78
184.816	123.62
185.036	77.56
185.256	288.08
185.475	138.08
185.695	96.75
185.914	166.95
186.134	152.87
186.353	227.38
186.572	840.24
186.792	268.27
187.011	330.02
187.231	201.45
187.45	245.64
187.67	296.94
187.889	432.16
188.108	686.09
188.328	386.4
188.547	504.09
188.766	43781.82
188.986	1084.55
189.205	397.55
189.424	188.67
189.644	273.8
189.863	382.97
190.082	337.1
190.302	407.17
190.521	239.09
190.74	296.11
190.959	212.47
191.178	61.37
191.398	29.63
191.617	54.78
191.836	-1.29
192.055	122.6
192.274	309.45
192.494	-82.16
192.713	-40.33
192.932	-7.63
193.151	-13.81
193.37	63.51
193.589	106.02
193.808	141.13
194.027	108.96
194.246	165.14
194.465	111.43
194.685	122
194.904	138.92
195.123	427.21
195.342	-521.33
195.561	-200.37
195.78	6.55
195.999	-19.11
196.218	-34.22
196.436	-35.06
196.655	-21252.94
196.874	629.58
197.093	-351.89
197.312	-29.44
197.531	-89.16
197.75	-70.48
197.969	-148.73
198.188	-316.74
198.407	-159.44
198.625	-35.55
198.844	-42.42
199.063	-6.8
199.282	-24.51
199.501	-81.62
199.719	-126.23
199.938	-165.76
200.157	-208.66
200.376	-56.08
200.594	-58.01
200.813	-76.54
201.032	212.12
201.251	289.76
201.469	9256.76
201.688	528.29
201.907	390.95
202.125	143.71
202.344	146.58
202.563	96.01
202.781	77.84
203	195.55
203.218	341.3
203.437	3042.86
203.656	4038.2
203.874	214.34
204.093	240.72
204.311	405.31
204.53	558.93
204.748	489.48
204.967	276.47
205.185	250.22
205.404	189.64
205.622	142.32
205.841	146.61
206.059	146.64
206.278	204
206.496	148.23
206.715	158.09
206.933	312.91
207.151	368.69
207.37	-227.14
207.588	-345.49
207.806	-286.36
208.025	-321.38
208.243	-327.66
208.461	1083.95
208.68	606.47
208.898	-1748.1
209.116	-320.36
209.335	441.02
209.553	311.7
209.771	147.02
209.989	239.79
210.208	320.74
210.426	-1326.89
210.644	-124.75
210.862	-91.98
211.081	-199.67
211.299	-864.25
211.517	-458.09
211.735	-79.76
211.953	17.08
212.171	-14.64
212.39	-44.2
212.608	-90.29
212.826	-50.44
213.044	-153.92
213.262	542.94
213.48	66.18
213.698	54.94
213.916	498.31
214.134	-53.84
214.352	-3071.9
214.57	713.09
214.788	687.01
215.006	1002.34
215.224	-2573.37
215.442	361.34
215.66	343.32
215.878	280.94
216.096	439.78
216.314	-14581.16
216.532	977.37
216.75	232.29
216.968	183.8
217.185	192.93
217.403	211
217.621	166.82
217.839	136.57
218.057	149.75
218.275	137.13
218.492	127.76
218.71	105.51
218.928	92.46
219.146	162.99
219.363	133.33
219.581	153.18
219.799	233.72
220.017	-1713.04
220.234	-27.87
220.452	-73.99
220.67	-834.18
220.887	-752.58
221.105	-3035.82
221.323	-337.8
221.54	543.7
221.758	445.88
221.976	201.88
222.193	159.51
222.411	154.75
222.629	126.19
222.846	94.24
223.064	83.23
223.281	96.7
223.499	86.79
223.716	74.93
223.934	95.33
224.151	138.69
224.369	111.85
224.586	109.19
224.804	111.02
225.021	156.46
225.239	523.65
225.456	-161.5
225.674	1435.22
225.891	-89.83
226.108	-277.9
226.326	60.67
226.543	22.18
226.76	26.05
226.978	-0.01
227.195	-0.01
227.413	9.51
227.63	7.27
227.847	12.57
228.064	11.71
228.282	15.63
228.499	14.39
228.716	15.99
228.934	17.81
229.151	18.51
229.368	21.17
229.585	18.22
229.802	17.47
230.02	16.6
230.237	16.31
230.454	15.38
230.671	21.45
230.888	22.9
231.105	24.89
231.323	23.26
231.54	23.22
231.757	22.77
231.974	26.47
232.191	26.83
232.408	28.87
232.625	33.36
232.842	33.68
233.059	31.56
233.276	37.73
233.493	33.49
233.71	42.2
233.927	40.35
234.144	44.96
234.361	42.54
234.578	42.95
234.795	40.34
235.012	39.55
235.229	39.9
235.446	31.15
235.663	27.1
235.879	32.21
236.096	27.9
236.313	31.67
236.53	34.7
236.747	40.19
236.964	39.51
237.181	43.57
237.397	30.64
237.614	25.59
237.831	33.83
238.048	30.66
238.264	27.16
238.481	21.21
238.698	23.56
238.915	20.72
239.131	18.11
239.348	20.22
239.565	23.83
239.781	27.35
239.998	32.61
240.215	31.62
240.431	29.75
240.648	27.6
240.865	27.5
241.081	26.7
241.298	22.75
241.514	22.32
241.731	21.63
241.947	18.5
242.164	16.28
242.38	15.71
242.597	15.69
242.814	14.51
243.03	14.9
243.246	15.64
243.463	14.7
243.679	15.29
243.896	16.16
244.112	15.46
244.329	16.81
244.545	20.15
244.762	18.59
244.978	18.78
245.194	16.82
245.411	16.39
245.627	15.47
245.843	15.61
246.06	14.75
246.276	13.81
246.492	13.69
246.709	13.29
246.925	12.45
247.141	12.55
247.357	11.98
247.574	12.86
247.79	13.13
248.006	12.79
248.222	12.27
248.439	12.46
248.655	11.61
248.871	11.07
249.087	10.79
249.303	11.08
249.519	10.62
249.736	11.91
249.952	11.35
250.168	10.54
250.384	11.54
250.6	14.53
250.816	14.99
251.032	16
251.248	16.57
251.464	17.29
251.68	18.17
251.896	19.73
252.112	18.71
252.328	19.64
252.544	19.9
252.76	19.31
252.976	16.97
253.192	17.96
253.408	18.76
253.624	20.69
253.84	19.3
254.056	17.4
254.272	18.7
254.487	15.01
254.703	16.78
254.919	15.69
255.135	13.19
255.351	10.9
255.567	8.29
255.782	7.14
255.998	0.37
256.214	1.17
256.43	0.54
256.646	0.08
256.861	4.78
257.077	4.58
257.293	7.88
257.508	11.22
257.724	11.14
257.94	11.73
258.155	11.52
258.371	13.26
258.587	12.26
258.802	12.72
259.018	11.69
259.234	11.49
259.449	11.17
259.665	10.1
259.88	10.33
260.096	10.01
260.312	8.99
260.527	8.7
260.743	9.31
260.958	9.9
261.174	10.46
261.389	9.45
261.605	9.42
261.82	9.36
262.036	10.45
262.251	9.62
262.466	11.44
262.682	13.98
262.897	14.42
263.113	13.68
263.328	13.09
263.543	11.07
263.759	13.06
263.974	12.26
264.189	12.92
264.405	11.08
264.62	10.03
264.835	10.29
265.051	8.8
265.266	9.68
265.481	9.04
265.696	9.75
265.912	11.7
266.127	12.24
266.342	11.15
266.557	11
266.773	10.76
266.988	11.36
267.203	10.68
267.418	9.89
267.633	9.38
267.848	10.01
268.064	9.26
268.279	10.07
268.494	10.23
268.709	10.33
268.924	8.97
269.139	11.28
269.354	11.62
269.569	12.42
269.784	14.3
269.999	14.5
270.214	14.85
270.429	15.84
270.644	13.06
270.859	12.49
271.074	14.73
271.289	14.67
271.504	12.77
271.719	12.58
271.934	11.88
272.149	9.76
272.363	9.97
272.578	11.34
272.793	11.01
273.008	12.01
273.223	12.47
273.438	11.83
273.653	11.95
273.867	12.53
274.082	12.36
274.297	12.39
274.512	15.44
274.726	14.82
274.941	11.38
275.156	11.46
275.371	12.05
275.585	12.06
275.8	11.68
276.015	13.68
276.229	12.65
276.444	12.95
276.659	14.51
276.873	12.13
277.088	13.17
277.302	14.76
277.517	14.68
277.732	15.17
277.946	15.17
278.161	14.99
278.375	14.25
278.59	15.72
278.804	15.79
279.019	12.28
279.233	13.21
279.448	14.3
279.662	14.29
279.877	13.94
280.091	13.44
280.306	14.56
280.52	14.13
280.735	14.19
280.949	13.66
281.163	12.98
281.378	14.66
281.592	15.14
281.806	14.15
282.021	14.55
282.235	14.08
282.449	13.26
282.664	11.31
282.878	13.08
283.092	13.19
283.307	13.69
283.521	14.04
283.735	14.41
283.949	14.71
284.164	14.31
284.378	13.84
284.592	15.23
284.806	14.74
285.02	15.35
285.234	12.67
285.449	11.5
285.663	10.93
285.877	10.51
286.091	10.28
286.305	9.53
286.519	9.64
286.733	9.41
286.947	8.18
287.161	8.8
287.375	8.82
287.589	11.32
287.803	11.68
288.017	11.77
288.231	13.11
288.445	12.76
288.659	13.91
288.873	14.83
289.087	14.05
289.301	12.63
289.515	12.36
289.729	11.71
289.943	10.23
290.157	10.56
290.371	11.39
290.584	10.51
290.798	10.77
291.012	11.23
291.226	10.71
291.44	11.04
291.654	13.58
291.867	13.85
292.081	13.83
292.295	15.22
292.509	15.51
292.722	16.22
292.936	16.96
293.15	16.83
293.364	14.82
293.577	15.2
293.791	16.15
294.005	16.92
294.218	15.74
294.432	16.7
294.645	17.12
294.859	16.78
295.073	15.64
295.286	14.73
295.5	15.08
295.713	15.08
295.927	14.2
296.14	14.55
296.354	13.18
296.568	13.53
296.781	12.72
296.994	11.09
297.208	10.51
297.421	11.33
297.635	11.51
297.848	10.5
298.062	10.98
298.275	11.49
298.489	11.57
298.702	11.3
298.915	11.48
299.129	12.03
299.342	12.83
299.555	13.37
299.769	11.37
299.982	12.22
300.195	13.94
300.409	12.77
300.622	11.78
300.835	10.88
301.048	12.24
301.262	13.05
301.475	14.59
301.688	15.2
301.901	16.39
302.115	17.22
302.328	16.07
302.541	16.33
302.754	17.82
302.967	18.94
303.18	18.17
303.393	17.67
303.607	16.79
303.82	15.63
304.033	15.49
304.246	15.26
304.459	15.56
304.672	16.22
304.885	15.2
305.098	14.8
305.311	14.52
305.524	14.83
305.737	13.51
305.95	13.64
306.163	12.61
306.376	10.93
306.589	11.14
306.802	9.98
307.015	10.43
307.228	11.97
307.44	11.45
307.653	12.78
307.866	14.14
308.079	14.43
308.292	15.93
308.505	17.74
308.718	19.49
308.93	20.07
309.143	20.59
309.356	20.53
309.569	20.88
309.781	21.5
309.994	20.29
310.207	19.42
310.42	20.87
310.632	19.95
310.845	18.12
311.058	17.79
311.27	16.94
311.483	18.06
311.696	17.62
311.908	16.65
312.121	16.3
312.333	16.38
312.546	17.58
312.759	15.62
312.971	15.94
313.184	18.3
313.396	17.4
313.609	16.25
313.821	16.03
314.034	15.61
314.246	16.26
314.459	15.44
314.671	15.97
314.884	14.73
315.096	17.14
315.309	17.41
315.521	15.74
315.733	16.71
315.946	18.09
316.158	17.33
316.371	17.73
316.583	16.54
316.795	16.65
317.008	16.05
317.22	16.88
317.432	14.6
317.644	14.6
317.857	13.89
318.069	14.07
318.281	13.39
318.494	14.45
318.706	14.88
318.918	14.17
319.13	16.35
319.342	15.78
319.555	14.43
319.767	15.14
319.979	14.83
320.191	15.57
320.403	14.69
320.615	15.07
320.827	13.29
321.039	14.19
321.252	14.9
321.464	13.93
321.676	14.6
321.888	14.7
322.1	14.96
322.312	14.42
322.524	14.52
322.736	15.75
322.948	15.99
323.16	16.87
323.372	16.2
323.584	17.34
323.796	18.31
324.007	17.32
324.219	18.41
324.431	17.31
324.643	19.01
324.855	18.05
325.067	18.46
325.279	17.91
325.491	17.48
325.702	17.01
325.914	16.39
326.126	15.13
326.338	16.75
326.55	16.27
326.761	16.39
326.973	15.45
327.185	16.29
327.396	15.16
327.608	16.14
327.82	16.39
328.032	17.18
328.243	15.98
328.455	16.31
328.666	16.18
328.878	16.58
329.09	18.3
329.301	18.06
329.513	18.09
329.725	18.62
329.936	18.02
330.148	19.12
330.359	18.45
330.571	20.44
330.782	21.47
330.994	19.62
331.205	19.96
331.417	19.7
331.628	19.43
331.84	20.21
332.051	20.14
332.262	20.33
332.474	18.91
332.685	20.07
332.897	19.99
333.108	19.59
333.319	22.02
333.531	20.33
333.742	20.16
333.953	19.7
334.165	18.82
334.376	20.22
334.587	19.58
334.799	20.15
335.01	19.59
335.221	18.37
335.432	18.54
335.644	18
335.855	18.31
336.066	19.34
336.277	20.36
336.488	20.33
336.7	18.99
336.911	19.21
337.122	18.19
337.333	17.83
337.544	19.2
337.755	18.29
337.966	16.27
338.177	16.84
338.388	16.52
338.599	16.88
338.811	16.64
339.022	15.59
339.233	16.44
339.444	18.1
339.655	17.84
339.866	17.08
340.076	17.31
340.287	19.95
340.498	19.54
340.709	18.46
340.92	17.94
341.131	18.92
341.342	19.82
341.553	17.93
341.764	16.83
341.975	17.92
342.185	18.5
342.396	19
342.607	17.31
342.818	18.47
343.029	19.11
343.239	19.53
343.45	19.91
343.661	20.41
343.872	21.1
344.082	20.66
344.293	20.67
344.504	19.54
344.714	19.33
344.925	20.22
345.136	19.34
345.346	18.69
345.557	18.33
345.768	17.09
345.978	16.78
346.189	17.15
346.399	17.96
346.61	17.61
346.821	18.7
347.031	18.09
347.242	17.38
347.452	17.93
347.663	18.18
347.873	19.32
348.084	19.32
348.294	19.93
348.504	19.89
348.715	19.45
348.925	19.06
349.136	17.72
349.346	16.87
349.557	16.28
349.767	16.63
349.977	16.51
350.188	15.18
350.398	16.78
350.608	16.52
350.819	16.68
351.029	16.66
351.239	17
351.449	18.9
351.66	19.23
351.87	21.07
352.08	20.09
352.29	21.76
352.501	21.74
352.711	20.26
352.921	19.14
353.131	18.26
353.341	18.65
353.552	17.49
353.762	16.5
353.972	16.45
354.182	15.64
354.392	15.21
354.602	15.29
354.812	14.59
355.022	14.59
355.232	16.44
355.442	17.92
355.652	16.79
355.862	16.93
356.072	16.88
356.282	18.1
356.492	18.13
356.702	18.83
356.912	17.77
357.122	19.07
357.332	19.47
357.542	19.06
357.752	18.41
357.962	18.22
358.171	18.85
358.381	17.95
358.591	17.94
358.801	18.16
359.011	17.85
359.221	17.62
359.43	17.03
359.64	17.36
359.85	15.55
360.06	14.41
360.269	14.89
360.479	14.71
360.689	15.46
360.899	14.86
361.108	14.5
361.318	14.7
361.528	14.8
361.737	14.55
361.947	14.1
362.156	14.61
362.366	14.74
362.576	15.25
362.785	14.88
362.995	14.27
363.204	13.9
363.414	13.13
363.623	12.62
363.833	12.9
364.042	13.22
364.252	12.98
364.461	13.09
364.671	13.61
364.88	13.33
365.09	13.52
365.299	13.83
365.509	14.32
365.718	15.14
365.927	15.2
366.137	14.45
366.346	13.87
366.555	13.76
366.765	12.98
366.974	12.89
367.183	12.47
367.393	12.29
367.602	11.83
367.811	11.5
368.021	10.64
368.23	11.43
368.439	11.39
368.648	11.43
368.857	11.11
369.067	11.95
369.276	11.98
369.485	12.34
369.694	12.12
369.903	12.6
370.112	13.25
370.321	13.89
370.531	12.85
370.74	12.39
370.949	11.87
371.158	12.03
371.367	12.06
371.576	11.78
371.785	11.09
371.994	11.8
372.203	11.7
372.412	11.1
372.621	11.36
372.83	11.8
373.039	12.01
373.248	12.33
373.457	12
373.666	11.18
373.874	10.91
374.083	11.55
374.292	10.8
374.501	10.85
374.71	10.56
374.919	10.46
375.128	9.76
375.336	9.42
375.545	9.34
375.754	9.6
375.963	9.88
376.171	10.24
376.38	9.74
376.589	9.81
376.798	10.02
377.006	11.17
377.215	11.17
377.424	11.45
377.632	12.1
377.841	12.3
378.05	12.33
378.258	12.18
378.467	12.01
378.675	11.92
378.884	12.29
379.093	11.78
379.301	11.08
379.51	10.66
379.718	10.38
379.927	9.51
380.135	9.24
380.344	9.58
380.552	9.77
380.761	9.89
380.969	10.18
381.177	9.92
381.386	10.47
381.594	10.51
381.803	10.62
382.011	10.61
382.219	10.93
382.428	11.03
382.636	10.15
382.845	10.28
383.053	10.19
383.261	9.64
383.469	9.71
383.678	9.38
383.886	9.28
384.094	9.24
384.302	9.27
384.511	9.65
384.719	9.3
384.927	10.3
385.135	10.05
385.343	9.85
385.552	10.07
385.76	9.64
385.968	9.41
386.176	9.18
386.384	8.99
386.592	9.36
386.8	8.27
387.008	8.2
387.216	7.27
387.424	7.31
387.633	7.3
387.841	7.44
388.049	7.2
388.257	7.63
388.465	7.34
388.672	6.93
388.88	6.89
389.088	7.65
389.296	7.7
389.504	7.82
389.712	7.72
389.92	7.59
390.128	7.13
390.336	7.73
390.544	7.73
390.751	8.2
390.959	8.75
391.167	8.37
391.375	8.29
391.583	8.32
391.79	8.1
391.998	8
392.206	7.99
392.414	8.41
392.621	8.31
392.829	7.86
393.037	7.77
393.244	7.38
393.452	7.57
393.66	7.29
393.867	7.57
394.075	7.72
394.283	7.83
394.49	7.53
394.698	7.39
394.905	7.33
395.113	7.37
395.32	7.27
395.528	7.67
395.735	7.04
395.943	7.3
396.15	7
396.358	6.87
396.565	7.04
396.773	7.81
396.98	7.92
397.188	7.68
397.395	7.91
397.602	8
397.81	7.64
398.017	8.35
398.225	8.25
398.432	7.98
398.639	8.1
398.847	8.17
399.054	7.67
399.261	7.67
399.468	7.8
399.676	7.6
399.883	7.61
400.09	7.79
400.297	7.4
400.505	7.37
400.712	7.61
400.919	7.96
401.126	7.56
401.333	7.71
401.54	7.51
401.748	7.33
401.955	7.54
402.162	7.54
402.369	7.4
402.576	7.38
402.783	7.49
402.99	7.3
403.197	6.69
403.404	6.65
403.611	6.52
403.818	6.48
404.025	6.42
404.232	6.19
404.439	6.09
404.646	6.37
404.853	6.52
405.06	6.64
405.267	6.76
405.474	7.26
405.681	7.27
405.887	7.43
406.094	7.32
406.301	7.32
406.508	7.44
406.715	7.25
406.922	7.22
407.128	7.03
407.335	6.42
407.542	6.56
407.749	6
407.955	6.03
408.162	5.81
408.369	6.13
408.575	6.35
408.782	6.45
408.989	6.57
409.195	6.57
409.402	6.66
409.609	7.2
409.815	7.03
410.022	7.45
410.228	7.68
410.435	7.72
410.642	7.74
410.848	7.64
411.055	7.55
411.261	7.49
411.468	7.05
411.674	6.96
411.881	6.84
412.087	6.82
412.294	6.69
412.5	6.43
412.706	6.52
412.913	6.23
413.119	6.06
413.326	6.26
413.532	6.24
413.738	6.33
413.945	6.46
414.151	6.42
414.357	6.32
414.564	6.1
414.77	6.12
414.976	6.07
415.182	6
415.389	6.35
415.595	5.99
415.801	6.06
416.007	6.41
416.214	6.35
416.42	6.22
416.626	6.43
416.832	6.8
417.038	6.77
417.244	6.82
417.45	7.05
417.657	6.92
417.863	7.06
418.069	7.17
418.275	6.86
418.481	6.94
418.687	7.13
418.893	6.9
419.099	6.64
419.305	6.56
419.511	6.52
419.717	6.41
419.923	6.34
420.129	6.26
420.335	6.13
420.541	6.22
420.746	6.19
420.952	6.14
421.158	6.22
421.364	6.29
421.57	6.23
421.776	6.29
421.982	6.18
422.187	6.24
422.393	6.35
422.599	6.44
422.805	6.43
423.01	6.35
423.216	6.23
423.422	6.21
423.628	6.2
423.833	6.35
424.039	6.26
424.245	6.15
424.45	5.99
424.656	5.96
424.862	5.81
425.067	5.76
425.273	5.78
425.478	5.65
425.684	5.57
425.889	5.67
426.095	5.58
426.301	5.62
426.506	5.86
426.712	5.97
426.917	5.7
427.123	5.81
427.328	5.73
427.533	5.57
427.739	5.83
427.944	6.05
428.15	5.97
428.355	6.16
428.561	6.15
428.766	6.27
428.971	6.1
429.177	6.29
429.382	6.44
429.587	6.69
429.793	6.85
429.998	6.68
430.203	6.67
430.408	6.76
430.614	6.7
430.819	6.51
431.024	6.4
431.229	6.66
431.434	6.9
431.64	6.76
431.845	6.6
432.05	6.76
432.255	6.94
432.46	6.81
432.665	6.78
432.87	6.64
433.076	6.81
433.281	6.88
433.486	6.81
433.691	6.42
433.896	6.41
434.101	6.34
434.306	6.38
434.511	6.42
434.716	6.54
434.921	6.48
435.126	6.48
435.331	6.33
435.535	6.11
435.74	6.24
435.945	6.26
436.15	6.26
436.355	6.34
436.56	6.37
436.765	6.4
436.97	6.41
437.174	6.46
437.379	6.65
437.584	6.66
437.789	6.72
437.993	6.62
438.198	6.69
438.403	6.66
438.608	6.76
438.812	6.51
439.017	6.35
439.222	6.27
439.426	5.99
439.631	5.87
439.836	5.79
440.04	5.78
440.245	5.71
440.45	5.75
440.654	5.8
440.859	5.59
441.063	5.64
441.268	5.59
441.472	5.68
441.677	5.89
441.881	5.82
442.086	5.95
442.29	6.01
442.495	6.13
442.699	6.19
442.904	6.11
443.108	6.27
443.312	6.27
443.517	6.29
443.721	6.09
443.925	6.08
444.13	5.97
444.334	5.85
444.538	5.84
444.743	5.63
444.947	5.64
445.151	5.68
445.356	5.72
445.56	5.73
445.764	5.74
445.968	5.78
446.173	5.76
446.377	5.9
446.581	5.95
446.785	6.03
446.989	6.05
447.193	5.98
447.398	5.92
447.602	5.79
447.806	5.81
448.01	5.87
448.214	5.83
448.418	5.84
448.622	5.93
448.826	6.04
449.03	5.82
449.234	5.99
449.438	6.11
449.642	6.09
449.846	6.21
450.05	6.12
450.254	6.05
450.458	6.14
450.662	5.98
450.866	5.81
451.069	5.72
451.273	5.96
451.477	5.79
451.681	5.84
451.885	5.98
452.089	6.08
452.292	6.22
452.496	6.22
452.7	6.33
452.904	6.47
453.107	6.62
453.311	6.54
453.515	6.56
453.719	6.76
453.922	6.67
454.126	6.48
454.33	6.3
454.533	6.17
454.737	6.25
454.94	6.07
455.144	6.14
455.348	6.01
455.551	5.97
455.755	5.98
455.958	5.81
456.162	5.81
456.365	5.99
456.569	6.26
456.772	6.29
456.976	6.26
457.179	6.23
457.383	6.11
457.586	6.2
457.79	6.46
457.993	6.35
458.196	6.18
458.4	6.08
458.603	6.11
458.807	5.84
459.01	5.98
459.213	5.87
459.417	5.76
459.62	5.75
459.823	5.63
460.026	5.4
