Data from 2937812_Reflection_3.txt Node
Date: Wed Jul 15 17:44:46 EDT 2015
User: robert
Spectrometer: USB4E03001
Autoset integration time: false
Trigger mode: 4
Integration Time (sec): 1.000000E-1
Scans to average: 10
Electric dark correction enabled: true
Nonlinearity correction enabled: false
Boxcar width: 5
Stray light correction enabled: false
XAxis mode: Wavelengths
Stop averaging: false
Number of Pixels in Spectrum: 3648
>>>>>Begin Spectral Data<<<<<
177.566	121.2
177.785	-5291.67
178.005	3.75
178.225	-55.82
178.445	-9.25
178.665	-7.41
178.885	113.55
179.105	152.08
179.324	635.13
179.544	-21.37
179.764	19.93
179.984	-78.35
180.204	197.96
180.423	-104.37
180.643	3228.99
180.863	70.52
181.083	70.83
181.302	-231.65
181.522	-77.21
181.742	-171.9
181.961	-122.24
182.181	-138.8
182.401	-432.82
182.621	-102.95
182.84	875.39
183.06	2135.4
183.279	-8.6
183.499	31.45
183.719	174.2
183.938	33.19
184.158	49.71
184.377	32.14
184.597	47.45
184.816	42.92
185.036	36.56
185.256	29.25
185.475	33.46
185.695	31.51
185.914	13.04
186.134	12.77
186.353	33.45
186.572	13.24
186.792	24.79
187.011	24.82
187.231	23.32
187.45	23.56
187.67	4.8
187.889	-13.7
188.108	-36.57
188.328	-9.56
188.547	-28.82
188.766	-132.49
188.986	-207.43
189.205	275.45
189.424	221.13
189.644	-1687.86
189.863	-228.96
190.082	-1108.81
190.302	-157.85
190.521	-15.29
190.74	-608.07
190.959	630.41
191.178	-513.45
191.398	99.82
191.617	92.99
191.836	142.68
192.055	129.1
192.274	79.53
192.494	99.43
192.713	227.43
192.932	201.66
193.151	192.34
193.37	803.89
193.589	174.93
193.808	379.47
194.027	-45.71
194.246	178.35
194.465	333.93
194.685	150.79
194.904	-34.7
195.123	396.01
195.342	360.99
195.561	267.65
195.78	-43.52
195.999	-130.78
196.218	50.42
196.436	6.25
196.655	74.09
196.874	115.36
197.093	82.11
197.312	-656.44
197.531	611.24
197.75	-55.88
197.969	-57.88
198.188	-21.84
198.407	-32.64
198.625	-54.62
198.844	-464.74
199.063	4133.33
199.282	216.26
199.501	-1131.34
199.719	47.22
199.938	193.37
200.157	670.27
200.376	-126.21
200.594	-220.41
200.813	-20.28
201.032	19.24
201.251	9.22
201.469	5.37
201.688	-630.9
201.907	199.51
202.125	-607.84
202.344	-42.68
202.563	130.93
202.781	128.99
203	65.21
203.218	117.93
203.437	101.75
203.656	89.47
203.874	74.01
204.093	51.42
204.311	57.53
204.53	56.4
204.748	57.22
204.967	5.25
205.185	-37
205.404	-174.44
205.622	-280.82
205.841	-809.17
206.059	-439.79
206.278	-287.12
206.496	161.26
206.715	369.94
206.933	195.35
207.151	172.13
207.37	1206.56
207.588	329.26
207.806	-33.51
208.025	29.46
208.243	63.22
208.461	284.75
208.68	664.25
208.898	-342.15
209.116	-140.68
209.335	5.19
209.553	-535.96
209.771	-23.27
209.989	653.41
210.208	901.06
210.426	1057.82
210.644	344.44
210.862	153.59
211.081	136.18
211.299	126.3
211.517	164.38
211.735	176.62
211.953	236.17
212.171	203.9
212.39	138.82
212.608	102.1
212.826	134.68
213.044	195.11
213.262	436.44
213.48	321.68
213.698	62850
213.916	148.13
214.134	158.67
214.352	740.31
214.57	642.82
214.788	-3645
215.006	1368.97
215.224	-263.5
215.442	-944.75
215.66	15.87
215.878	38.98
216.096	57.73
216.314	121.9
216.532	126.42
216.75	160.14
216.968	132.93
217.185	32.48
217.403	52.15
217.621	3.45
217.839	-23.52
218.057	-659.55
218.275	135.74
218.492	107.19
218.71	156.59
218.928	136.95
219.146	142.19
219.363	138.34
219.581	125.97
219.799	152.35
220.017	119.36
220.234	82.32
220.452	110.52
220.67	214.29
220.887	-14.03
221.105	-53.24
221.323	-8.91
221.54	-82.39
221.758	246.77
221.976	342.92
222.193	-200
222.411	241.36
222.629	321.64
222.846	377.26
223.064	163.52
223.281	330.23
223.499	288.58
223.716	204.24
223.934	165.87
224.151	1139.51
224.369	3635.54
224.586	1363.66
224.804	-528.14
225.021	-172.9
225.239	-103.05
225.456	-128.28
225.674	15.31
225.891	96.93
226.108	71.8
226.326	61.58
226.543	64.84
226.76	83.21
226.978	60.64
227.195	29.56
227.413	18.93
227.63	-1.87
227.847	8.4
228.064	5.8
228.282	-2.39
228.499	5.04
228.716	4.34
228.934	0.17
229.151	1.88
229.368	2.75
229.585	4.95
229.802	7.79
230.02	13.24
230.237	12.59
230.454	11.73
230.671	7.96
230.888	4.24
231.105	6.13
231.323	8.9
231.54	4.81
231.757	3.78
231.974	8.14
232.191	3.13
232.408	-1.97
232.625	7.33
232.842	2.37
233.059	10.5
233.276	17.66
233.493	15.16
233.71	20.37
233.927	19.75
234.144	20.86
234.361	19.88
234.578	19.77
234.795	27.02
235.012	11.71
235.229	17.18
235.446	19.72
235.663	17.68
235.879	12.55
236.096	11.82
236.313	10.89
236.53	9.34
236.747	0.38
236.964	-3.79
237.181	-18.07
237.397	-12.16
237.614	-15.72
237.831	-25.43
238.048	-19.93
238.264	-9.64
238.481	-7.18
238.698	-6.39
238.915	-0.67
239.131	23.5
239.348	21.47
239.565	27.36
239.781	14.73
239.998	10.05
240.215	12.5
240.431	2.49
240.648	3.93
240.865	0.36
241.081	5.89
241.298	7.27
241.514	2.26
241.731	4.89
241.947	4.89
242.164	9.15
242.38	6.96
242.597	8.14
242.814	10.37
243.03	7.84
243.246	10.45
243.463	9.21
243.679	7.36
243.896	7.94
244.112	7.99
244.329	9.59
244.545	12.93
244.762	15.73
244.978	16.75
245.194	20.45
245.411	20.45
245.627	17.61
245.843	16.57
246.06	15.5
246.276	14.15
246.492	12.81
246.709	13.18
246.925	11.88
247.141	13.74
247.357	11.55
247.574	9.29
247.79	8.97
248.006	9.67
248.222	8.91
248.439	9.67
248.655	7.65
248.871	7.06
249.087	5.15
249.303	3.73
249.519	-0
249.736	1.69
249.952	2.39
250.168	3.53
250.384	1.77
250.6	5.64
250.816	0.41
251.032	3.12
251.248	2.61
251.464	4.09
251.68	3.8
251.896	4.55
252.112	1.85
252.328	0.64
252.544	2.43
252.76	1.29
252.976	0.09
253.192	3.04
253.408	3.27
253.624	4.25
253.84	2.65
254.056	2.52
254.272	2.27
254.487	5.07
254.703	7.77
254.919	5.9
255.135	7.23
255.351	7.71
255.567	7.99
255.782	6.5
255.998	6.01
256.214	4.79
256.43	8.76
256.646	4.8
256.861	4.31
257.077	3.38
257.293	2.1
257.508	1.46
257.724	1.78
257.94	2.62
258.155	3.49
258.371	4.25
258.587	2.62
258.802	1.04
259.018	2.71
259.234	3.3
259.449	3.44
259.665	3.56
259.88	5.03
260.096	3.48
260.312	3.57
260.527	3.94
260.743	3.53
260.958	4.93
261.174	5.11
261.389	5.67
261.605	5.5
261.82	4.85
262.036	5.72
262.251	3.86
262.466	6.19
262.682	5.54
262.897	3.58
263.113	3.18
263.328	2.64
263.543	3.34
263.759	2.42
263.974	1.94
264.189	5.08
264.405	4.16
264.62	3.15
264.835	0.2
265.051	1.53
265.266	3.62
265.481	2.17
265.696	4.47
265.912	5.53
266.127	7.35
266.342	6.03
266.557	2.23
266.773	4.21
266.988	6.33
267.203	6.56
267.418	5.77
267.633	4.95
267.848	6.36
268.064	4.66
268.279	3.68
268.494	1.79
268.709	2.84
268.924	5.95
269.139	3.37
269.354	2.87
269.569	3.3
269.784	3.62
269.999	5.66
270.214	5.19
270.429	8.29
270.644	6.64
270.859	6.88
271.074	8.21
271.289	7.12
271.504	6.4
271.719	6.28
271.934	6.9
272.149	5.92
272.363	6.11
272.578	7.3
272.793	4.91
273.008	5.79
273.223	5.52
273.438	4.75
273.653	4.95
273.867	6.34
274.082	6.83
274.297	6.64
274.512	6.25
274.726	4.61
274.941	5.8
275.156	6.74
275.371	6.99
275.585	7.15
275.8	5.6
276.015	5.15
276.229	2.74
276.444	2.28
276.659	2.87
276.873	1.63
277.088	1.12
277.302	-0.39
277.517	-2.23
277.732	-3.23
277.946	-1.36
278.161	-0.05
278.375	0.32
278.59	3.36
278.804	1.02
279.019	-0.76
279.233	1.75
279.448	2.44
279.662	0.12
279.877	0.1
280.091	-0.64
280.306	-1.92
280.52	-0.96
280.735	-1.24
280.949	-0.83
281.163	3.64
281.378	4
281.592	3.69
281.806	5.54
282.021	7.35
282.235	6.86
282.449	8.01
282.664	8.45
282.878	9.1
283.092	9.66
283.307	9.03
283.521	7.24
283.735	7.04
283.949	5.98
284.164	4.37
284.378	3.39
284.592	5.67
284.806	7.48
285.02	7.38
285.234	7.02
285.449	6.85
285.663	6.96
285.877	6.26
286.091	6.41
286.305	7.56
286.519	6.43
286.733	6.34
286.947	5.54
287.161	4.54
287.375	4.58
287.589	5.26
287.803	4.99
288.017	4.83
288.231	3.12
288.445	3.04
288.659	3.31
288.873	6.61
289.087	7.46
289.301	7.67
289.515	8.48
289.729	8.51
289.943	7.55
290.157	7.2
290.371	6.08
290.584	9.5
290.798	9.57
291.012	8.7
291.226	7.87
291.44	7.51
291.654	6.95
291.867	6.55
292.081	5.74
292.295	6.81
292.509	8.4
292.722	9.02
292.936	8.41
293.15	10.7
293.364	11.47
293.577	11.81
293.791	10.66
294.005	9.51
294.218	6.77
294.432	7.67
294.645	5.24
294.859	4.5
295.073	4.69
295.286	3.36
295.5	2.4
295.713	2.36
295.927	1.71
296.14	1.34
296.354	1.52
296.568	3.03
296.781	4.5
296.994	5.95
297.208	6.44
297.421	7.24
297.635	7.28
297.848	6.5
298.062	6.65
298.275	6.63
298.489	8.49
298.702	10.33
298.915	11.33
299.129	10.83
299.342	9.84
299.555	9.43
299.769	8.79
299.982	10.11
300.195	10.14
300.409	9.27
300.622	8.78
300.835	7.4
301.048	6.82
301.262	5.51
301.475	3.36
301.688	5.15
301.901	4.71
302.115	4.1
302.328	4.26
302.541	5.03
302.754	7.13
302.967	8.97
303.18	9.8
303.393	8.61
303.607	10.06
303.82	13.45
304.033	11.26
304.246	12.89
304.459	12.76
304.672	11.26
304.885	12.32
305.098	11.71
305.311	11.84
305.524	12.86
305.737	13.09
305.95	12.21
306.163	10.62
306.376	11.4
306.589	10.86
306.802	10.86
307.015	9.37
307.228	7.85
307.44	8.21
307.653	8.59
307.866	6.1
308.079	7.32
308.292	6.94
308.505	6.12
308.718	8.62
308.93	8.87
309.143	11.55
309.356	13.47
309.569	13.09
309.781	13.53
309.994	11.68
310.207	13.33
310.42	11.86
310.632	12.2
310.845	13.54
311.058	12.52
311.27	12.55
311.483	12.04
311.696	12
311.908	12.12
312.121	10.97
312.333	12.07
312.546	11.79
312.759	12.31
312.971	12.87
313.184	11.57
313.396	11.82
313.609	10.88
313.821	10.67
314.034	10.03
314.246	11.14
314.459	13.25
314.671	13.05
314.884	14.42
315.096	14.13
315.309	11.4
315.521	12.57
315.733	12.08
315.946	12.77
316.158	12.03
316.371	14.22
316.583	15.54
316.795	14.37
317.008	14.81
317.22	13.37
317.432	15
317.644	18.82
317.857	17.67
318.069	18.15
318.281	17.3
318.494	16.04
318.706	14.53
318.918	15.49
319.13	16.29
319.342	18.79
319.555	17.87
319.767	17.62
319.979	14.93
320.191	17.51
320.403	15.44
320.615	15.71
320.827	15.85
321.039	16.59
321.252	16.64
321.464	17.1
321.676	14.89
321.888	16.92
322.1	16.67
322.312	19.17
322.524	17.53
322.736	19.51
322.948	20.74
323.16	22.43
323.372	22.53
323.584	21.65
323.796	21.32
324.007	20.09
324.219	19.9
324.431	20.62
324.643	20.12
324.855	21.41
325.067	22.57
325.279	22.62
325.491	24.19
325.702	25.15
325.914	25.36
326.126	25.98
326.338	27.43
326.55	27.05
326.761	28.19
326.973	27.44
327.185	28.53
327.396	27.64
327.608	28.64
327.82	28.12
328.032	28.47
328.243	30
328.455	29.99
328.666	30.06
328.878	31.43
329.09	31.17
329.301	32.05
329.513	30.4
329.725	30.65
329.936	31.01
330.148	32.82
330.359	33.24
330.571	33.86
330.782	35.5
330.994	36.67
331.205	37.69
331.417	38.77
331.628	40.94
331.84	43.2
332.051	45.04
332.262	47.19
332.474	45.38
332.685	44.64
332.897	45.04
333.108	45.31
333.319	45.61
333.531	45.81
333.742	46.6
333.953	47.06
334.165	47.72
334.376	50.23
334.587	49.67
334.799	52.93
335.01	56.76
335.221	55.79
335.432	54.75
335.644	56.19
335.855	55.84
336.066	56.9
336.277	57.47
336.488	57.39
336.7	56.34
336.911	58.59
337.122	58.4
337.333	56.86
337.544	59.21
337.755	60.4
337.966	60.72
338.177	62.08
338.388	61.01
338.599	61.2
338.811	60.62
339.022	60.43
339.233	56.97
339.444	56.92
339.655	57.51
339.866	55.66
340.076	56.7
340.287	56.29
340.498	56.67
340.709	56.41
340.92	56.73
341.131	58.81
341.342	59.18
341.553	60.58
341.764	59.48
341.975	59.01
342.185	59.95
342.396	60.49
342.607	60.85
342.818	61.46
343.029	64
343.239	63.24
343.45	63.67
343.661	62.8
343.872	64.05
344.082	65.65
344.293	65.01
344.504	65.96
344.714	63.67
344.925	64.45
345.136	64.14
345.346	63.41
345.557	64.36
345.768	62.95
345.978	64.17
346.189	63.17
346.399	63.47
346.61	64.71
346.821	63.5
347.031	64.52
347.242	63.74
347.452	63.99
347.663	64
347.873	64.66
348.084	65.66
348.294	65.15
348.504	64.52
348.715	63.94
348.925	63.29
349.136	63.47
349.346	63.08
349.557	62.58
349.767	63.19
349.977	62.1
350.188	61.79
350.398	61.77
350.608	61.82
350.819	63.22
351.029	61.33
351.239	62.06
351.449	60.19
351.66	60.22
351.87	60.7
352.08	59.37
352.29	60.09
352.501	59.75
352.711	60.37
352.921	59.45
353.131	58.51
353.341	60.44
353.552	60.33
353.762	61.87
353.972	62.29
354.182	63.03
354.392	63.44
354.602	64.52
354.812	63.29
355.022	62.93
355.232	64.14
355.442	64.57
355.652	64.62
355.862	63.54
356.072	63.28
356.282	63.72
356.492	63.26
356.702	63.95
356.912	62.99
357.122	64.48
357.332	63.81
357.542	62.5
357.752	62.82
357.962	62.02
358.171	62.48
358.381	63.01
358.591	62.87
358.801	62.14
359.011	62.28
359.221	61.41
359.43	60.48
359.64	60.53
359.85	61.56
360.06	60.55
360.269	60.87
360.479	60.24
360.689	60.31
360.899	60.16
361.108	61.07
361.318	61.38
361.528	61.81
361.737	62.29
361.947	62.39
362.156	61.99
362.366	63.15
362.576	62.71
362.785	62.62
362.995	62.69
363.204	63.36
363.414	62.94
363.623	62.17
363.833	62.56
364.042	61.8
364.252	62.75
364.461	61.64
364.671	60.63
364.88	60.72
365.09	62.2
365.299	62.57
365.509	61.54
365.718	62.13
365.927	61.41
366.137	60.7
366.346	60.26
366.555	58.66
366.765	59.73
366.974	60.26
367.183	60.37
367.393	59.77
367.602	58.51
367.811	57.95
368.021	56.99
368.23	56.9
368.439	56.21
368.648	57.01
368.857	57.49
369.067	57.28
369.276	56.74
369.485	56.43
369.694	55.53
369.903	57.15
370.112	56.93
370.321	56.17
370.531	55.89
370.74	55.49
370.949	55.28
371.158	54.65
371.367	53.95
371.576	53.84
371.785	53.64
371.994	53.51
372.203	51.61
372.412	51.72
372.621	51.35
372.83	50.95
373.039	51.54
373.248	51.5
373.457	51.79
373.666	51.74
373.874	51
374.083	51.26
374.292	51.16
374.501	51.83
374.71	51.68
374.919	52.12
375.128	52.25
375.336	52.65
375.545	51.89
375.754	50.56
375.963	50.3
376.171	49.82
376.38	49.39
376.589	48.55
376.798	48.33
377.006	48.04
377.215	47.18
377.424	46.67
377.632	45.53
377.841	45.62
378.05	46.14
378.258	46.49
378.467	46.77
378.675	46.31
378.884	46.63
379.093	46.78
379.301	46.93
379.51	47.02
379.718	47.56
379.927	47.86
380.135	47.01
380.344	46.68
380.552	47.21
380.761	47.21
380.969	47.26
381.177	47.3
381.386	46.39
381.594	45.46
381.803	46.03
382.011	44.84
382.219	44.91
382.428	45.39
382.636	44.71
382.845	43.38
383.053	42.93
383.261	42.03
383.469	42.36
383.678	42.09
383.886	42.59
384.094	41.67
384.302	41.59
384.511	41
384.719	40.64
384.927	41.06
385.135	41.36
385.343	41.17
385.552	40.96
385.76	39.81
385.968	39.55
386.176	38.67
386.384	38.29
386.592	38.58
386.8	38.65
387.008	38.19
387.216	37.62
387.424	37.14
387.633	36.68
387.841	36.97
388.049	37.04
388.257	36.81
388.465	36.93
388.672	37.22
388.88	36.92
389.088	36.25
389.296	36.37
389.504	36.24
389.712	35.91
389.92	35.71
390.128	35.06
390.336	34.99
390.544	35.23
390.751	35.14
390.959	34.92
391.167	34.68
391.375	34.81
391.583	34.52
391.79	34.47
391.998	34.48
392.206	34.72
392.414	34.67
392.621	34.4
392.829	33.98
393.037	33.82
393.244	33.57
393.452	33.58
393.66	33.26
393.867	33
394.075	32.97
394.283	32.67
394.49	32.42
394.698	32.38
394.905	32.64
395.113	32.82
395.32	33.11
395.528	33.35
395.735	32.97
395.943	32.99
396.15	32.93
396.358	33.23
396.565	32.97
396.773	32.94
396.98	32.95
397.188	32.64
397.395	32.51
397.602	32.07
397.81	31.89
398.017	32.02
398.225	32.07
398.432	32.14
398.639	31.6
398.847	31.91
399.054	31.78
399.261	31.89
399.468	31.99
399.676	31.74
399.883	32.02
400.09	31.64
400.297	31.6
400.505	31.82
400.712	32.07
400.919	32.34
401.126	32.05
401.333	32.43
401.54	32.39
401.748	32.21
401.955	32.34
402.162	32.04
402.369	32.14
402.576	32.47
402.783	32.22
402.99	31.75
403.197	31.56
403.404	31.82
403.611	31.51
403.818	31.58
404.025	31.69
404.232	31.94
404.439	32.09
404.646	32.11
404.853	31.83
405.06	31.65
405.267	31.9
405.474	32.06
405.681	32.17
405.887	32.2
406.094	32.03
406.301	32.03
406.508	31.54
406.715	31.39
406.922	31.2
407.128	31.2
407.335	31.28
407.542	31.19
407.749	30.56
407.955	30.41
408.162	30.27
408.369	30.29
408.575	30.15
408.782	30.13
408.989	30.18
409.195	30.33
409.402	30.55
409.609	30.67
409.815	30.5
410.022	30.98
410.228	30.94
410.435	31.17
410.642	31.39
410.848	31.56
411.055	31.87
411.261	31.85
411.468	32
411.674	31.66
411.881	31.47
412.087	31.85
412.294	31.79
412.5	32.04
412.706	31.87
412.913	31.63
413.119	31.29
413.326	31.3
413.532	31.11
413.738	31.04
413.945	31.39
414.151	31.23
414.357	31.02
414.564	31.1
414.77	30.75
414.976	30.82
415.182	30.75
415.389	30.85
415.595	30.5
415.801	30.49
416.007	30.31
416.214	29.89
416.42	30.36
416.626	30.26
416.832	30
417.038	30.02
417.244	29.98
417.45	30.04
417.657	29.84
417.863	30.01
418.069	30.14
418.275	30.26
418.481	30.21
418.687	29.99
418.893	29.99
419.099	29.85
419.305	29.81
419.511	29.81
419.717	29.88
419.923	29.97
420.129	29.91
420.335	29.86
420.541	29.8
420.746	29.85
420.952	29.83
421.158	29.87
421.364	29.89
421.57	29.82
421.776	29.8
421.982	29.64
422.187	29.6
422.393	29.56
422.599	29.55
422.805	29.6
423.01	29.52
423.216	29.31
423.422	29.24
423.628	29.31
423.833	29.32
424.039	29.31
424.245	29.44
424.45	29.36
424.656	29.46
424.862	29.4
425.067	29.37
425.273	29.33
425.478	29.34
425.684	29.27
425.889	29.2
426.095	28.96
426.301	28.91
426.506	28.71
426.712	28.84
426.917	28.71
427.123	28.68
427.328	28.55
427.533	28.61
427.739	28.75
427.944	28.76
428.15	29.07
428.355	29.51
428.561	29.36
428.766	29.26
428.971	28.97
429.177	28.86
429.382	28.73
429.587	28.66
429.793	28.4
429.998	28.34
430.203	28.16
430.408	27.73
430.614	27.75
430.819	27.9
431.024	27.73
431.229	27.96
431.434	28.01
431.64	28.33
431.845	28.28
432.05	28.71
432.255	28.92
432.46	29.1
432.665	29.17
432.87	29.02
433.076	29
433.281	29.24
433.486	29.21
433.691	29.16
433.896	29.14
434.101	29.24
434.306	29.21
434.511	28.88
434.716	28.87
434.921	28.99
435.126	28.99
435.331	28.88
435.535	28.97
435.74	29.04
435.945	29.08
436.15	28.71
436.355	28.56
436.56	28.52
436.765	28.64
436.97	28.4
437.174	28.31
437.379	28.46
437.584	28.54
437.789	28.53
437.993	28.56
438.198	28.54
438.403	28.64
438.608	28.77
438.812	28.72
439.017	28.86
439.222	29.1
439.426	28.97
439.631	28.78
439.836	28.61
440.04	28.57
440.245	28.49
440.45	28.4
440.654	28.39
440.859	28.47
441.063	28.62
441.268	28.53
441.472	28.53
441.677	28.52
441.881	28.47
442.086	28.46
442.29	28.5
442.495	28.45
442.699	28.62
442.904	28.6
443.108	28.48
443.312	28.23
443.517	28.18
443.721	27.85
443.925	28.07
444.13	28.14
444.334	28.4
444.538	28.26
444.743	28.31
444.947	28.18
445.151	28.21
445.356	28.19
445.56	28.2
445.764	28.18
445.968	28.28
446.173	28.22
446.377	28.29
446.581	28.33
446.785	28.39
446.989	28.44
447.193	28.33
447.398	28.33
447.602	28.3
447.806	28.39
448.01	28.33
448.214	28.34
448.418	28.31
448.622	28.3
448.826	27.96
449.03	28.09
449.234	27.82
449.438	28.08
449.642	28.27
449.846	28.4
450.05	28.35
450.254	28.04
450.458	28.06
450.662	27.88
450.866	27.84
451.069	27.91
451.273	27.62
451.477	27.89
451.681	27.68
451.885	27.44
452.089	27.34
452.292	27.19
452.496	27.49
452.7	27.41
452.904	27.42
453.107	27.15
453.311	27.34
453.515	27.34
453.719	27.11
453.922	26.94
454.126	27.03
454.33	26.79
454.533	26.89
454.737	27.01
454.94	27.02
455.144	27.14
455.348	27.5
455.551	27.14
455.755	27.18
455.958	27.2
456.162	27.46
456.365	27.41
456.569	27.53
456.772	27.35
456.976	27.42
457.179	27.8
457.383	27.74
457.586	27.6
457.79	27.73
457.993	27.7
458.196	27.54
458.4	27.58
458.603	27.35
